set title 'mp-1008559 - Density of States'
set xlabel 'Energy (eV)'
set ylabel 'DOS (states/eV)'
set grid
set xrange [-10:10]
set yrange [0:3.622]
set xzeroaxis lt -1
set terminal png size 800,600
set output 'mp-1008559_dos_gnuplot.png'
plot '-' using 1:2 with lines title 'DOS'
-9.388300 0.000000
-9.373200 0.000000
-9.358000 0.000000
-9.342900 0.000000
-9.327700 0.000000
-9.312600 0.000000
-9.297400 0.000000
-9.282300 0.000000
-9.267100 0.000000
-9.252000 0.000000
-9.236800 0.000000
-9.221700 0.000000
-9.206500 0.000000
-9.191400 0.000000
-9.176200 0.000000
-9.161100 0.000000
-9.145900 0.000000
-9.130800 0.000000
-9.115700 0.000000
-9.100500 0.000000
-9.085400 0.000000
-9.070200 0.000000
-9.055100 0.000000
-9.039900 0.000000
-9.024800 0.000000
-9.009600 0.000000
-8.994500 0.000000
-8.979300 0.000000
-8.964200 0.000000
-8.949000 0.000000
-8.933900 0.000000
-8.918700 0.000000
-8.903600 0.000000
-8.888400 0.000000
-8.873300 0.000000
-8.858100 0.000000
-8.843000 0.000000
-8.827900 0.000000
-8.812700 0.000000
-8.797600 0.000000
-8.782400 0.000000
-8.767300 0.000000
-8.752100 0.000000
-8.737000 0.000000
-8.721800 0.000000
-8.706700 0.000000
-8.691500 0.000000
-8.676400 0.000000
-8.661200 0.000000
-8.646100 0.000000
-8.630900 0.000000
-8.615800 0.000000
-8.600600 0.000000
-8.585500 0.000000
-8.570400 0.000000
-8.555200 0.000000
-8.540100 0.000000
-8.524900 0.000000
-8.509800 0.000000
-8.494600 0.000000
-8.479500 0.000000
-8.464300 0.000000
-8.449200 0.000000
-8.434000 0.000000
-8.418900 0.000000
-8.403700 0.000000
-8.388600 0.000000
-8.373400 0.000000
-8.358300 0.000000
-8.343100 0.000000
-8.328000 0.000000
-8.312800 0.000000
-8.297700 0.000000
-8.282600 0.000000
-8.267400 0.000000
-8.252300 0.000000
-8.237100 0.000000
-8.222000 0.000000
-8.206800 0.000000
-8.191700 0.000000
-8.176500 0.000000
-8.161400 0.000000
-8.146200 0.000000
-8.131100 0.000000
-8.115900 0.000000
-8.100800 0.000000
-8.085600 0.000000
-8.070500 0.000000
-8.055300 0.000000
-8.040200 0.000000
-8.025000 0.000000
-8.009900 0.000100
-7.994800 0.013700
-7.979600 0.050500
-7.964500 0.086300
-7.949300 0.094800
-7.934200 0.099400
-7.919000 0.114200
-7.903900 0.129600
-7.888700 0.145700
-7.873600 0.158100
-7.858400 0.163900
-7.843300 0.166600
-7.828100 0.172900
-7.813000 0.181100
-7.797800 0.189500
-7.782700 0.197900
-7.767500 0.206300
-7.752400 0.214900
-7.737200 0.224200
-7.722100 0.231500
-7.707000 0.235600
-7.691800 0.239500
-7.676700 0.244900
-7.661500 0.250100
-7.646400 0.255100
-7.631200 0.260200
-7.616100 0.265500
-7.600900 0.271200
-7.585800 0.277300
-7.570600 0.283700
-7.555500 0.290200
-7.540300 0.296800
-7.525200 0.303400
-7.510000 0.308700
-7.494900 0.312200
-7.479700 0.315000
-7.464600 0.318900
-7.449400 0.323200
-7.434300 0.327400
-7.419200 0.331700
-7.404000 0.335800
-7.388900 0.340100
-7.373700 0.344600
-7.358600 0.349400
-7.343400 0.354300
-7.328300 0.359200
-7.313100 0.364200
-7.298000 0.369200
-7.282800 0.374200
-7.267700 0.379200
-7.252500 0.384000
-7.237400 0.387700
-7.222200 0.390800
-7.207100 0.394200
-7.191900 0.397800
-7.176800 0.401300
-7.161700 0.404700
-7.146500 0.408300
-7.131400 0.412000
-7.116200 0.415800
-7.101100 0.419700
-7.085900 0.423600
-7.070800 0.427600
-7.055600 0.431600
-7.040500 0.435600
-7.025300 0.439600
-7.010200 0.443700
-6.995000 0.447800
-6.979900 0.452000
-6.964700 0.456300
-6.949600 0.460700
-6.934400 0.465000
-6.919300 0.468800
-6.904100 0.471900
-6.889000 0.474800
-6.873900 0.478100
-6.858700 0.481500
-6.843600 0.484700
-6.828400 0.488000
-6.813300 0.491200
-6.798100 0.494400
-6.783000 0.497700
-6.767800 0.501200
-6.752700 0.504700
-6.737500 0.508400
-6.722400 0.512000
-6.707200 0.515700
-6.692100 0.519400
-6.676900 0.523100
-6.661800 0.526800
-6.646600 0.530600
-6.631500 0.534400
-6.616300 0.538200
-6.601200 0.542100
-6.586100 0.546000
-6.570900 0.549900
-6.555800 0.553600
-6.540600 0.556900
-6.525500 0.559900
-6.510300 0.563000
-6.495200 0.566200
-6.480000 0.569300
-6.464900 0.572500
-6.449700 0.575700
-6.434600 0.579000
-6.419400 0.582400
-6.404300 0.585800
-6.389100 0.589300
-6.374000 0.592700
-6.358800 0.596200
-6.343700 0.599600
-6.328500 0.603100
-6.313400 0.606600
-6.298300 0.610200
-6.283100 0.613700
-6.268000 0.617400
-6.252800 0.621000
-6.237700 0.624700
-6.222500 0.628400
-6.207400 0.632100
-6.192200 0.635900
-6.177100 0.639700
-6.161900 0.643500
-6.146800 0.647400
-6.131600 0.651000
-6.116500 0.654300
-6.101300 0.657600
-6.086200 0.661000
-6.071000 0.664600
-6.055900 0.668100
-6.040700 0.671600
-6.025600 0.675100
-6.010500 0.678600
-5.995300 0.682200
-5.980200 0.685800
-5.965000 0.689500
-5.949900 0.693200
-5.934700 0.697000
-5.919600 0.700700
-5.904400 0.704400
-5.889300 0.708200
-5.874100 0.712000
-5.859000 0.715900
-5.843800 0.719800
-5.828700 0.723800
-5.813500 0.727800
-5.798400 0.731800
-5.783200 0.735900
-5.768100 0.740100
-5.753000 0.744300
-5.737800 0.748400
-5.722700 0.752700
-5.707500 0.756900
-5.692400 0.761200
-5.677200 0.765500
-5.662100 0.769700
-5.646900 0.773900
-5.631800 0.778200
-5.616600 0.782500
-5.601500 0.786800
-5.586300 0.791300
-5.571200 0.795800
-5.556000 0.800300
-5.540900 0.804900
-5.525700 0.809600
-5.510600 0.814400
-5.495400 0.819200
-5.480300 0.824100
-5.465200 0.829200
-5.450000 0.834300
-5.434900 0.839400
-5.419700 0.844600
-5.404600 0.849900
-5.389400 0.855300
-5.374300 0.860700
-5.359100 0.866100
-5.344000 0.871600
-5.328800 0.877200
-5.313700 0.882900
-5.298500 0.888800
-5.283400 0.894900
-5.268200 0.901200
-5.253100 0.907900
-5.237900 0.915200
-5.222800 0.922300
-5.207600 0.929500
-5.192500 0.936900
-5.177400 0.944400
-5.162200 0.952300
-5.147100 0.960300
-5.131900 0.968500
-5.116800 0.977100
-5.101600 0.986400
-5.086500 0.996400
-5.071300 1.006900
-5.056200 1.017900
-5.041000 1.029300
-5.025900 1.041100
-5.010700 1.053400
-4.995600 1.067500
-4.980400 1.083100
-4.965300 1.099600
-4.950100 1.116900
-4.935000 1.135100
-4.919800 1.203000
-4.904700 1.271300
-4.889600 1.253700
-4.874400 1.232300
-4.859300 1.234100
-4.844100 1.240500
-4.829000 1.245400
-4.813800 1.240700
-4.798700 1.237700
-4.783500 1.238200
-4.768400 1.235600
-4.753200 1.233800
-4.738100 1.239900
-4.722900 1.248200
-4.707800 1.258100
-4.692600 1.243700
-4.677500 1.229500
-4.662300 1.226200
-4.647200 1.222300
-4.632000 1.218100
-4.616900 1.212800
-4.601800 1.207500
-4.586600 1.203600
-4.571500 1.199200
-4.556300 1.194500
-4.541200 1.189300
-4.526000 1.182900
-4.510900 1.175100
-4.495700 1.168400
-4.480600 1.162300
-4.465400 1.156700
-4.450300 1.150900
-4.435100 1.144900
-4.420000 1.140200
-4.404800 1.136500
-4.389700 1.133300
-4.374500 1.131000
-4.359400 1.128800
-4.344300 1.126400
-4.329100 1.124000
-4.314000 1.121500
-4.298800 1.119600
-4.283700 1.118800
-4.268500 1.108800
-4.253400 1.100300
-4.238200 1.097200
-4.223100 1.094000
-4.207900 1.090100
-4.192800 1.085700
-4.177600 1.082300
-4.162500 1.079000
-4.147300 1.075600
-4.132200 1.071900
-4.117000 1.067900
-4.101900 1.064200
-4.086700 1.060200
-4.071600 1.056100
-4.056500 1.052100
-4.041300 1.048000
-4.026200 1.043800
-4.011000 1.039500
-3.995900 1.036000
-3.980700 1.032500
-3.965600 1.029000
-3.950400 1.026000
-3.935300 1.023200
-3.920100 1.021200
-3.905000 1.053500
-3.889800 1.019400
-3.874700 1.014600
-3.859500 1.009700
-3.844400 1.006600
-3.829200 0.998800
-3.814100 0.995900
-3.798900 0.992900
-3.783800 0.989800
-3.768700 0.986700
-3.753500 0.984300
-3.738400 0.980600
-3.723200 0.979100
-3.708100 0.978100
-3.692900 0.978700
-3.677800 0.980300
-3.662600 0.983000
-3.647500 0.992600
-3.632300 1.010900
-3.617200 1.022800
-3.602000 1.032200
-3.586900 1.041800
-3.571700 1.050000
-3.556600 1.057900
-3.541400 1.065900
-3.526300 1.148200
-3.511100 1.140200
-3.496000 1.199600
-3.480900 1.238300
-3.465700 1.276700
-3.450600 1.330100
-3.435400 1.451800
-3.420300 1.597400
-3.405100 1.799800
-3.390000 1.849900
-3.374800 2.091300
-3.359700 1.846400
-3.344500 1.854200
-3.329400 1.884900
-3.314200 2.471100
-3.299100 1.927100
-3.283900 1.627300
-3.268800 1.520000
-3.253600 1.420300
-3.238500 1.327200
-3.223400 1.247700
-3.208200 1.192200
-3.193100 1.162400
-3.177900 1.147300
-3.162800 1.085700
-3.147600 1.013600
-3.132500 0.912300
-3.117300 0.779700
-3.102200 0.699100
-3.087000 0.656300
-3.071900 0.593700
-3.056700 0.536300
-3.041600 0.481200
-3.026400 0.413800
-3.011300 0.360000
-2.996100 0.317600
-2.981000 0.258500
-2.965800 0.185100
-2.950700 0.108100
-2.935600 0.047500
-2.920400 0.011200
-2.905300 0.000000
-2.890100 0.000000
-2.875000 0.000000
-2.859800 0.000000
-2.844700 0.000000
-2.829500 0.000000
-2.814400 0.000000
-2.799200 0.000000
-2.784100 0.000000
-2.768900 0.000000
-2.753800 0.000000
-2.738600 0.000000
-2.723500 0.000000
-2.708300 0.000000
-2.693200 0.000000
-2.678000 0.000000
-2.662900 0.000000
-2.647800 0.000000
-2.632600 0.000000
-2.617500 0.000000
-2.602300 0.000000
-2.587200 0.000000
-2.572000 0.000000
-2.556900 0.000000
-2.541700 0.000000
-2.526600 0.000000
-2.511400 0.000000
-2.496300 0.000000
-2.481100 0.000000
-2.466000 0.000000
-2.450800 0.000000
-2.435700 0.000000
-2.420500 0.000000
-2.405400 0.000000
-2.390200 0.000000
-2.375100 0.000000
-2.360000 0.000000
-2.344800 0.000000
-2.329700 0.000000
-2.314500 0.000000
-2.299400 0.000000
-2.284200 0.000000
-2.269100 0.000000
-2.253900 0.000000
-2.238800 0.000000
-2.223600 0.000000
-2.208500 0.000000
-2.193300 0.000000
-2.178200 0.000000
-2.163000 0.000000
-2.147900 0.000000
-2.132700 0.000000
-2.117600 0.000000
-2.102400 0.000000
-2.087300 0.000000
-2.072200 0.000000
-2.057000 0.000000
-2.041900 0.000000
-2.026700 0.000000
-2.011600 0.000000
-1.996400 0.000000
-1.981300 0.000000
-1.966100 0.000000
-1.951000 0.000000
-1.935800 0.000000
-1.920700 0.000000
-1.905500 0.000000
-1.890400 0.000000
-1.875200 0.000000
-1.860100 0.000000
-1.844900 0.000000
-1.829800 0.000000
-1.814700 0.000000
-1.799500 0.000000
-1.784400 0.000000
-1.769200 0.000000
-1.754100 0.000000
-1.738900 0.000000
-1.723800 0.000000
-1.708600 0.000000
-1.693500 0.000000
-1.678300 0.000000
-1.663200 0.000000
-1.648000 0.000000
-1.632900 0.000000
-1.617700 0.000000
-1.602600 0.000000
-1.587400 0.000100
-1.572300 0.003600
-1.557100 0.012100
-1.542000 0.018200
-1.526900 0.024500
-1.511700 0.031100
-1.496600 0.049800
-1.481400 0.091800
-1.466300 0.156300
-1.451100 0.239400
-1.436000 0.319600
-1.420800 0.387300
-1.405700 0.432700
-1.390500 0.461800
-1.375400 0.445000
-1.360200 0.481500
-1.345100 0.522200
-1.329900 0.565800
-1.314800 0.612900
-1.299600 0.668900
-1.284500 0.688700
-1.269300 0.719400
-1.254200 0.752300
-1.239100 0.793500
-1.223900 0.834900
-1.208800 0.861000
-1.193600 0.879000
-1.178500 0.904500
-1.163300 0.936200
-1.148200 0.979100
-1.133000 1.026000
-1.117900 1.076600
-1.102700 1.130700
-1.087600 1.186900
-1.072400 1.276200
-1.057300 1.344300
-1.042100 1.416800
-1.027000 1.511100
-1.011800 1.627200
-0.996700 1.664200
-0.981500 1.739400
-0.966400 1.820000
-0.951300 1.962000
-0.936100 1.939100
-0.921000 1.915400
-0.905800 1.922500
-0.890700 1.872200
-0.875500 1.814700
-0.860400 1.795600
-0.845200 1.779700
-0.830100 1.770000
-0.814900 1.768700
-0.799800 1.773800
-0.784600 1.782700
-0.769500 1.792100
-0.754300 1.793200
-0.739200 1.819600
-0.724000 1.771000
-0.708900 1.781000
-0.693700 1.797900
-0.678600 1.825600
-0.663500 1.861100
-0.648300 1.895200
-0.633200 1.894600
-0.618000 1.843300
-0.602900 1.773000
-0.587700 1.755300
-0.572600 1.746400
-0.557400 1.706900
-0.542300 1.634700
-0.527100 1.551300
-0.512000 1.481600
-0.496800 1.421300
-0.481700 1.362800
-0.466500 1.307900
-0.451400 1.263800
-0.436200 1.226400
-0.421100 1.207200
-0.406000 1.189100
-0.390800 1.171900
-0.375700 1.155300
-0.360500 1.139200
-0.345400 1.124200
-0.330200 1.108900
-0.315100 1.094100
-0.299900 1.079700
-0.284800 1.065900
-0.269600 1.052700
-0.254500 1.040100
-0.239300 1.027700
-0.224200 1.016800
-0.209000 1.006600
-0.193900 0.995600
-0.178700 0.984900
-0.163600 0.972600
-0.148400 0.959200
-0.133300 0.947700
-0.118200 0.937300
-0.103000 0.928900
-0.087900 0.921500
-0.072700 0.914400
-0.057600 0.907800
-0.042400 0.901600
-0.027300 0.895800
-0.012100 0.890600
0.003000 0.885800
0.018200 0.884300
0.033300 0.878300
0.048500 0.872500
0.063600 0.867000
0.078800 0.861700
0.093900 0.856700
0.109100 0.853000
0.124200 0.843400
0.139400 0.842700
0.154500 0.842800
0.169600 0.843500
0.184800 0.843500
0.199900 0.843300
0.215100 0.843400
0.230200 0.843700
0.245400 0.844300
0.260500 0.846000
0.275700 0.849000
0.290800 0.851200
0.306000 0.854100
0.321100 0.857700
0.336300 0.860600
0.351400 0.863000
0.366600 0.865200
0.381700 1.034200
0.396900 0.947200
0.412000 0.931600
0.427200 0.939400
0.442300 0.951000
0.457400 0.969900
0.472600 0.980600
0.487700 0.992400
0.502900 1.004200
0.518000 1.015300
0.533200 1.025800
0.548300 1.029900
0.563500 1.069400
0.578600 1.065400
0.593800 1.054100
0.608900 1.049600
0.624100 1.044500
0.639200 1.039400
0.654400 1.034400
0.669500 1.029800
0.684700 1.014700
0.699800 0.994600
0.715000 0.988700
0.730100 0.985200
0.745200 0.981500
0.760400 0.984300
0.775500 0.992600
0.790700 1.006700
0.805800 1.033100
0.821000 1.073500
0.836100 1.097200
0.851300 1.123600
0.866400 1.153100
0.881600 1.183300
0.896700 1.212300
0.911900 1.238100
0.927000 1.260300
0.942200 1.278300
0.957300 1.293700
0.972500 1.333700
0.987600 1.311700
1.002700 1.295100
1.017900 1.286100
1.033000 1.290900
1.048200 1.305800
1.063300 1.316200
1.078500 1.320900
1.093600 1.317800
1.108800 1.331000
1.123900 1.372200
1.139100 1.314500
1.154200 1.258100
1.169400 1.237500
1.184500 1.218300
1.199700 1.201100
1.214800 1.196600
1.230000 1.206400
1.245100 1.216500
1.260300 1.225900
1.275400 1.239000
1.290500 1.262200
1.305700 1.289200
1.320800 1.332900
1.336000 1.386900
1.351100 1.421800
1.366300 1.440700
1.381400 1.445900
1.396600 1.439100
1.411700 1.424500
1.426900 1.407700
1.442000 1.380400
1.457200 1.350500
1.472300 1.318000
1.487500 1.292400
1.502600 1.270100
1.517800 1.244000
1.532900 1.230200
1.548100 1.221800
1.563200 1.240500
1.578300 1.265800
1.593500 1.287200
1.608600 1.302700
1.623800 1.313000
1.638900 1.319800
1.654100 1.328000
1.669200 1.338600
1.684400 1.351800
1.699500 1.308200
1.714700 1.281000
1.729800 1.249900
1.745000 1.222700
1.760100 1.207000
1.775300 1.202800
1.790400 1.216100
1.805600 1.239900
1.820700 1.265700
1.835900 1.260600
1.851000 1.257600
1.866100 1.258100
1.881300 1.259000
1.896400 1.260300
1.911600 1.262700
1.926700 1.268800
1.941900 1.275600
1.957000 1.283700
1.972200 1.292000
1.987300 1.303600
2.002500 1.316900
2.017600 1.327200
2.032800 1.335500
2.047900 1.344600
2.063100 1.406300
2.078200 1.415700
2.093400 1.428000
2.108500 1.425500
2.123600 1.421900
2.138800 1.419700
2.153900 1.419700
2.169100 1.422300
2.184200 1.427000
2.199400 1.430300
2.214500 1.432100
2.229700 1.432700
2.244800 1.433300
2.260000 1.432700
2.275100 1.430000
2.290300 1.425300
2.305400 1.418400
2.320600 1.413200
2.335700 1.414400
2.350900 1.415100
2.366000 1.417100
2.381200 1.422000
2.396300 1.429000
2.411400 1.441100
2.426600 1.461400
2.441700 1.479500
2.456900 1.496000
2.472000 1.506800
2.487200 1.513100
2.502300 1.519900
2.517500 1.532600
2.532600 1.540900
2.547800 1.553200
2.562900 1.567100
2.578100 1.576600
2.593200 1.581900
2.608400 1.580300
2.623500 1.580500
2.638700 1.581700
2.653800 1.582600
2.669000 1.583900
2.684100 1.588900
2.699200 1.624700
2.714400 1.612500
2.729500 1.592800
2.744700 1.565800
2.759800 1.531400
2.775000 1.494800
2.790100 1.469800
2.805300 1.460800
2.820400 1.457400
2.835600 1.457000
2.850700 1.458400
2.865900 1.459800
2.881000 1.461100
2.896200 1.462400
2.911300 1.463200
2.926500 1.587300
2.941600 1.524500
2.956800 1.531000
2.971900 1.539700
2.987000 1.550900
3.002200 1.564400
3.017300 1.590800
3.032500 1.606900
3.047600 1.615900
3.062800 1.614500
3.077900 1.614400
3.093100 1.617400
3.108200 1.612300
3.123400 1.616300
3.138500 1.625200
3.153700 1.632700
3.168800 1.641400
3.184000 1.649000
3.199100 1.664500
3.214300 1.685600
3.229400 1.709000
3.244600 1.744500
3.259700 1.765500
3.274800 1.786600
3.290000 1.808700
3.305100 1.831200
3.320300 1.853200
3.335400 1.875200
3.350600 1.895800
3.365700 1.907100
3.380900 1.922700
3.396000 1.934900
3.411200 1.939900
3.426300 1.944300
3.441500 1.948800
3.456600 1.950000
3.471800 1.950900
3.486900 1.955300
3.502100 1.981700
3.517200 1.989700
3.532300 1.999900
3.547500 2.014200
3.562600 2.034800
3.577800 2.049900
3.592900 2.058100
3.608100 2.065500
3.623200 2.071100
3.638400 2.066500
3.653500 2.081900
3.668700 2.105600
3.683800 2.114800
3.699000 2.114100
3.714100 2.111400
3.729300 2.114000
3.744400 2.117000
3.759600 2.118700
3.774700 2.127500
3.789900 2.131200
3.805000 2.138400
3.820100 2.121900
3.835300 2.117800
3.850400 2.113600
3.865600 2.109000
3.880700 2.104200
3.895900 2.094900
3.911000 2.088500
3.926200 2.083300
3.941300 2.078600
3.956500 2.074900
3.971600 2.072300
3.986800 2.070900
4.001900 2.098200
4.017100 2.137700
4.032200 2.179000
4.047400 2.171600
4.062500 2.114300
4.077700 2.108100
4.092800 2.103300
4.107900 2.107500
4.123100 2.110300
4.138200 2.107300
4.153400 2.097100
4.168500 2.082400
4.183700 2.050700
4.198800 2.033100
4.214000 2.025700
4.229100 2.022500
4.244300 2.021800
4.259400 2.022800
4.274600 2.025300
4.289700 2.029200
4.304900 2.036600
4.320000 2.051100
4.335200 2.071000
4.350300 2.095400
4.365500 2.125200
4.380600 2.163100
4.395700 2.217800
4.410900 2.296500
4.426000 2.350900
4.441200 2.367600
4.456300 2.356200
4.471500 2.351300
4.486600 2.351500
4.501800 2.361700
4.516900 2.366900
4.532100 2.368700
4.547200 2.377200
4.562400 2.419600
4.577500 2.458700
4.592700 2.444200
4.607800 2.420500
4.623000 2.406000
4.638100 2.401700
4.653300 2.403100
4.668400 2.406500
4.683500 2.410100
4.698700 2.418100
4.713800 2.433900
4.729000 2.459300
4.744100 2.494100
4.759300 2.537100
4.774400 2.585600
4.789600 2.639600
4.804700 2.743100
4.819900 2.979800
4.835000 3.204000
4.850200 3.293100
4.865300 3.261400
4.880500 3.171300
4.895600 2.951100
4.910800 2.746000
4.925900 2.625100
4.941000 2.516000
4.956200 2.378100
4.971300 2.299700
4.986500 2.233800
5.001600 2.176900
5.016800 2.132800
5.031900 2.100600
5.047100 2.080600
5.062200 2.061300
5.077400 2.036800
5.092500 2.010600
5.107700 1.988800
5.122800 1.963800
5.138000 1.948000
5.153100 1.937600
5.168300 1.920300
5.183400 1.898400
5.198600 1.883900
5.213700 1.870000
5.228800 1.847500
5.244000 1.823600
5.259100 1.788900
5.274300 1.763500
5.289400 1.740900
5.304600 1.720000
5.319700 1.704000
5.334900 1.689400
5.350000 1.674300
5.365200 1.661100
5.380300 1.651200
5.395500 1.646100
5.410600 1.632300
5.425800 1.620000
5.440900 1.610700
5.456100 1.590600
5.471200 1.557900
5.486400 1.544100
5.501500 1.530400
5.516600 1.526400
5.531800 1.512300
5.546900 1.491000
5.562100 1.468200
5.577200 1.445200
5.592400 1.420300
5.607500 1.388100
5.622700 1.353500
5.637800 1.315200
5.653000 1.276100
5.668100 1.239100
5.683300 1.205800
5.698400 1.182600
5.713600 1.163900
5.728700 1.147700
5.743900 1.132700
5.759000 1.118100
5.774200 1.103800
5.789300 1.089600
5.804400 1.075000
5.819600 1.059500
5.834700 1.044200
5.849900 1.027800
5.865000 1.010700
5.880200 0.992200
5.895300 0.973000
5.910500 0.955300
5.925600 0.940100
5.940800 0.925600
5.955900 0.910600
5.971100 0.895600
5.986200 0.880900
6.001400 0.866600
6.016500 0.852600
6.031700 0.839100
6.046800 0.826000
6.062000 0.813400
6.077100 0.801300
6.092200 0.790400
6.107400 0.782200
6.122500 0.772700
6.137700 0.761800
6.152800 0.749600
6.168000 0.729300
6.183100 0.716000
6.198300 0.705500
6.213400 0.695200
6.228600 0.685100
6.243700 0.675000
6.258900 0.666300
6.274000 0.659400
6.289200 0.649800
6.304300 0.640400
6.319500 0.631300
6.334600 0.623500
6.349700 0.620000
6.364900 0.615200
6.380000 0.608900
6.395200 0.600900
6.410300 0.591300
6.425500 0.577800
6.440600 0.565400
6.455800 0.556200
6.470900 0.546900
6.486100 0.537600
6.501200 0.528300
6.516400 0.518900
6.531500 0.509600
6.546700 0.500700
6.561800 0.492100
6.577000 0.483900
6.592100 0.475700
6.607300 0.467500
6.622400 0.459200
6.637500 0.451000
6.652700 0.442900
6.667800 0.435000
