set title 'mp-984712 - Density of States'
set xlabel 'Energy (eV)'
set ylabel 'DOS (states/eV)'
set grid
set xrange [-10:10]
set yrange [0:12.284]
set xzeroaxis lt -1
set terminal png size 800,600
set output 'mp-984712_dos_gnuplot.png'
plot '-' using 1:2 with lines title 'DOS'
-39.643000 0.000000
-39.591500 0.000000
-39.540000 0.000000
-39.488500 0.000000
-39.437000 0.000000
-39.385500 0.000000
-39.334000 0.000000
-39.282500 0.000000
-39.231000 0.000000
-39.179400 0.000000
-39.127900 0.000000
-39.076400 0.000000
-39.024900 0.000000
-38.973400 0.000000
-38.921900 0.000000
-38.870400 0.000000
-38.818900 0.000000
-38.767400 0.000000
-38.715900 0.000000
-38.664400 0.000000
-38.612900 0.000000
-38.561400 0.000000
-38.509900 0.000000
-38.458400 0.000000
-38.406900 0.000000
-38.355400 0.000000
-38.303900 0.000000
-38.252400 0.000000
-38.200900 0.000000
-38.149400 0.000000
-38.097900 0.000000
-38.046400 0.000000
-37.994800 0.000000
-37.943300 0.000000
-37.891800 0.000000
-37.840300 0.000000
-37.788800 0.000000
-37.737300 0.000000
-37.685800 0.000000
-37.634300 0.000000
-37.582800 0.000000
-37.531300 0.000000
-37.479800 0.000000
-37.428300 0.000000
-37.376800 0.000000
-37.325300 0.000000
-37.273800 0.000000
-37.222300 0.000000
-37.170800 0.000000
-37.119300 0.000000
-37.067800 0.000000
-37.016300 0.000000
-36.964800 0.000000
-36.913300 0.000000
-36.861800 0.000000
-36.810200 0.000000
-36.758700 0.000000
-36.707200 0.000000
-36.655700 0.000000
-36.604200 0.000000
-36.552700 0.000000
-36.501200 0.000000
-36.449700 0.000000
-36.398200 0.000000
-36.346700 0.000000
-36.295200 0.000000
-36.243700 0.000000
-36.192200 0.000000
-36.140700 0.000000
-36.089200 0.000000
-36.037700 0.000000
-35.986200 0.000000
-35.934700 0.000000
-35.883200 0.000000
-35.831700 0.000000
-35.780200 0.000000
-35.728700 0.000000
-35.677200 0.000000
-35.625700 0.000000
-35.574100 0.000000
-35.522600 0.000000
-35.471100 0.000000
-35.419600 0.000000
-35.368100 0.000000
-35.316600 0.000000
-35.265100 0.000000
-35.213600 0.000000
-35.162100 0.000000
-35.110600 0.000000
-35.059100 0.000000
-35.007600 0.000000
-34.956100 4.116400
-34.904600 11.599400
-34.853100 16.921200
-34.801600 12.816500
-34.750100 11.853300
-34.698600 19.452000
-34.647100 43.717800
-34.595600 22.195200
-34.544100 16.208800
-34.492600 20.602800
-34.441100 15.859500
-34.389500 64.954300
-34.338000 29.061500
-34.286500 28.292300
-34.235000 23.639500
-34.183500 0.000000
-34.132000 0.000000
-34.080500 0.000000
-34.029000 0.000000
-33.977500 0.000000
-33.926000 0.000000
-33.874500 0.000000
-33.823000 0.000000
-33.771500 0.000000
-33.720000 0.000000
-33.668500 0.000000
-33.617000 0.000000
-33.565500 0.000000
-33.514000 0.000000
-33.462500 0.000000
-33.411000 0.000000
-33.359500 0.000000
-33.308000 0.000000
-33.256500 0.000000
-33.204900 0.000000
-33.153400 0.000000
-33.101900 0.000000
-33.050400 0.000000
-32.998900 0.000000
-32.947400 0.000000
-32.895900 0.000000
-32.844400 0.000000
-32.792900 0.000000
-32.741400 0.000000
-32.689900 0.000000
-32.638400 0.000000
-32.586900 0.000000
-32.535400 0.000000
-32.483900 0.000000
-32.432400 0.000000
-32.380900 0.000000
-32.329400 0.000000
-32.277900 0.000000
-32.226400 0.000000
-32.174900 0.000000
-32.123400 0.000000
-32.071900 0.000000
-32.020300 0.000000
-31.968800 0.000000
-31.917300 0.000000
-31.865800 0.000000
-31.814300 0.000000
-31.762800 0.000000
-31.711300 0.000000
-31.659800 0.000000
-31.608300 0.000000
-31.556800 0.000000
-31.505300 0.000000
-31.453800 0.000000
-31.402300 0.000000
-31.350800 0.000000
-31.299300 0.000000
-31.247800 0.000000
-31.196300 0.000000
-31.144800 0.000000
-31.093300 0.000000
-31.041800 0.000000
-30.990300 0.000000
-30.938800 0.000000
-30.887300 0.000000
-30.835700 0.000000
-30.784200 0.000000
-30.732700 0.000000
-30.681200 0.000000
-30.629700 0.000000
-30.578200 0.000000
-30.526700 0.000000
-30.475200 0.000000
-30.423700 0.000000
-30.372200 0.000000
-30.320700 0.000000
-30.269200 0.000000
-30.217700 0.000000
-30.166200 0.000000
-30.114700 0.000000
-30.063200 0.000000
-30.011700 0.000000
-29.960200 0.000000
-29.908700 0.000000
-29.857200 0.000000
-29.805700 0.000000
-29.754200 0.000000
-29.702700 0.000000
-29.651200 0.000000
-29.599600 0.000000
-29.548100 0.000000
-29.496600 0.000000
-29.445100 0.000000
-29.393600 0.000000
-29.342100 0.000000
-29.290600 0.000000
-29.239100 0.000000
-29.187600 0.000000
-29.136100 0.000000
-29.084600 0.000000
-29.033100 0.000000
-28.981600 0.000000
-28.930100 0.000000
-28.878600 0.000000
-28.827100 0.000000
-28.775600 0.000000
-28.724100 0.000000
-28.672600 0.000000
-28.621100 0.000000
-28.569600 0.000000
-28.518100 0.000000
-28.466600 0.000000
-28.415000 0.000000
-28.363500 0.000000
-28.312000 0.000000
-28.260500 0.000000
-28.209000 0.000000
-28.157500 0.000000
-28.106000 0.000000
-28.054500 0.000000
-28.003000 0.000000
-27.951500 0.000000
-27.900000 0.000000
-27.848500 0.000000
-27.797000 0.000000
-27.745500 0.000000
-27.694000 0.000000
-27.642500 0.000000
-27.591000 0.000000
-27.539500 0.000000
-27.488000 0.000000
-27.436500 0.000000
-27.385000 0.000000
-27.333500 0.000000
-27.282000 0.000000
-27.230400 0.000000
-27.178900 0.000000
-27.127400 0.000000
-27.075900 0.000000
-27.024400 0.000000
-26.972900 0.000000
-26.921400 0.000000
-26.869900 0.000000
-26.818400 0.000000
-26.766900 0.000000
-26.715400 0.000000
-26.663900 0.000000
-26.612400 0.000000
-26.560900 0.000000
-26.509400 0.000000
-26.457900 0.000000
-26.406400 0.000000
-26.354900 0.000000
-26.303400 0.000000
-26.251900 0.000000
-26.200400 0.000000
-26.148900 0.000000
-26.097400 0.000000
-26.045800 0.000000
-25.994300 0.000000
-25.942800 0.000000
-25.891300 0.000000
-25.839800 0.000000
-25.788300 0.000000
-25.736800 0.000000
-25.685300 0.000000
-25.633800 0.000000
-25.582300 0.000000
-25.530800 0.000000
-25.479300 0.000000
-25.427800 0.000000
-25.376300 0.000000
-25.324800 0.000000
-25.273300 0.000000
-25.221800 0.000000
-25.170300 0.000000
-25.118800 0.000000
-25.067300 0.000000
-25.015800 0.000000
-24.964300 0.000000
-24.912800 0.000000
-24.861200 0.000000
-24.809700 0.000000
-24.758200 0.000000
-24.706700 0.000000
-24.655200 0.000000
-24.603700 0.000000
-24.552200 0.000000
-24.500700 0.000000
-24.449200 0.000000
-24.397700 0.000000
-24.346200 0.000000
-24.294700 0.000000
-24.243200 0.000000
-24.191700 0.000000
-24.140200 0.000000
-24.088700 0.000000
-24.037200 0.000000
-23.985700 0.000000
-23.934200 0.000000
-23.882700 0.000000
-23.831200 0.000000
-23.779700 0.000000
-23.728200 0.000000
-23.676600 0.000000
-23.625100 0.000000
-23.573600 0.000000
-23.522100 0.000000
-23.470600 0.000000
-23.419100 0.000000
-23.367600 0.000000
-23.316100 0.000000
-23.264600 0.000000
-23.213100 0.000000
-23.161600 0.000000
-23.110100 0.000000
-23.058600 0.000000
-23.007100 0.000000
-22.955600 0.000000
-22.904100 0.000000
-22.852600 0.000000
-22.801100 0.000000
-22.749600 0.000000
-22.698100 0.000000
-22.646600 0.000000
-22.595100 0.000000
-22.543600 0.000000
-22.492100 0.000000
-22.440500 0.000000
-22.389000 0.000000
-22.337500 0.000000
-22.286000 0.000000
-22.234500 0.000000
-22.183000 0.000000
-22.131500 0.000000
-22.080000 0.000000
-22.028500 0.000000
-21.977000 0.000000
-21.925500 0.000000
-21.874000 0.000000
-21.822500 0.000000
-21.771000 0.000000
-21.719500 0.000000
-21.668000 0.000000
-21.616500 0.000000
-21.565000 0.000000
-21.513500 0.000000
-21.462000 0.000000
-21.410500 0.000000
-21.359000 0.000000
-21.307500 0.000000
-21.255900 0.000000
-21.204400 0.000000
-21.152900 0.000000
-21.101400 0.000000
-21.049900 0.000000
-20.998400 0.000000
-20.946900 0.000000
-20.895400 0.000000
-20.843900 0.000000
-20.792400 0.000000
-20.740900 0.000000
-20.689400 0.000000
-20.637900 0.000000
-20.586400 0.000000
-20.534900 0.000000
-20.483400 0.000000
-20.431900 0.000000
-20.380400 0.000000
-20.328900 0.000000
-20.277400 0.000000
-20.225900 0.000000
-20.174400 0.000000
-20.122900 0.000000
-20.071300 0.000000
-20.019800 0.000000
-19.968300 0.000000
-19.916800 0.000000
-19.865300 0.000000
-19.813800 0.000000
-19.762300 0.000000
-19.710800 0.000000
-19.659300 0.000000
-19.607800 0.000000
-19.556300 0.000000
-19.504800 0.000000
-19.453300 0.000000
-19.401800 0.000000
-19.350300 0.000000
-19.298800 0.000000
-19.247300 0.000000
-19.195800 0.000000
-19.144300 0.000000
-19.092800 0.000000
-19.041300 0.000000
-18.989800 0.000000
-18.938300 0.000000
-18.886700 0.000000
-18.835200 0.000000
-18.783700 0.000000
-18.732200 0.000000
-18.680700 0.000000
-18.629200 0.000000
-18.577700 0.000000
-18.526200 0.000000
-18.474700 0.000000
-18.423200 0.000000
-18.371700 0.000000
-18.320200 0.000000
-18.268700 0.000000
-18.217200 0.000000
-18.165700 0.000000
-18.114200 0.000000
-18.062700 0.000000
-18.011200 0.000000
-17.959700 0.000000
-17.908200 0.000000
-17.856700 0.000000
-17.805200 0.000000
-17.753700 0.000000
-17.702100 0.000000
-17.650600 0.000000
-17.599100 0.000000
-17.547600 0.000000
-17.496100 0.000000
-17.444600 0.000000
-17.393100 0.000000
-17.341600 0.000000
-17.290100 0.000000
-17.238600 0.000000
-17.187100 0.000000
-17.135600 0.000000
-17.084100 0.000000
-17.032600 0.000000
-16.981100 0.000000
-16.929600 0.000000
-16.878100 0.000000
-16.826600 0.000000
-16.775100 0.000000
-16.723600 0.000000
-16.672100 0.000000
-16.620600 0.000000
-16.569100 0.000000
-16.517500 0.000000
-16.466000 0.000000
-16.414500 0.000000
-16.363000 0.000000
-16.311500 0.000000
-16.260000 0.000000
-16.208500 0.000000
-16.157000 0.000000
-16.105500 0.000000
-16.054000 0.000000
-16.002500 0.000000
-15.951000 0.000000
-15.899500 0.000000
-15.848000 0.000000
-15.796500 0.000000
-15.745000 0.000000
-15.693500 0.000000
-15.642000 0.000000
-15.590500 0.000000
-15.539000 0.000000
-15.487500 0.000000
-15.436000 0.000000
-15.384500 0.000000
-15.333000 0.000000
-15.281400 0.000000
-15.229900 0.000000
-15.178400 0.000000
-15.126900 0.000000
-15.075400 0.000000
-15.023900 0.000000
-14.972400 0.000000
-14.920900 0.000000
-14.869400 0.000000
-14.817900 0.000000
-14.766400 0.000000
-14.714900 0.000000
-14.663400 0.000000
-14.611900 0.000000
-14.560400 0.000000
-14.508900 0.000000
-14.457400 0.000000
-14.405900 0.000000
-14.354400 0.000000
-14.302900 0.000000
-14.251400 0.000000
-14.199900 0.000000
-14.148400 0.000000
-14.096800 0.000000
-14.045300 0.000000
-13.993800 0.000000
-13.942300 0.000000
-13.890800 0.000000
-13.839300 0.000000
-13.787800 0.000000
-13.736300 0.000000
-13.684800 0.000000
-13.633300 0.000000
-13.581800 0.000000
-13.530300 0.000000
-13.478800 0.000000
-13.427300 0.000000
-13.375800 0.000000
-13.324300 0.000000
-13.272800 0.000000
-13.221300 0.000000
-13.169800 0.000000
-13.118300 0.000000
-13.066800 0.000000
-13.015300 0.000000
-12.963800 0.000000
-12.912200 0.000000
-12.860700 0.000000
-12.809200 0.000000
-12.757700 0.000000
-12.706200 0.000000
-12.654700 0.000000
-12.603200 0.000000
-12.551700 0.000000
-12.500200 0.000000
-12.448700 0.000000
-12.397200 0.000000
-12.345700 0.000000
-12.294200 0.000000
-12.242700 0.000000
-12.191200 0.000000
-12.139700 0.000000
-12.088200 0.000000
-12.036700 0.000000
-11.985200 0.000000
-11.933700 0.000000
-11.882200 0.000000
-11.830700 0.000000
-11.779200 0.000000
-11.727600 0.000000
-11.676100 0.000000
-11.624600 0.000000
-11.573100 0.000000
-11.521600 0.000000
-11.470100 0.000000
-11.418600 0.000000
-11.367100 0.000000
-11.315600 0.000000
-11.264100 0.000000
-11.212600 0.000000
-11.161100 0.000000
-11.109600 0.000000
-11.058100 0.000000
-11.006600 0.000000
-10.955100 0.000000
-10.903600 0.000000
-10.852100 0.000000
-10.800600 0.000000
-10.749100 0.000000
-10.697600 0.000000
-10.646100 0.000000
-10.594600 0.000000
-10.543000 0.000000
-10.491500 0.000000
-10.440000 0.000000
-10.388500 0.000000
-10.337000 0.000000
-10.285500 0.000000
-10.234000 0.000000
-10.182500 0.000000
-10.131000 0.000000
-10.079500 0.000000
-10.028000 0.000000
-9.976500 0.000000
-9.925000 0.000000
-9.873500 0.000000
-9.822000 0.000000
-9.770500 0.000000
-9.719000 0.000000
-9.667500 0.000000
-9.616000 0.000000
-9.564500 0.000000
-9.513000 0.000000
-9.461500 0.000000
-9.410000 0.000000
-9.358500 0.000000
-9.306900 0.000000
-9.255400 0.000000
-9.203900 0.000000
-9.152400 0.000000
-9.100900 0.000000
-9.049400 0.000000
-8.997900 0.000000
-8.946400 0.000000
-8.894900 0.000000
-8.843400 0.000000
-8.791900 0.000000
-8.740400 0.000000
-8.688900 0.000000
-8.637400 0.000000
-8.585900 0.000000
-8.534400 0.000000
-8.482900 0.000000
-8.431400 0.000000
-8.379900 0.000000
-8.328400 0.000000
-8.276900 0.000000
-8.225400 0.000000
-8.173900 0.000000
-8.122300 0.000000
-8.070800 0.000000
-8.019300 0.000000
-7.967800 0.152400
-7.916300 0.254600
-7.864800 0.347100
-7.813300 0.450200
-7.761800 0.528800
-7.710300 0.629300
-7.658800 0.779700
-7.607300 0.959400
-7.555800 0.978500
-7.504300 1.027700
-7.452800 1.052300
-7.401300 1.112700
-7.349800 1.176400
-7.298300 1.240200
-7.246800 1.326600
-7.195300 1.429900
-7.143800 1.542300
-7.092300 1.710200
-7.040800 1.967800
-6.989300 2.290000
-6.937700 2.875100
-6.886200 4.241200
-6.834700 2.801600
-6.783200 2.490300
-6.731700 2.356600
-6.680200 2.178400
-6.628700 0.000000
-6.577200 0.000000
-6.525700 0.000000
-6.474200 0.000000
-6.422700 0.000000
-6.371200 0.000000
-6.319700 0.000000
-6.268200 0.000000
-6.216700 0.000000
-6.165200 0.000000
-6.113700 0.000000
-6.062200 0.000000
-6.010700 0.000000
-5.959200 0.000000
-5.907700 0.000000
-5.856200 0.000000
-5.804700 0.000000
-5.753100 0.000000
-5.701600 0.000000
-5.650100 0.000000
-5.598600 0.000000
-5.547100 0.000000
-5.495600 0.000000
-5.444100 0.000000
-5.392600 0.000000
-5.341100 0.000000
-5.289600 0.000000
-5.238100 0.000000
-5.186600 0.000000
-5.135100 0.000000
-5.083600 0.000000
-5.032100 0.000000
-4.980600 0.000000
-4.929100 0.000000
-4.877600 0.000000
-4.826100 0.000000
-4.774600 0.000000
-4.723100 0.000000
-4.671600 0.000000
-4.620100 0.000000
-4.568500 0.000000
-4.517000 0.000000
-4.465500 0.000000
-4.414000 0.000000
-4.362500 0.000000
-4.311000 0.000000
-4.259500 0.000000
-4.208000 0.000000
-4.156500 0.000000
-4.105000 0.000000
-4.053500 0.000000
-4.002000 0.000000
-3.950500 0.000000
-3.899000 0.000000
-3.847500 0.000000
-3.796000 0.000000
-3.744500 0.000000
-3.693000 0.000000
-3.641500 0.000000
-3.590000 0.000000
-3.538500 0.000000
-3.487000 0.000000
-3.435500 0.000000
-3.383900 0.000000
-3.332400 0.000000
-3.280900 0.000000
-3.229400 0.000000
-3.177900 0.000000
-3.126400 0.000000
-3.074900 0.000000
-3.023400 0.000000
-2.971900 0.000000
-2.920400 0.000000
-2.868900 0.000000
-2.817400 0.000000
-2.765900 0.000000
-2.714400 0.000000
-2.662900 0.000000
-2.611400 0.000000
-2.559900 0.000000
-2.508400 0.000000
-2.456900 0.000000
-2.405400 0.000000
-2.353900 0.000000
-2.302400 0.000000
-2.250900 0.000000
-2.199400 0.000000
-2.147800 0.000000
-2.096300 0.000000
-2.044800 0.000000
-1.993300 0.000000
-1.941800 0.000000
-1.890300 0.000000
-1.838800 0.000000
-1.787300 0.000000
-1.735800 0.000000
-1.684300 0.000000
-1.632800 0.000000
-1.581300 0.000000
-1.529800 0.000000
-1.478300 0.000000
-1.426800 0.000000
-1.375300 0.000000
-1.323800 0.000000
-1.272300 0.000000
-1.220800 0.000000
-1.169300 0.000000
-1.117800 0.000000
-1.066300 0.000000
-1.014800 0.000000
-0.963200 0.000000
-0.911700 0.000000
-0.860200 0.000000
-0.808700 0.000000
-0.757200 0.000000
-0.705700 0.000000
-0.654200 0.000000
-0.602700 0.000000
-0.551200 0.000000
-0.499700 0.000000
-0.448200 0.000000
-0.396700 0.000000
-0.345200 0.000000
-0.293700 0.000000
-0.242200 0.000000
-0.190700 0.000000
-0.139200 0.000000
-0.087700 0.000000
-0.036200 0.000000
0.015300 0.493000
0.066800 0.795800
0.118300 0.703100
0.169800 0.858500
0.221400 0.972100
0.272900 1.014900
0.324400 1.098700
0.375900 1.130800
0.427400 1.166200
0.478900 1.219100
0.530400 1.321100
0.581900 1.392200
0.633400 1.470300
0.684900 1.596800
0.736400 1.786200
0.787900 2.066400
0.839400 2.077200
0.890900 2.034100
0.942400 1.963300
0.993900 1.855300
1.045400 1.890700
1.096900 1.886200
1.148400 1.829300
1.199900 1.634300
1.251400 1.376000
1.302900 1.204600
1.354400 1.027100
1.406000 1.094900
1.457500 1.226300
1.509000 1.556900
1.560500 1.935500
1.612000 2.352900
1.663500 2.755600
1.715000 2.772700
1.766500 2.856400
1.818000 2.933400
1.869500 3.240000
1.921000 3.208600
1.972500 2.912800
2.024000 2.543200
2.075500 2.560100
2.127000 2.628300
2.178500 2.496600
2.230000 2.430700
2.281500 2.295200
2.333000 2.057600
2.384500 1.568200
2.436000 1.164200
2.487500 1.162700
2.539000 1.161400
2.590600 1.164200
2.642100 1.212600
2.693600 1.309100
2.745100 1.360300
2.796600 1.390900
2.848100 1.482800
2.899600 1.495000
2.951100 2.071800
3.002600 2.089000
3.054100 1.482100
3.105600 1.282100
3.157100 1.136700
3.208600 1.030100
3.260100 0.949500
3.311600 0.893400
3.363100 0.839100
3.414600 0.782200
3.466100 0.724200
3.517600 0.676200
3.569100 0.627200
3.620600 0.584100
3.672100 0.530100
3.723600 0.512900
3.775200 0.529700
3.826700 0.385300
3.878200 0.358500
3.929700 0.331700
3.981200 0.307600
4.032700 0.293000
4.084200 0.282000
4.135700 0.274000
4.187200 0.271200
4.238700 0.271700
4.290200 0.280400
4.341700 0.295400
4.393200 0.312000
4.444700 0.520300
4.496200 0.752700
4.547700 0.826700
4.599200 0.788500
4.650700 0.787700
4.702200 0.824100
4.753700 0.844200
4.805200 0.889200
4.856700 1.007400
4.908200 1.096800
4.959700 1.212900
5.011300 1.379600
5.062800 1.552600
5.114300 1.773400
5.165800 2.206600
5.217300 3.087900
5.268800 5.051000
5.320300 8.636200
5.371800 7.854700
5.423300 6.964500
5.474800 2.899600
5.526300 2.759000
5.577800 3.191700
5.629300 3.489100
5.680800 3.759500
5.732300 4.198100
5.783800 5.162400
5.835300 3.846100
5.886800 3.392100
5.938300 3.442200
5.989800 3.502000
6.041300 4.200400
6.092800 4.409900
6.144300 3.827200
6.195900 3.883400
6.247400 4.000500
6.298900 4.298500
6.350400 4.517000
6.401900 4.584500
6.453400 5.907100
6.504900 7.133100
6.556400 5.093500
6.607900 4.145500
6.659400 3.767400
6.710900 3.119200
6.762400 2.468300
6.813900 2.213700
6.865400 2.670800
6.916900 6.235000
6.968400 7.553800
7.019900 7.689800
7.071400 7.064900
7.122900 6.525100
7.174400 6.290700
7.225900 4.709900
7.277400 4.860600
7.328900 6.504900
7.380500 5.066200
7.432000 4.207500
7.483500 3.485200
7.535000 3.488500
7.586500 2.721700
7.638000 2.314100
7.689500 3.396600
7.741000 3.771600
7.792500 5.277800
7.844000 6.046700
7.895500 4.905800
7.947000 3.212100
7.998500 2.092300
8.050000 2.032900
8.101500 2.301700
8.153000 3.718900
8.204500 4.650800
8.256000 5.113900
8.307500 5.662500
8.359000 6.396400
8.410500 5.900900
8.462000 4.709100
8.513500 5.830700
8.565100 3.727100
8.616600 3.855000
8.668100 5.217700
8.719600 10.115700
8.771100 5.004900
8.822600 4.931200
8.874100 4.765900
8.925600 5.785700
8.977100 6.887900
9.028600 7.479800
9.080100 7.149900
9.131600 6.769200
9.183100 6.297100
9.234600 7.179000
9.286100 6.247200
9.337600 6.321200
9.389100 5.220800
9.440600 5.380300
9.492100 6.305500
9.543600 7.085900
9.595100 7.762900
9.646600 8.454100
9.698100 5.624600
9.749700 6.799000
9.801200 10.155200
9.852700 11.167400
9.904200 9.936300
9.955700 7.993600
10.007200 7.697200
10.058700 7.294700
10.110200 6.816200
10.161700 5.550800
10.213200 4.493900
10.264700 3.631300
10.316200 2.595700
10.367700 2.487300
10.419200 5.440900
10.470700 6.434000
10.522200 7.220000
10.573700 5.505900
10.625200 4.200900
10.676700 3.835700
10.728200 3.546300
10.779700 3.443300
10.831200 2.433400
10.882700 1.877300
10.934200 1.785600
10.985800 1.818800
11.037300 2.003000
11.088800 2.309900
11.140300 2.449800
11.191800 2.435300
11.243300 2.320600
11.294800 2.066100
11.346300 1.748800
11.397800 1.461400
11.449300 1.317700
11.500800 1.199800
11.552300 1.102600
11.603800 1.051400
11.655300 0.911000
11.706800 0.772100
11.758300 0.705300
11.809800 0.637000
11.861300 0.575500
11.912800 0.496700
11.964300 0.444100
12.015800 0.438400
12.067300 0.431700
12.118800 0.422700
12.170400 0.429200
12.221900 0.454200
12.273400 0.490200
12.324900 0.655300
12.376400 0.779200
12.427900 0.798200
12.479400 0.789800
12.530900 0.819300
12.582400 0.817900
12.633900 0.928600
12.685400 1.085100
