set title 'mp-555853 - Density of States'
set xlabel 'Energy (eV)'
set ylabel 'DOS (states/eV)'
set grid
set xrange [-10:10]
set yrange [0:840.556]
set xzeroaxis lt -1
set terminal png size 800,600
set output 'mp-555853_dos_gnuplot.png'
plot '-' using 1:2 with lines title 'DOS'
-10.978700 0.000000
-10.964300 0.000000
-10.949800 0.000000
-10.935400 0.000000
-10.921000 0.000000
-10.906600 0.000000
-10.892100 0.000000
-10.877700 0.000000
-10.863300 0.000000
-10.848900 0.000000
-10.834400 0.000000
-10.820000 0.000000
-10.805600 0.000000
-10.791200 0.000000
-10.776700 0.000000
-10.762300 0.000000
-10.747900 0.000000
-10.733500 0.000000
-10.719000 0.000000
-10.704600 0.000000
-10.690200 0.000000
-10.675800 0.000000
-10.661300 0.000000
-10.646900 0.000000
-10.632500 0.000000
-10.618100 0.000000
-10.603600 0.000000
-10.589200 0.000000
-10.574800 0.000000
-10.560300 0.000000
-10.545900 0.000000
-10.531500 0.000000
-10.517100 0.000000
-10.502600 0.000000
-10.488200 0.000000
-10.473800 0.000000
-10.459400 0.000000
-10.444900 0.000000
-10.430500 0.000000
-10.416100 0.000000
-10.401700 0.000000
-10.387200 0.000000
-10.372800 0.000000
-10.358400 0.000000
-10.344000 0.000000
-10.329500 0.000000
-10.315100 0.000000
-10.300700 0.000000
-10.286300 0.000000
-10.271800 0.000000
-10.257400 0.000000
-10.243000 0.000000
-10.228600 0.000000
-10.214100 0.000000
-10.199700 0.000000
-10.185300 0.000000
-10.170900 0.000000
-10.156400 0.000000
-10.142000 0.000000
-10.127600 0.000000
-10.113200 0.000000
-10.098700 0.000000
-10.084300 0.000000
-10.069900 0.000000
-10.055500 0.000000
-10.041000 0.000000
-10.026600 0.000000
-10.012200 0.000000
-9.997800 0.000000
-9.983300 0.000000
-9.968900 0.000000
-9.954500 0.000000
-9.940100 0.000000
-9.925600 0.000000
-9.911200 0.000000
-9.896800 0.000000
-9.882400 0.000000
-9.867900 0.000000
-9.853500 0.000000
-9.839100 0.000000
-9.824700 0.000000
-9.810200 0.000000
-9.795800 0.000000
-9.781400 0.000000
-9.767000 0.000000
-9.752500 0.000000
-9.738100 0.000000
-9.723700 0.000000
-9.709300 0.000000
-9.694800 0.000000
-9.680400 0.000000
-9.666000 0.679900
-9.651600 22.680100
-9.637100 52.233100
-9.622700 54.796100
-9.608300 61.668100
-9.593900 10.871300
-9.579400 13.611500
-9.565000 42.511100
-9.550600 63.419000
-9.536200 46.521800
-9.521700 92.468800
-9.507300 52.627400
-9.492900 37.991100
-9.478500 49.860500
-9.464000 70.661500
-9.449600 88.995800
-9.435200 87.263500
-9.420800 29.886200
-9.406300 28.183000
-9.391900 58.078800
-9.377500 48.646800
-9.363100 72.359500
-9.348600 68.245800
-9.334200 68.579000
-9.319800 83.340000
-9.305400 114.160800
-9.290900 82.231500
-9.276500 107.097000
-9.262100 83.124000
-9.247700 69.752700
-9.233200 146.846200
-9.218800 135.764100
-9.204400 129.026800
-9.190000 29.538800
-9.175500 212.880100
-9.161100 213.222800
-9.146700 156.260000
-9.132300 304.381200
-9.117800 215.988700
-9.103400 764.142100
-9.089000 412.993600
-9.074600 65.575000
-9.060100 520.662000
-9.045700 0.000000
-9.031300 0.000000
-9.016800 55.189400
-9.002400 65.386700
-8.988000 74.224900
-8.973600 76.379900
-8.959100 141.255200
-8.944700 167.953900
-8.930300 0.000000
-8.915900 85.019900
-8.901400 63.960700
-8.887000 45.478300
-8.872600 0.000000
-8.858200 0.000000
-8.843700 0.000000
-8.829300 0.000000
-8.814900 13.575600
-8.800500 114.059200
-8.786000 72.400800
-8.771600 151.005100
-8.757200 0.000000
-8.742800 0.000000
-8.728300 0.000000
-8.713900 0.000000
-8.699500 0.000000
-8.685100 0.000000
-8.670600 0.000000
-8.656200 0.000000
-8.641800 0.000000
-8.627400 0.000000
-8.612900 0.000000
-8.598500 0.000000
-8.584100 0.000000
-8.569700 0.000000
-8.555200 0.000000
-8.540800 0.000000
-8.526400 0.000000
-8.512000 0.000000
-8.497500 0.000000
-8.483100 0.000000
-8.468700 172.619400
-8.454300 442.761200
-8.439800 0.000000
-8.425400 118.197400
-8.411000 246.298500
-8.396600 50.658700
-8.382100 0.000000
-8.367700 0.000000
-8.353300 0.000000
-8.338900 0.000000
-8.324400 0.000000
-8.310000 0.000000
-8.295600 0.000000
-8.281200 0.000000
-8.266700 0.000000
-8.252300 0.000000
-8.237900 0.000000
-8.223500 0.000000
-8.209000 0.006300
-8.194600 0.429000
-8.180200 0.851700
-8.165800 1.274400
-8.151300 1.697000
-8.136900 2.119700
-8.122500 2.542400
-8.108100 2.965100
-8.093600 4.427500
-8.079200 4.374300
-8.064800 4.111300
-8.050400 3.848300
-8.035900 3.625500
-8.021500 3.996800
-8.007100 4.368100
-7.992700 4.739400
-7.978200 5.110700
-7.963800 6.327600
-7.949400 6.307300
-7.935000 6.287100
-7.920500 6.266900
-7.906100 5.940100
-7.891700 5.583400
-7.877300 5.226800
-7.862800 4.870100
-7.848400 4.513500
-7.834000 3.362000
-7.819600 3.362300
-7.805100 3.362700
-7.790700 3.363100
-7.776300 3.363500
-7.761900 4.679600
-7.747400 5.044200
-7.733000 5.408900
-7.718600 5.773300
-7.704200 6.090300
-7.689700 6.407300
-7.675300 8.131600
-7.660900 8.629800
-7.646500 8.833300
-7.632000 8.989300
-7.617600 9.047800
-7.603200 8.266000
-7.588800 8.185500
-7.574300 8.071900
-7.559900 7.958200
-7.545500 7.844600
-7.531100 6.906800
-7.516600 8.584100
-7.502200 8.933900
-7.487800 9.414300
-7.473300 9.894800
-7.458900 10.256300
-7.444500 10.565900
-7.430100 10.815500
-7.415600 10.668900
-7.401200 10.522300
-7.386800 9.400900
-7.372400 9.108400
-7.357900 8.815900
-7.343500 8.523400
-7.329100 8.230900
-7.314700 8.485300
-7.300200 9.186100
-7.285800 9.888700
-7.271400 12.222100
-7.257000 12.497100
-7.242500 12.880500
-7.228100 13.177700
-7.213700 13.474900
-7.199300 13.869800
-7.184800 20.292100
-7.170400 19.576400
-7.156000 12.066100
-7.141600 15.401200
-7.127100 16.839000
-7.112700 16.407200
-7.098300 11.378100
-7.083900 11.231100
-7.069400 11.012200
-7.055000 10.860900
-7.040600 11.122900
-7.026200 11.763200
-7.011700 12.403500
-6.997300 12.277000
-6.982900 13.089800
-6.968500 14.621800
-6.954000 14.528800
-6.939600 15.823200
-6.925200 15.444400
-6.910800 15.706500
-6.896300 16.721000
-6.881900 16.478900
-6.867500 16.533700
-6.853100 13.694900
-6.838600 13.906900
-6.824200 14.151100
-6.809800 14.395300
-6.795400 14.639500
-6.780900 14.891900
-6.766500 12.960100
-6.752100 12.653100
-6.737700 14.554400
-6.723200 14.861000
-6.708800 14.923500
-6.694400 20.292500
-6.680000 19.983900
-6.665500 19.876300
-6.651100 14.345700
-6.636700 38.922100
-6.622300 11.287300
-6.607800 13.295200
-6.593400 14.540900
-6.579000 14.667700
-6.564600 14.627700
-6.550100 14.373600
-6.535700 17.626200
-6.521300 20.547900
-6.506900 22.465800
-6.492400 18.175500
-6.478000 15.919700
-6.463600 13.816900
-6.449200 12.103500
-6.434700 9.841100
-6.420300 15.214700
-6.405900 15.836600
-6.391500 16.458500
-6.377000 17.092700
-6.362600 17.810300
-6.348200 12.803100
-6.333800 17.477200
-6.319300 19.833600
-6.304900 23.284900
-6.290500 24.557300
-6.276100 20.808900
-6.261600 24.060700
-6.247200 27.905200
-6.232800 24.525200
-6.218400 8.295100
-6.203900 11.017100
-6.189500 18.432500
-6.175100 47.239700
-6.160700 65.504100
-6.146200 14.194600
-6.131800 13.769200
-6.117400 23.951800
-6.103000 20.373800
-6.088500 12.478200
-6.074100 51.997800
-6.059700 9.368600
-6.045300 0.000000
-6.030800 0.000000
-6.016400 0.000000
-6.002000 0.000000
-5.987600 0.000000
-5.973100 0.000000
-5.958700 0.000000
-5.944300 0.000000
-5.929900 0.000000
-5.915400 0.000000
-5.901000 0.000000
-5.886600 0.000000
-5.872100 0.000000
-5.857700 0.000000
-5.843300 0.000000
-5.828900 0.000000
-5.814400 0.000000
-5.800000 0.000000
-5.785600 0.000000
-5.771200 0.000000
-5.756700 0.000000
-5.742300 0.000000
-5.727900 0.000000
-5.713500 0.000000
-5.699000 0.000000
-5.684600 0.000000
-5.670200 0.000000
-5.655800 0.000000
-5.641300 0.000000
-5.626900 0.000000
-5.612500 0.000000
-5.598100 0.000000
-5.583600 0.000000
-5.569200 0.000000
-5.554800 0.000000
-5.540400 0.000000
-5.525900 0.000000
-5.511500 0.000000
-5.497100 0.000000
-5.482700 0.000000
-5.468200 0.000000
-5.453800 0.000000
-5.439400 0.000000
-5.425000 0.000000
-5.410500 0.000000
-5.396100 0.000000
-5.381700 0.000000
-5.367300 0.000000
-5.352800 0.000000
-5.338400 0.000000
-5.324000 0.000000
-5.309600 0.000000
-5.295100 0.000000
-5.280700 0.000000
-5.266300 0.000000
-5.251900 0.000000
-5.237400 0.000000
-5.223000 0.000000
-5.208600 0.000000
-5.194200 0.000000
-5.179700 0.000000
-5.165300 0.000000
-5.150900 0.000000
-5.136500 0.000000
-5.122000 0.000000
-5.107600 0.000000
-5.093200 0.000000
-5.078800 0.000000
-5.064300 0.000000
-5.049900 0.000000
-5.035500 0.000000
-5.021100 0.000000
-5.006600 0.000000
-4.992200 0.000000
-4.977800 0.000000
-4.963400 0.000000
-4.948900 0.000000
-4.934500 0.000000
-4.920100 0.000000
-4.905700 0.000000
-4.891200 0.000000
-4.876800 0.000000
-4.862400 0.000000
-4.848000 0.000000
-4.833500 0.000000
-4.819100 0.000000
-4.804700 0.000000
-4.790300 0.000000
-4.775800 0.000000
-4.761400 0.000000
-4.747000 0.000000
-4.732600 0.000000
-4.718100 0.000000
-4.703700 0.000000
-4.689300 0.000000
-4.674900 0.000000
-4.660400 0.000000
-4.646000 0.000000
-4.631600 0.000000
-4.617200 0.000000
-4.602700 0.000000
-4.588300 0.000000
-4.573900 0.000000
-4.559500 0.000000
-4.545000 0.000000
-4.530600 0.000000
-4.516200 0.000000
-4.501800 0.000000
-4.487300 0.000000
-4.472900 0.000000
-4.458500 0.000000
-4.444100 0.000000
-4.429600 0.000000
-4.415200 0.000000
-4.400800 0.000000
-4.386400 0.000000
-4.371900 0.000000
-4.357500 0.000000
-4.343100 0.000000
-4.328600 0.000000
-4.314200 0.000000
-4.299800 0.000000
-4.285400 0.000000
-4.270900 0.000000
-4.256500 0.000000
-4.242100 0.000000
-4.227700 0.000000
-4.213200 0.000000
-4.198800 0.000000
-4.184400 0.000000
-4.170000 0.000000
-4.155500 0.000000
-4.141100 0.000000
-4.126700 0.000000
-4.112300 0.000000
-4.097800 0.000000
-4.083400 0.000000
-4.069000 0.000000
-4.054600 0.000000
-4.040100 0.000000
-4.025700 0.000000
-4.011300 0.000000
-3.996900 0.000000
-3.982400 0.000000
-3.968000 0.000000
-3.953600 0.000000
-3.939200 0.000000
-3.924700 0.000000
-3.910300 0.000000
-3.895900 0.000000
-3.881500 0.000000
-3.867000 0.000000
-3.852600 0.000000
-3.838200 0.000000
-3.823800 0.000000
-3.809300 0.000000
-3.794900 0.000000
-3.780500 0.000000
-3.766100 0.000000
-3.751600 0.000000
-3.737200 0.000000
-3.722800 0.000000
-3.708400 0.000000
-3.693900 0.000000
-3.679500 0.000000
-3.665100 0.000000
-3.650700 0.000000
-3.636200 0.000000
-3.621800 0.000000
-3.607400 0.000000
-3.593000 0.000000
-3.578500 0.000000
-3.564100 0.000000
-3.549700 0.000000
-3.535300 0.000000
-3.520800 0.000000
-3.506400 0.000000
-3.492000 0.000000
-3.477600 0.000000
-3.463100 0.000000
-3.448700 0.000000
-3.434300 0.000000
-3.419900 0.000000
-3.405400 0.000000
-3.391000 0.000000
-3.376600 0.000000
-3.362200 0.000000
-3.347700 0.000000
-3.333300 0.000000
-3.318900 0.000000
-3.304500 0.000000
-3.290000 0.000000
-3.275600 0.000000
-3.261200 0.000000
-3.246800 0.000000
-3.232300 0.000000
-3.217900 0.000000
-3.203500 0.000000
-3.189100 0.000000
-3.174600 0.000000
-3.160200 0.000000
-3.145800 0.000000
-3.131400 0.000000
-3.116900 0.000000
-3.102500 0.000000
-3.088100 0.000000
-3.073700 0.000000
-3.059200 0.000000
-3.044800 0.000000
-3.030400 0.000000
-3.016000 0.000000
-3.001500 0.000000
-2.987100 0.000000
-2.972700 0.000000
-2.958300 0.000000
-2.943800 0.000000
-2.929400 0.000000
-2.915000 0.000000
-2.900600 0.000000
-2.886100 0.000000
-2.871700 0.000000
-2.857300 0.000000
-2.842900 0.000000
-2.828400 0.000000
-2.814000 0.000000
-2.799600 0.000000
-2.785100 0.000000
-2.770700 0.000000
-2.756300 0.000000
-2.741900 0.000000
-2.727400 0.000000
-2.713000 0.000000
-2.698600 0.000000
-2.684200 0.000000
-2.669700 0.000000
-2.655300 0.000000
-2.640900 0.000000
-2.626500 0.000000
-2.612000 0.000000
-2.597600 0.000000
-2.583200 0.000000
-2.568800 0.000000
-2.554300 0.000000
-2.539900 0.000000
-2.525500 0.000000
-2.511100 0.000000
-2.496600 0.000000
-2.482200 0.000000
-2.467800 0.000000
-2.453400 0.000000
-2.438900 0.000000
-2.424500 0.000000
-2.410100 0.000000
-2.395700 0.000000
-2.381200 0.000000
-2.366800 0.000000
-2.352400 0.000000
-2.338000 0.000000
-2.323500 0.000000
-2.309100 0.000000
-2.294700 0.000000
-2.280300 0.000000
-2.265800 0.000000
-2.251400 0.000000
-2.237000 0.000000
-2.222600 0.000000
-2.208100 0.000000
-2.193700 0.000000
-2.179300 0.000000
-2.164900 0.000000
-2.150400 0.000000
-2.136000 0.000000
-2.121600 0.000000
-2.107200 0.000000
-2.092700 0.000000
-2.078300 0.000000
-2.063900 0.000000
-2.049500 0.000000
-2.035000 0.000000
-2.020600 0.000000
-2.006200 0.000000
-1.991800 0.000000
-1.977300 0.000000
-1.962900 0.000000
-1.948500 0.000000
-1.934100 0.000000
-1.919600 0.000000
-1.905200 0.000000
-1.890800 0.000000
-1.876400 0.000000
-1.861900 0.000000
-1.847500 0.000000
-1.833100 0.000000
-1.818700 0.000000
-1.804200 0.000000
-1.789800 0.000000
-1.775400 0.000000
-1.761000 0.000000
-1.746500 0.000000
-1.732100 0.000000
-1.717700 0.000000
-1.703300 0.000000
-1.688800 0.000000
-1.674400 0.000000
-1.660000 0.000000
-1.645600 0.000000
-1.631100 0.000000
-1.616700 0.000000
-1.602300 0.000000
-1.587900 0.000000
-1.573400 0.000000
-1.559000 0.000000
-1.544600 0.000000
-1.530200 0.000000
-1.515700 0.000000
-1.501300 0.000000
-1.486900 0.000000
-1.472500 0.000000
-1.458000 0.000000
-1.443600 0.000000
-1.429200 0.000000
-1.414800 0.000000
-1.400300 0.000000
-1.385900 0.000000
-1.371500 0.000000
-1.357100 0.000000
-1.342600 0.000000
-1.328200 0.000000
-1.313800 0.000000
-1.299400 0.000000
-1.284900 0.000000
-1.270500 0.000000
-1.256100 0.000000
-1.241600 0.000000
-1.227200 0.000000
-1.212800 0.000000
-1.198400 0.000000
-1.183900 0.000000
-1.169500 0.000000
-1.155100 0.000000
-1.140700 0.000000
-1.126200 0.000000
-1.111800 0.000000
-1.097400 0.000000
-1.083000 0.000000
-1.068500 6.870500
-1.054100 7.649500
-1.039700 7.611400
-1.025300 14.599100
-1.010800 16.797900
-0.996400 18.837700
-0.982000 16.019900
-0.967600 16.708400
-0.953100 34.810400
-0.938700 20.864800
-0.924300 20.223900
-0.909900 14.534400
-0.895400 10.501700
-0.881000 11.858700
-0.866600 11.328400
-0.852200 10.798000
-0.837700 10.267700
-0.823300 9.737300
-0.808900 9.207000
-0.794500 8.691400
-0.780000 8.206800
-0.765600 10.098100
-0.751200 11.478200
-0.736800 10.663700
-0.722300 5.271500
-0.707900 5.422700
-0.693500 5.573900
-0.679100 5.725100
-0.664600 5.876300
-0.650200 10.159000
-0.635800 10.772700
-0.621400 9.687600
-0.606900 23.409700
-0.592500 25.194200
-0.578100 13.291900
-0.563700 11.401500
-0.549200 11.756000
-0.534800 14.815700
-0.520400 15.340000
-0.506000 15.397800
-0.491500 14.737000
-0.477100 14.089900
-0.462700 17.522600
-0.448300 15.668700
-0.433800 15.644300
-0.419400 17.644900
-0.405000 18.646400
-0.390600 27.115900
-0.376100 22.851000
-0.361700 15.154000
-0.347300 12.330000
-0.332900 11.007600
-0.318400 9.919400
-0.304000 8.831200
-0.289600 7.742900
-0.275200 6.654700
-0.260700 5.566400
-0.246300 5.431400
-0.231900 9.169400
-0.217500 11.916800
-0.203000 14.367300
-0.188600 17.400500
-0.174200 17.744100
-0.159800 18.087800
-0.145300 18.431400
-0.130900 36.846600
-0.116500 5.350800
-0.102100 6.170700
-0.087600 9.298900
-0.073200 9.703200
-0.058800 9.741400
-0.044400 9.779700
-0.029900 9.773800
-0.015500 9.640900
-0.001100 7.547000
0.013300 7.342000
0.027800 7.236500
0.042200 6.821500
0.056600 6.704000
0.071000 6.586400
0.085500 6.468800
0.099900 6.351200
0.114300 6.233600
0.128700 6.116100
0.143200 5.998500
0.157600 5.880900
0.172000 5.767400
0.186400 5.658900
0.200900 5.550500
0.215300 5.442100
0.229700 7.508900
0.244100 7.249900
0.258600 6.990800
0.273000 6.731700
0.287400 3.635800
0.301800 3.753100
0.316300 3.870300
0.330700 3.987500
0.345100 4.104700
0.359600 4.221900
0.374000 4.339100
0.388400 4.456300
0.402800 7.372200
0.417300 7.763300
0.431700 8.174400
0.446100 8.585500
0.460500 10.653200
0.475000 10.125900
0.489400 10.508300
0.503800 10.913100
0.518200 11.175900
0.532700 11.438600
0.547100 14.496400
0.561500 15.042700
0.575900 14.869300
0.590400 14.695900
0.604800 14.522500
0.619200 12.862300
0.633600 9.179600
0.648100 7.700900
0.662500 7.921700
0.676900 9.849300
0.691300 10.227700
0.705800 10.606000
0.720200 15.794900
0.734600 16.864500
0.749000 14.050200
0.763500 12.109100
0.777900 7.161400
0.792300 6.692000
0.806700 7.211300
0.821200 7.730600
0.835600 8.250000
0.850000 8.769300
0.864400 9.288600
0.878900 9.866200
0.893300 11.671200
0.907700 14.599500
0.922100 13.798300
0.936600 12.997100
0.951000 8.567000
0.965400 9.918300
0.979800 10.086800
0.994300 10.255200
1.008700 10.722100
1.023100 11.260000
1.037500 10.649600
1.052000 11.979100
1.066400 12.642800
1.080800 10.605800
1.095200 10.431400
1.109700 10.257000
1.124100 10.082700
1.138500 20.516300
1.152900 5.386500
1.167400 5.402000
1.181800 6.206800
1.196200 7.033600
1.210600 7.853700
1.225100 8.003000
1.239500 7.333200
1.253900 6.732700
1.268300 6.132300
1.282800 5.587500
1.297200 5.041600
1.311600 20.510400
1.326000 18.293500
1.340500 14.777900
1.354900 9.862800
1.369300 41.840900
1.383700 17.824700
1.398200 16.979800
1.412600 16.135000
1.427000 13.430300
1.441400 6.934800
1.455900 4.625400
1.470300 4.622900
1.484700 5.849000
1.499100 9.807700
1.513600 17.171000
1.528000 17.610100
1.542400 18.049200
1.556800 14.561000
1.571300 12.373600
1.585700 9.080900
1.600100 9.754300
1.614500 9.046300
1.629000 8.445200
1.643400 8.156200
1.657800 12.512100
1.672200 12.121700
1.686700 11.731300
1.701100 11.341000
1.715500 8.083400
1.729900 7.987700
1.744400 13.457400
1.758800 15.448300
1.773200 16.419000
1.787600 15.573200
1.802100 13.176200
1.816500 13.024000
1.830900 12.773700
1.845300 12.505000
1.859800 14.539700
1.874200 14.589900
1.888600 14.640100
1.903100 14.690300
1.917500 14.740500
1.931900 14.790700
1.946300 14.519900
1.960800 13.645600
1.975200 11.761600
1.989600 14.144600
2.004000 14.615400
2.018500 15.085200
2.032900 16.496700
2.047300 17.172600
2.061700 17.641900
2.076200 18.327700
2.090600 19.013500
2.105000 20.277400
2.119400 20.702200
2.133900 18.160100
2.148300 18.569300
2.162700 19.004900
2.177100 16.532100
2.191600 34.104100
2.206000 14.094400
2.220400 11.940100
2.234800 9.949600
2.249300 12.375300
2.263700 12.866700
2.278100 15.867200
2.292500 16.483400
2.307000 17.099600
2.321400 17.334300
2.335800 18.143800
2.350200 21.934700
2.364700 23.759200
2.379100 25.573100
2.393500 21.929400
2.407900 23.997200
2.422400 20.777900
2.436800 17.483900
2.451200 15.893400
2.465600 16.171200
2.480100 24.289600
2.494500 16.321900
2.508900 15.399600
2.523300 14.490000
2.537800 13.580300
2.552200 14.680700
2.566600 14.970000
2.581000 15.279400
2.595500 15.588700
2.609900 19.953000
2.624300 20.775500
2.638700 21.629200
2.653200 20.086100
2.667600 16.077700
2.682000 15.602400
2.696400 15.045000
2.710900 14.803400
2.725300 25.850700
2.739700 17.639600
2.754100 34.061700
2.768600 21.344200
2.783000 20.132900
2.797400 19.656700
2.811800 19.301800
2.826300 19.002300
2.840700 21.332900
2.855100 18.854500
2.869500 18.408000
2.884000 20.851300
2.898400 18.170200
2.912800 18.256700
2.927200 18.270400
2.941700 18.284100
2.956100 20.921300
2.970500 26.469400
2.984900 24.724500
2.999400 19.097300
3.013800 18.953500
3.028200 18.809700
3.042600 22.722600
3.057100 23.010300
3.071500 21.429500
3.085900 21.364500
3.100300 21.408100
3.114800 18.691200
3.129200 18.443600
3.143600 18.411200
3.158000 25.817700
3.172500 26.643000
3.186900 20.254400
3.201300 24.449400
3.215700 23.729300
3.230200 24.180300
3.244600 21.095500
3.259000 21.795700
3.273400 21.876700
3.287900 22.584300
3.302300 21.602500
3.316700 21.188500
3.331100 20.774600
3.345600 21.747700
3.360000 20.872300
3.374400 20.980000
3.388800 24.545600
3.403300 24.936900
3.417700 24.991400
3.432100 26.518600
3.446600 25.817300
3.461000 25.544200
3.475400 23.856600
3.489800 22.445800
3.504300 23.443400
3.518700 21.032000
3.533100 20.146400
3.547500 21.589400
3.562000 20.211000
3.576400 20.018300
3.590800 19.494400
3.605200 18.234000
3.619700 16.024000
3.634100 24.104500
3.648500 25.488000
3.662900 16.672800
3.677400 16.695800
3.691800 16.019700
3.706200 16.249800
3.720600 16.479800
3.735100 16.661300
3.749500 17.055000
3.763900 17.448700
3.778300 16.788500
3.792800 16.727800
3.807200 16.862100
