set title 'mp-1217971 - Density of States'
set xlabel 'Energy (eV)'
set ylabel 'DOS (states/eV)'
set grid
set xrange [-10:10]
set yrange [0:4.211]
set xzeroaxis lt -1
set terminal png size 800,600
set output 'mp-1217971_dos_gnuplot.png'
plot '-' using 1:2 with lines title 'DOS'
-32.886300 0.000000
-32.841500 0.000000
-32.796700 0.000000
-32.751900 0.000000
-32.707100 0.000000
-32.662400 0.000000
-32.617600 0.000000
-32.572800 0.000000
-32.528000 0.000000
-32.483200 0.000000
-32.438500 0.000000
-32.393700 0.000000
-32.348900 0.000000
-32.304100 0.000000
-32.259300 0.000000
-32.214500 0.000000
-32.169800 0.000000
-32.125000 0.000000
-32.080200 0.000000
-32.035400 0.000000
-31.990600 0.000000
-31.945800 0.000000
-31.901100 0.000000
-31.856300 0.000000
-31.811500 0.000000
-31.766700 0.000000
-31.721900 0.000000
-31.677200 0.000000
-31.632400 0.000000
-31.587600 0.000000
-31.542800 0.000000
-31.498000 0.000000
-31.453200 0.000000
-31.408500 0.000000
-31.363700 0.000000
-31.318900 0.000000
-31.274100 0.000000
-31.229300 0.000000
-31.184500 0.000000
-31.139800 0.000000
-31.095000 0.000000
-31.050200 0.000000
-31.005400 0.000000
-30.960600 0.000000
-30.915900 0.000000
-30.871100 0.000000
-30.826300 0.000000
-30.781500 0.000000
-30.736700 0.000000
-30.691900 0.000000
-30.647200 0.000000
-30.602400 0.000000
-30.557600 0.000000
-30.512800 0.000000
-30.468000 0.000000
-30.423200 0.000000
-30.378500 0.000000
-30.333700 0.000000
-30.288900 0.000000
-30.244100 0.000000
-30.199300 0.000000
-30.154500 0.000000
-30.109800 0.000000
-30.065000 0.000000
-30.020200 0.000000
-29.975400 0.000000
-29.930600 0.000000
-29.885900 0.000000
-29.841100 0.000000
-29.796300 0.000000
-29.751500 0.000000
-29.706700 0.000000
-29.661900 0.000000
-29.617200 0.000000
-29.572400 0.000000
-29.527600 0.000000
-29.482800 0.000000
-29.438000 0.000000
-29.393200 0.000000
-29.348500 0.000000
-29.303700 0.000000
-29.258900 0.000000
-29.214100 0.000000
-29.169300 0.000000
-29.124600 0.000000
-29.079800 0.000000
-29.035000 0.000000
-28.990200 0.000000
-28.945400 0.000000
-28.900600 0.000000
-28.855900 0.000000
-28.811100 0.032300
-28.766300 2.773400
-28.721500 5.785600
-28.676700 9.355100
-28.631900 15.671900
-28.587200 19.709200
-28.542400 11.338200
-28.497600 6.226900
-28.452800 6.332000
-28.408000 7.713800
-28.363300 8.972300
-28.318500 10.808800
-28.273700 10.492000
-28.228900 10.408700
-28.184100 10.223700
-28.139300 13.503100
-28.094600 14.443800
-28.049800 13.448000
-28.005000 15.363800
-27.960200 17.422200
-27.915400 25.288100
-27.870600 20.523600
-27.825900 11.939500
-27.781100 0.000000
-27.736300 0.000000
-27.691500 0.000000
-27.646700 0.000000
-27.601900 0.000000
-27.557200 0.000000
-27.512400 0.000000
-27.467600 0.000000
-27.422800 0.000000
-27.378000 0.000000
-27.333300 0.000000
-27.288500 0.000000
-27.243700 0.000000
-27.198900 0.000000
-27.154100 0.000000
-27.109300 0.000000
-27.064600 0.000000
-27.019800 0.000000
-26.975000 0.000000
-26.930200 0.000000
-26.885400 0.000000
-26.840600 0.000000
-26.795900 0.000000
-26.751100 0.000000
-26.706300 0.000000
-26.661500 0.000000
-26.616700 0.000000
-26.572000 0.000000
-26.527200 0.000000
-26.482400 0.000000
-26.437600 0.000000
-26.392800 0.000000
-26.348000 0.000000
-26.303300 0.000000
-26.258500 0.000000
-26.213700 0.000000
-26.168900 0.000000
-26.124100 0.000000
-26.079300 0.000000
-26.034600 0.000000
-25.989800 0.000000
-25.945000 0.000000
-25.900200 0.000000
-25.855400 0.000000
-25.810700 0.000000
-25.765900 0.000000
-25.721100 0.000000
-25.676300 0.000000
-25.631500 0.000000
-25.586700 0.000000
-25.542000 0.000000
-25.497200 0.000000
-25.452400 0.000000
-25.407600 0.000000
-25.362800 0.000000
-25.318000 0.000000
-25.273300 0.000000
-25.228500 0.000000
-25.183700 0.000000
-25.138900 0.000000
-25.094100 0.000000
-25.049300 0.000000
-25.004600 0.000000
-24.959800 0.000000
-24.915000 0.000000
-24.870200 0.000000
-24.825400 0.000000
-24.780700 0.000000
-24.735900 0.000000
-24.691100 0.000000
-24.646300 0.000000
-24.601500 0.000000
-24.556700 0.000000
-24.512000 0.000000
-24.467200 0.000000
-24.422400 0.000000
-24.377600 0.000000
-24.332800 0.000000
-24.288000 0.000000
-24.243300 0.000000
-24.198500 0.000000
-24.153700 0.000000
-24.108900 0.000000
-24.064100 0.000000
-24.019400 0.000000
-23.974600 0.000000
-23.929800 0.000000
-23.885000 0.000000
-23.840200 0.000000
-23.795400 0.000000
-23.750700 0.000000
-23.705900 0.000000
-23.661100 0.000000
-23.616300 0.000000
-23.571500 0.000000
-23.526700 0.000000
-23.482000 0.000000
-23.437200 0.000000
-23.392400 0.000000
-23.347600 0.000000
-23.302800 0.000000
-23.258000 0.000000
-23.213300 0.000000
-23.168500 0.000000
-23.123700 0.000000
-23.078900 0.000000
-23.034100 0.000000
-22.989400 0.000000
-22.944600 0.000000
-22.899800 0.000000
-22.855000 0.000000
-22.810200 0.000000
-22.765400 0.000000
-22.720700 0.000000
-22.675900 0.000000
-22.631100 0.000000
-22.586300 0.000000
-22.541500 0.000000
-22.496700 0.000000
-22.452000 0.000000
-22.407200 0.000000
-22.362400 0.000000
-22.317600 0.000000
-22.272800 0.000000
-22.228100 0.000000
-22.183300 0.000000
-22.138500 0.000000
-22.093700 0.000000
-22.048900 0.000000
-22.004100 0.000000
-21.959400 0.000000
-21.914600 0.000000
-21.869800 0.000000
-21.825000 0.000000
-21.780200 0.000000
-21.735400 0.000000
-21.690700 0.000000
-21.645900 0.000000
-21.601100 0.000000
-21.556300 0.000000
-21.511500 0.000000
-21.466800 0.000000
-21.422000 0.000000
-21.377200 0.000000
-21.332400 0.000000
-21.287600 0.000000
-21.242800 0.000000
-21.198100 0.000000
-21.153300 0.000000
-21.108500 0.000000
-21.063700 0.000000
-21.018900 0.000000
-20.974100 0.000000
-20.929400 0.000000
-20.884600 0.000000
-20.839800 0.000000
-20.795000 0.000000
-20.750200 0.000000
-20.705400 0.000000
-20.660700 0.000000
-20.615900 0.000000
-20.571100 0.000000
-20.526300 0.000000
-20.481500 0.000000
-20.436800 0.000000
-20.392000 0.000000
-20.347200 0.000000
-20.302400 0.000000
-20.257600 0.000000
-20.212800 0.000000
-20.168100 0.000000
-20.123300 0.000000
-20.078500 0.000000
-20.033700 0.000000
-19.988900 0.000000
-19.944100 0.000000
-19.899400 0.000000
-19.854600 0.000000
-19.809800 0.000000
-19.765000 0.000000
-19.720200 0.000000
-19.675500 0.000000
-19.630700 0.000000
-19.585900 0.000000
-19.541100 0.000000
-19.496300 0.000000
-19.451500 0.000000
-19.406800 0.000000
-19.362000 0.000000
-19.317200 0.000000
-19.272400 0.000000
-19.227600 0.000000
-19.182800 0.000000
-19.138100 0.000000
-19.093300 0.000000
-19.048500 0.000000
-19.003700 0.000000
-18.958900 0.000000
-18.914200 0.000000
-18.869400 0.000000
-18.824600 0.000000
-18.779800 0.000000
-18.735000 0.000000
-18.690200 0.000000
-18.645500 0.000000
-18.600700 0.000000
-18.555900 0.000000
-18.511100 0.000000
-18.466300 0.000000
-18.421500 0.000000
-18.376800 0.000000
-18.332000 0.000000
-18.287200 0.000000
-18.242400 0.000000
-18.197600 0.000000
-18.152800 0.000000
-18.108100 0.000000
-18.063300 0.000000
-18.018500 0.000000
-17.973700 0.000000
-17.928900 0.000000
-17.884200 0.000000
-17.839400 0.000000
-17.794600 0.000000
-17.749800 0.000000
-17.705000 0.000000
-17.660200 0.000000
-17.615500 0.000000
-17.570700 0.000000
-17.525900 0.000000
-17.481100 0.000000
-17.436300 0.000000
-17.391500 0.000000
-17.346800 0.000000
-17.302000 0.000000
-17.257200 0.000000
-17.212400 0.000000
-17.167600 0.000000
-17.122900 0.000000
-17.078100 0.000000
-17.033300 0.000000
-16.988500 0.000000
-16.943700 0.000000
-16.898900 0.000000
-16.854200 0.000000
-16.809400 0.000000
-16.764600 0.000000
-16.719800 0.000000
-16.675000 0.000000
-16.630200 0.000000
-16.585500 0.000000
-16.540700 0.000000
-16.495900 0.000000
-16.451100 0.000000
-16.406300 0.000000
-16.361500 0.000000
-16.316800 0.000000
-16.272000 0.000000
-16.227200 0.000000
-16.182400 0.000000
-16.137600 0.000000
-16.092900 0.000000
-16.048100 0.000000
-16.003300 0.000000
-15.958500 0.000000
-15.913700 0.000000
-15.868900 0.000000
-15.824200 0.000000
-15.779400 0.000000
-15.734600 0.000000
-15.689800 0.000000
-15.645000 0.000000
-15.600200 0.000000
-15.555500 0.000000
-15.510700 0.000000
-15.465900 0.000000
-15.421100 0.000000
-15.376300 0.000000
-15.331600 0.000000
-15.286800 0.000000
-15.242000 0.000000
-15.197200 0.000000
-15.152400 0.000000
-15.107600 0.000000
-15.062900 0.000000
-15.018100 0.000000
-14.973300 0.000000
-14.928500 0.000000
-14.883700 0.000000
-14.838900 0.000000
-14.794200 0.000000
-14.749400 0.000000
-14.704600 0.000000
-14.659800 0.000000
-14.615000 0.000000
-14.570300 0.000000
-14.525500 0.000000
-14.480700 0.000000
-14.435900 0.000000
-14.391100 0.000000
-14.346300 0.000000
-14.301600 0.000000
-14.256800 0.000000
-14.212000 0.000000
-14.167200 0.000000
-14.122400 0.000000
-14.077600 0.000000
-14.032900 0.000000
-13.988100 0.000000
-13.943300 0.000000
-13.898500 0.000000
-13.853700 0.000000
-13.808900 0.000000
-13.764200 0.000000
-13.719400 0.000000
-13.674600 0.000000
-13.629800 0.000000
-13.585000 0.000000
-13.540300 0.000000
-13.495500 0.000000
-13.450700 0.000000
-13.405900 0.000000
-13.361100 0.000000
-13.316300 0.000000
-13.271600 0.000000
-13.226800 0.000000
-13.182000 0.000000
-13.137200 0.000000
-13.092400 0.000000
-13.047600 0.000000
-13.002900 0.000000
-12.958100 0.000000
-12.913300 0.000000
-12.868500 0.000000
-12.823700 0.000000
-12.779000 0.000000
-12.734200 0.000000
-12.689400 0.000000
-12.644600 0.000000
-12.599800 0.000000
-12.555000 0.000000
-12.510300 0.000000
-12.465500 0.000000
-12.420700 0.000000
-12.375900 0.000000
-12.331100 0.000000
-12.286300 0.000000
-12.241600 0.000000
-12.196800 0.000000
-12.152000 0.000000
-12.107200 0.000000
-12.062400 0.000000
-12.017700 0.000000
-11.972900 0.000000
-11.928100 0.000000
-11.883300 0.000000
-11.838500 0.000000
-11.793700 0.000000
-11.749000 0.000000
-11.704200 0.000000
-11.659400 0.000000
-11.614600 0.000000
-11.569800 0.000000
-11.525000 0.000000
-11.480300 0.000000
-11.435500 0.000000
-11.390700 0.000000
-11.345900 0.000000
-11.301100 0.000000
-11.256300 0.000000
-11.211600 0.000000
-11.166800 0.000000
-11.122000 0.000000
-11.077200 0.000000
-11.032400 0.000000
-10.987700 0.000000
-10.942900 0.000000
-10.898100 0.000000
-10.853300 0.000000
-10.808500 0.000000
-10.763700 0.000000
-10.719000 0.000000
-10.674200 0.000000
-10.629400 0.000000
-10.584600 0.000000
-10.539800 0.000000
-10.495000 0.000000
-10.450300 0.000000
-10.405500 0.000000
-10.360700 0.000000
-10.315900 0.000000
-10.271100 0.000000
-10.226400 0.000000
-10.181600 0.000000
-10.136800 0.000000
-10.092000 0.000000
-10.047200 0.000000
-10.002400 0.000000
-9.957700 0.000000
-9.912900 0.000000
-9.868100 0.000000
-9.823300 0.000000
-9.778500 0.000000
-9.733700 0.000000
-9.689000 0.000000
-9.644200 0.000000
-9.599400 0.000000
-9.554600 0.000000
-9.509800 0.000000
-9.465100 0.000000
-9.420300 0.000000
-9.375500 0.000000
-9.330700 0.000000
-9.285900 0.000000
-9.241100 0.000000
-9.196400 0.000000
-9.151600 0.000000
-9.106800 0.000000
-9.062000 0.000000
-9.017200 0.000000
-8.972400 0.000000
-8.927700 0.000000
-8.882900 0.000000
-8.838100 0.000000
-8.793300 0.000000
-8.748500 0.000000
-8.703700 0.000000
-8.659000 0.000000
-8.614200 0.000000
-8.569400 0.000000
-8.524600 0.000000
-8.479800 0.000000
-8.435100 0.000000
-8.390300 0.000000
-8.345500 0.000000
-8.300700 0.000000
-8.255900 0.000000
-8.211100 0.000000
-8.166400 0.000000
-8.121600 0.000000
-8.076800 0.000000
-8.032000 0.000000
-7.987200 0.000000
-7.942400 0.000000
-7.897700 0.000000
-7.852900 0.000000
-7.808100 0.000000
-7.763300 0.000000
-7.718500 0.000000
-7.673800 0.000000
-7.629000 0.000000
-7.584200 0.000000
-7.539400 0.000000
-7.494600 0.000000
-7.449800 0.000000
-7.405100 0.000000
-7.360300 0.000000
-7.315500 0.000000
-7.270700 0.000000
-7.225900 0.000000
-7.181100 0.000000
-7.136400 0.000000
-7.091600 0.000000
-7.046800 0.000000
-7.002000 0.000000
-6.957200 0.000000
-6.912400 0.000000
-6.867700 0.000000
-6.822900 0.000000
-6.778100 0.000000
-6.733300 0.000000
-6.688500 0.000000
-6.643800 0.000000
-6.599000 0.000000
-6.554200 0.000000
-6.509400 0.000000
-6.464600 0.000000
-6.419800 0.000000
-6.375100 0.000000
-6.330300 0.000000
-6.285500 0.000000
-6.240700 0.000000
-6.195900 0.000000
-6.151100 0.000000
-6.106400 0.000000
-6.061600 0.000000
-6.016800 0.000000
-5.972000 0.000000
-5.927200 0.000000
-5.882500 0.000000
-5.837700 0.000000
-5.792900 0.000000
-5.748100 0.000000
-5.703300 0.000000
-5.658500 0.000000
-5.613800 0.000000
-5.569000 0.000000
-5.524200 0.000000
-5.479400 0.000000
-5.434600 0.000000
-5.389800 0.000000
-5.345100 0.000000
-5.300300 0.000000
-5.255500 0.000000
-5.210700 0.000000
-5.165900 0.000000
-5.121200 0.000000
-5.076400 0.000000
-5.031600 0.000000
-4.986800 0.000000
-4.942000 0.000000
-4.897200 0.000000
-4.852500 0.000000
-4.807700 0.000000
-4.762900 0.000000
-4.718100 0.000000
-4.673300 0.000000
-4.628500 0.000000
-4.583800 0.000000
-4.539000 0.000000
-4.494200 0.000000
-4.449400 0.000000
-4.404600 0.000000
-4.359800 0.000000
-4.315100 0.000000
-4.270300 0.000000
-4.225500 0.000000
-4.180700 0.000000
-4.135900 0.004300
-4.091200 0.028900
-4.046400 0.057800
-4.001600 0.065100
-3.956800 0.073900
-3.912000 0.087000
-3.867200 0.100500
-3.822500 0.112700
-3.777700 0.119400
-3.732900 0.127300
-3.688100 0.136700
-3.643300 0.146600
-3.598500 0.156700
-3.553800 0.166500
-3.509000 0.176900
-3.464200 0.188700
-3.419400 0.199700
-3.374600 0.210800
-3.329900 0.222300
-3.285100 0.234100
-3.240300 0.246100
-3.195500 0.260000
-3.150700 0.277200
-3.105900 0.303600
-3.061200 0.331200
-3.016400 0.361100
-2.971600 0.375300
-2.926800 0.383000
-2.882000 0.394000
-2.837200 0.402000
-2.792500 0.409900
-2.747700 0.419800
-2.702900 0.430300
-2.658100 0.441900
-2.613300 0.454300
-2.568600 0.467100
-2.523800 0.480600
-2.479000 0.495600
-2.434200 0.511500
-2.389400 0.530300
-2.344600 0.550400
-2.299900 0.570900
-2.255100 0.593300
-2.210300 0.616700
-2.165500 0.645000
-2.120700 0.682400
-2.075900 0.715400
-2.031200 0.752300
-1.986400 0.794400
-1.941600 0.855600
-1.896800 0.938100
-1.852000 1.036700
-1.807200 1.187200
-1.762500 1.331800
-1.717700 1.304700
-1.672900 1.341200
-1.628100 1.420300
-1.583300 1.465500
-1.538600 1.552800
-1.493800 1.751300
-1.449000 1.749400
-1.404200 1.819600
-1.359400 1.784700
-1.314600 1.688800
-1.269900 1.657000
-1.225100 1.647200
-1.180300 1.451700
-1.135500 1.365200
-1.090700 0.606200
-1.045900 0.187200
-1.001200 0.000000
-0.956400 0.000000
-0.911600 0.000000
-0.866800 0.000000
-0.822000 0.000000
-0.777300 0.000000
-0.732500 0.000000
-0.687700 0.000000
-0.642900 0.000000
-0.598100 0.000000
-0.553300 0.000000
-0.508600 0.000000
-0.463800 0.000000
-0.419000 0.000000
-0.374200 0.000000
-0.329400 0.003900
-0.284600 0.014800
-0.239900 0.027700
-0.195100 0.037000
-0.150300 0.045800
-0.105500 0.051700
-0.060700 0.057100
-0.015900 0.064000
0.028800 0.070600
0.073600 0.076200
0.118400 0.081600
0.163200 0.087200
0.208000 0.093100
0.252700 0.100100
0.297500 0.107500
0.342300 0.115100
0.387100 0.123000
0.431900 0.130400
0.476700 0.137600
0.521400 0.144800
0.566200 0.152600
0.611000 0.162100
0.655800 0.172100
0.700600 0.183700
0.745400 0.197000
0.790100 0.210700
0.834900 0.224900
0.879700 0.240500
0.924500 0.263800
0.969300 0.294100
1.014000 0.454200
1.058800 0.708900
1.103600 0.822800
1.148400 0.819000
1.193200 0.838000
1.238000 0.865900
1.282700 0.907800
1.327500 0.952800
1.372300 0.993200
1.417100 1.021000
1.461900 1.044700
1.506700 1.051100
1.551400 1.056700
1.596200 1.088900
1.641000 1.109000
1.685800 1.120400
1.730600 1.138200
1.775300 1.163500
1.820100 1.209000
1.864900 1.261700
1.909700 1.259800
1.954500 1.247000
1.999300 1.223800
2.044000 1.228100
2.088800 1.224600
2.133600 1.201600
2.178400 1.192200
2.223200 1.189600
2.268000 1.199800
2.312700 1.205000
2.357500 1.248900
2.402300 1.242100
2.447100 1.196300
2.491900 1.169800
2.536700 1.169100
2.581400 1.134800
2.626200 1.074700
2.671000 1.094900
2.715800 1.182200
2.760600 1.293300
2.805300 1.405600
2.850100 1.511700
2.894900 1.583600
2.939700 1.611100
2.984500 1.624300
3.029300 1.681700
3.074000 1.733700
3.118800 1.805300
3.163600 2.238800
3.208400 2.228300
3.253200 2.219600
3.298000 2.242600
3.342700 2.390500
3.387500 2.340800
3.432300 2.191300
3.477100 2.063300
3.521900 2.053700
3.566600 1.968900
3.611400 1.965700
3.656200 2.000900
3.701000 2.677600
3.745800 2.597800
3.790600 2.966600
3.835300 3.279400
3.880100 3.174900
3.924900 3.116000
3.969700 2.911800
4.014500 2.913900
4.059300 2.383800
4.104000 2.332400
4.148800 2.565500
4.193600 2.634400
4.238400 2.653500
4.283200 2.872200
4.327900 3.122500
4.372700 3.064400
4.417500 3.006500
4.462300 3.005600
4.507100 3.130900
4.551900 3.677100
4.596600 3.598500
4.641400 3.828200
4.686200 3.550100
4.731000 3.092300
4.775800 2.879500
4.820600 2.739700
4.865300 2.902500
4.910100 2.699500
4.954900 2.614800
4.999700 2.488800
5.044500 2.461900
5.089300 2.359100
5.134000 2.378400
5.178800 2.335400
5.223600 2.221500
5.268400 2.059000
5.313200 2.005100
5.357900 1.986100
5.402700 1.957400
5.447500 1.854200
5.492300 1.786500
5.537100 1.785300
5.581900 1.774500
5.626600 1.691100
5.671400 1.629900
5.716200 1.526600
5.761000 1.348500
5.805800 1.298500
5.850600 1.371400
5.895300 1.298200
5.940100 1.027400
5.984900 0.924100
6.029700 0.842000
6.074500 0.799000
6.119200 0.763300
6.164000 0.732600
6.208800 0.691500
6.253600 0.683300
6.298400 0.677000
6.343200 0.652800
6.387900 0.663600
6.432700 0.675000
6.477500 0.708200
6.522300 0.781400
6.567100 0.867900
6.611900 0.948700
6.656600 1.092500
6.701400 1.186000
6.746200 1.247800
6.791000 1.342600
6.835800 1.431400
6.880600 1.444700
6.925300 1.532400
6.970100 1.614600
7.014900 1.779400
7.059700 1.848400
7.104500 1.986100
7.149200 2.154200
7.194000 1.949700
7.238800 1.816800
7.283600 1.851200
7.328400 1.908900
7.373200 1.977000
7.417900 2.078900
7.462700 2.189800
7.507500 2.405500
7.552300 2.504900
7.597100 2.558300
7.641900 2.586600
7.686600 2.473600
7.731400 2.404200
7.776200 2.321300
7.821000 2.161600
7.865800 2.044700
7.910500 2.032400
7.955300 1.986400
8.000100 1.983100
8.044900 1.951100
8.089700 1.848500
8.134500 1.665100
8.179200 1.626600
8.224000 1.593800
8.268800 1.643800
8.313600 1.723800
8.358400 1.775500
8.403200 1.903700
8.447900 2.010900
8.492700 2.327200
8.537500 2.642100
8.582300 2.728800
8.627100 2.691700
8.671800 2.667800
8.716600 2.703300
8.761400 2.654500
8.806200 2.624000
8.851000 2.585200
8.895800 2.468100
8.940500 2.396700
8.985300 2.258800
9.030100 2.077800
9.074900 1.922300
9.119700 1.893900
9.164500 1.753200
9.209200 1.763600
9.254000 1.767600
9.298800 1.774300
9.343600 1.758700
9.388400 1.769000
9.433200 1.783500
9.477900 1.820000
9.522700 1.845600
9.567500 1.856500
9.612300 1.895800
9.657100 1.832200
9.701800 1.816400
9.746600 1.880400
9.791400 1.959100
9.836200 2.035800
9.881000 2.144700
9.925800 2.297300
9.970500 2.516400
10.015300 2.617200
10.060100 2.623600
10.104900 2.693400
10.149700 2.815000
10.194500 2.991300
10.239200 3.297300
10.284000 3.712700
10.328800 3.456400
10.373600 3.277400
10.418400 3.021900
10.463100 2.776600
10.507900 2.720600
10.552700 2.185900
10.597500 2.128500
10.642300 2.071500
10.687100 1.872700
10.731800 1.855000
10.776600 1.745400
10.821400 1.615900
10.866200 1.483700
10.911000 1.406000
10.955800 1.349400
11.000500 1.295500
11.045300 1.256500
11.090100 1.230900
11.134900 1.209600
11.179700 1.195900
11.224400 1.185500
11.269200 1.160500
11.314000 1.150100
11.358800 1.161200
11.403600 1.191200
11.448400 1.177200
11.493100 1.158300
11.537900 1.101700
11.582700 1.031000
11.627500 1.008400
11.672300 1.023900
11.717100 1.051800
11.761800 1.086100
11.806600 1.149100
11.851400 1.257700
11.896200 1.402600
11.941000 1.393800
11.985800 1.283500
12.030500 1.213800
12.075300 1.111400
12.120100 1.061100
12.164900 1.018500
12.209700 0.967500
12.254400 0.906800
12.299200 0.862000
12.344000 0.878800
12.388800 0.930700
12.433600 0.957800
12.478400 1.004800
12.523100 1.034600
12.567900 1.061200
12.612700 1.100000
12.657500 1.158300
12.702300 1.166800
12.747100 1.189500
12.791800 1.263600
