set title 'mp-1183635 - Density of States'
set xlabel 'Energy (eV)'
set ylabel 'DOS (states/eV)'
set grid
set xrange [-10:10]
set yrange [0:41.265]
set xzeroaxis lt -1
set terminal png size 800,600
set output 'mp-1183635_dos_gnuplot.png'
plot '-' using 1:2 with lines title 'DOS'
-8.268500 0.000000
-8.249200 0.000000
-8.229900 0.000000
-8.210600 0.000000
-8.191300 0.000000
-8.172000 0.000000
-8.152700 0.000000
-8.133400 0.000000
-8.114100 0.000000
-8.094800 0.000000
-8.075500 0.000000
-8.056200 0.000000
-8.036900 0.000000
-8.017600 0.000000
-7.998300 0.000000
-7.979000 0.000000
-7.959700 0.000000
-7.940400 0.000000
-7.921100 0.000000
-7.901800 0.000000
-7.882500 0.000000
-7.863200 0.000000
-7.843900 0.000000
-7.824600 0.000000
-7.805300 0.000000
-7.786000 0.000000
-7.766700 0.000000
-7.747400 0.000000
-7.728100 0.000000
-7.708800 0.000000
-7.689500 0.000000
-7.670200 0.000000
-7.650900 0.000000
-7.631600 0.000000
-7.612200 0.000000
-7.592900 0.000000
-7.573600 0.000000
-7.554300 0.000000
-7.535000 0.000000
-7.515700 0.000000
-7.496400 0.000000
-7.477100 0.000000
-7.457800 0.000000
-7.438500 0.000000
-7.419200 0.000000
-7.399900 0.000000
-7.380600 0.000000
-7.361300 0.000000
-7.342000 0.000000
-7.322700 0.000000
-7.303400 0.000000
-7.284100 0.000000
-7.264800 0.000000
-7.245500 0.000000
-7.226200 0.000000
-7.206900 0.000000
-7.187600 0.000000
-7.168300 0.000000
-7.149000 0.000000
-7.129700 0.000000
-7.110400 0.000000
-7.091100 0.000000
-7.071800 0.000000
-7.052500 0.000000
-7.033200 0.000000
-7.013900 0.000000
-6.994600 0.000000
-6.975300 0.000000
-6.956000 0.000000
-6.936700 0.000000
-6.917400 0.000000
-6.898100 0.000000
-6.878800 0.000000
-6.859500 0.000000
-6.840200 0.000000
-6.820900 0.000000
-6.801600 0.000000
-6.782300 0.000000
-6.763000 0.000000
-6.743700 0.000000
-6.724400 0.000000
-6.705100 0.000000
-6.685800 0.000000
-6.666500 0.000000
-6.647200 0.000000
-6.627900 0.000000
-6.608600 0.000000
-6.589300 0.000000
-6.570000 0.000000
-6.550700 0.000000
-6.531400 0.000000
-6.512100 0.016500
-6.492800 0.544900
-6.473500 1.564600
-6.454200 1.999400
-6.434900 2.599400
-6.415600 3.665300
-6.396300 3.903600
-6.377000 4.391700
-6.357700 4.870100
-6.338400 4.903300
-6.319100 5.634600
-6.299800 6.468100
-6.280500 7.661500
-6.261200 8.831200
-6.241900 11.649200
-6.222600 14.354000
-6.203300 16.237500
-6.184000 16.487800
-6.164600 16.544600
-6.145300 19.681900
-6.126000 20.401800
-6.106700 22.058900
-6.087400 21.152100
-6.068100 21.236900
-6.048800 20.540900
-6.029500 19.664300
-6.010200 16.625200
-5.990900 15.792700
-5.971600 14.962900
-5.952300 15.745800
-5.933000 17.875700
-5.913700 17.681000
-5.894400 16.961300
-5.875100 17.964400
-5.855800 17.108600
-5.836500 16.027000
-5.817200 18.403600
-5.797900 31.777700
-5.778600 24.623000
-5.759300 16.360200
-5.740000 15.559200
-5.720700 17.975100
-5.701400 19.045000
-5.682100 18.219400
-5.662800 16.224200
-5.643500 18.245200
-5.624200 33.641000
-5.604900 18.693600
-5.585600 13.817100
-5.566300 14.026600
-5.547000 16.809900
-5.527700 20.254100
-5.508400 22.157400
-5.489100 23.020700
-5.469800 18.493700
-5.450500 18.799400
-5.431200 21.207300
-5.411900 28.733500
-5.392600 31.285200
-5.373300 21.554400
-5.354000 25.850300
-5.334700 26.521600
-5.315400 27.349100
-5.296100 22.317600
-5.276800 21.742400
-5.257500 31.403000
-5.238200 37.513700
-5.218900 30.835700
-5.199600 17.401800
-5.180300 17.353200
-5.161000 20.705700
-5.141700 19.858400
-5.122400 21.882000
-5.103100 20.794700
-5.083800 17.879800
-5.064500 17.091600
-5.045200 16.771800
-5.025900 17.197100
-5.006600 16.473100
-4.987300 14.900700
-4.968000 14.422400
-4.948700 14.824100
-4.929400 12.356700
-4.910100 19.005800
-4.890800 22.456800
-4.871500 18.256200
-4.852200 14.755200
-4.832900 12.348000
-4.813600 11.276000
-4.794300 10.948200
-4.775000 6.027500
-4.755700 3.712500
-4.736400 1.742600
-4.717000 1.581000
-4.697700 1.434000
-4.678400 1.316100
-4.659100 1.502400
-4.639800 1.991500
-4.620500 1.625100
-4.601200 0.929400
-4.581900 0.417200
-4.562600 0.381900
-4.543300 0.377100
-4.524000 0.374700
-4.504700 0.373100
-4.485400 0.373000
-4.466100 0.374700
-4.446800 0.378000
-4.427500 0.382400
-4.408200 0.386600
-4.388900 0.388300
-4.369600 0.390300
-4.350300 0.391800
-4.331000 0.392200
-4.311700 0.392000
-4.292400 0.392900
-4.273100 0.394100
-4.253800 0.396600
-4.234500 0.399500
-4.215200 0.402800
-4.195900 0.406500
-4.176600 0.410500
-4.157300 0.414500
-4.138000 0.418500
-4.118700 0.422500
-4.099400 0.426500
-4.080100 0.430500
-4.060800 0.435500
-4.041500 0.440100
-4.022200 0.444800
-4.002900 0.449700
-3.983600 0.454700
-3.964300 0.459900
-3.945000 0.465200
-3.925700 0.470600
-3.906400 0.475900
-3.887100 0.481400
-3.867800 0.485700
-3.848500 0.490800
-3.829200 0.495800
-3.809900 0.500300
-3.790600 0.504200
-3.771300 0.507500
-3.752000 0.510700
-3.732700 0.514300
-3.713400 0.518200
-3.694100 0.522000
-3.674800 0.525800
-3.655500 0.530100
-3.636200 0.534700
-3.616900 0.539400
-3.597600 0.544300
-3.578300 0.549300
-3.559000 0.554500
-3.539700 0.559800
-3.520400 0.565200
-3.501100 0.570600
-3.481800 0.576200
-3.462500 0.581800
-3.443200 0.589300
-3.423900 0.598100
-3.404600 0.606300
-3.385300 0.613800
-3.366000 0.620800
-3.346700 0.627400
-3.327400 0.634500
-3.308100 0.641400
-3.288800 0.650300
-3.269400 0.665200
-3.250100 0.674800
-3.230800 0.679100
-3.211500 0.677900
-3.192200 0.673800
-3.172900 0.674800
-3.153600 0.673500
-3.134300 0.672000
-3.115000 0.672600
-3.095700 0.674200
-3.076400 0.675100
-3.057100 0.675700
-3.037800 0.676500
-3.018500 0.677300
-2.999200 0.678200
-2.979900 0.679200
-2.960600 0.680400
-2.941300 0.682200
-2.922000 0.684400
-2.902700 0.693500
-2.883400 0.700600
-2.864100 0.705300
-2.844800 0.707800
-2.825500 0.710700
-2.806200 0.714000
-2.786900 0.717600
-2.767600 0.721600
-2.748300 0.727600
-2.729000 0.738900
-2.709700 0.752900
-2.690400 0.760600
-2.671100 0.768800
-2.651800 0.777300
-2.632500 0.785200
-2.613200 0.793800
-2.593900 0.807500
-2.574600 0.819900
-2.555300 0.830800
-2.536000 0.840200
-2.516700 0.848200
-2.497400 0.854200
-2.478100 0.858600
-2.458800 0.860300
-2.439500 0.851200
-2.420200 0.848800
-2.400900 0.853100
-2.381600 0.861100
-2.362300 0.869300
-2.343000 0.880100
-2.323700 0.902500
-2.304400 0.929900
-2.285100 0.950500
-2.265800 0.964300
-2.246500 0.971300
-2.227200 0.973700
-2.207900 0.969100
-2.188600 0.949300
-2.169300 0.878400
-2.150000 0.826900
-2.130700 0.806200
-2.111400 0.797400
-2.092100 0.790200
-2.072800 0.781200
-2.053500 0.770600
-2.034200 0.753100
-2.014900 0.740700
-1.995600 0.746000
-1.976300 0.782800
-1.957000 0.806500
-1.937700 0.828800
-1.918400 0.855000
-1.899100 0.884800
-1.879800 0.918400
-1.860500 0.956300
-1.841200 0.997400
-1.821800 1.053200
-1.802500 1.109200
-1.783200 1.147800
-1.763900 1.181400
-1.744600 1.220600
-1.725300 1.246000
-1.706000 1.272700
-1.686700 1.301600
-1.667400 1.339100
-1.648100 1.386300
-1.628800 1.434800
-1.609500 1.477300
-1.590200 1.521700
-1.570900 1.568800
-1.551600 1.628300
-1.532300 1.735600
-1.513000 1.774000
-1.493700 1.737200
-1.474400 1.603000
-1.455100 1.516600
-1.435800 1.426900
-1.416500 1.313100
-1.397200 1.173600
-1.377900 1.145800
-1.358600 1.149800
-1.339300 1.195900
-1.320000 1.246600
-1.300700 1.343100
-1.281400 1.353800
-1.262100 1.373900
-1.242800 1.380900
-1.223500 1.375100
-1.204200 1.353300
-1.184900 1.331200
-1.165600 1.287200
-1.146300 1.275700
-1.127000 1.278500
-1.107700 1.282000
-1.088400 1.286000
-1.069100 1.290600
-1.049800 1.295900
-1.030500 1.302600
-1.011200 1.311300
-0.991900 1.317400
-0.972600 1.328900
-0.953300 1.339400
-0.934000 1.360300
-0.914700 1.371300
-0.895400 1.380700
-0.876100 1.390600
-0.856800 1.401300
-0.837500 1.393600
-0.818200 1.404000
-0.798900 1.416900
-0.779600 1.431300
-0.760300 1.447100
-0.741000 1.464500
-0.721700 1.482600
-0.702400 1.502400
-0.683100 1.522600
-0.663800 1.542500
-0.644500 1.562000
-0.625200 1.581400
-0.605900 1.622900
-0.586600 1.664100
-0.567300 1.685600
-0.548000 1.714700
-0.528700 1.746900
-0.509400 1.825700
-0.490100 1.860400
-0.470800 1.893700
-0.451500 1.917900
-0.432200 1.952400
-0.412900 2.098900
-0.393500 2.205100
-0.374200 2.291200
-0.354900 2.385700
-0.335600 2.485700
-0.316300 2.601500
-0.297000 2.674900
-0.277700 2.616000
-0.258400 2.577000
-0.239100 2.637900
-0.219800 2.817300
-0.200500 3.143800
-0.181200 3.947800
-0.161900 5.236800
-0.142600 6.335600
-0.123300 6.868000
-0.104000 6.889000
-0.084700 7.162700
-0.065400 5.423000
-0.046100 4.492800
-0.026800 3.772900
-0.007500 3.763700
0.011800 3.535100
0.031100 5.062700
0.050400 8.211100
0.069700 13.979800
0.089000 13.664400
0.108300 12.468400
0.127600 12.091300
0.146900 10.201300
0.166200 8.887700
0.185500 8.329900
0.204800 7.933300
0.224100 8.375500
0.243400 8.702000
0.262700 8.326800
0.282000 8.629300
0.301300 10.811600
0.320600 13.926800
0.339900 17.826400
0.359200 14.214200
0.378500 17.779100
0.397800 13.852400
0.417100 13.822200
0.436400 14.687800
0.455700 13.176800
0.475000 11.544300
0.494300 10.867900
0.513600 10.309900
0.532900 7.955500
0.552200 5.576100
0.571500 4.223700
0.590800 3.724500
0.610100 2.606600
0.629400 2.734300
0.648700 2.890500
0.668000 2.979400
0.687300 2.731000
0.706600 2.495200
0.725900 1.966100
0.745200 1.559600
0.764500 1.299600
0.783800 1.146800
0.803100 1.034500
0.822400 0.966700
0.841700 0.968500
0.861000 1.000000
0.880300 1.030900
0.899600 1.069200
0.918900 1.182700
0.938200 2.952100
0.957500 3.171600
0.976800 3.230700
0.996100 3.231800
1.015400 2.987000
1.034700 2.875900
1.054100 2.780200
1.073400 2.703200
1.092700 2.631700
1.112000 2.545400
1.131300 2.458200
1.150600 2.431100
1.169900 2.284100
1.189200 2.197800
1.208500 2.158700
1.227800 2.122300
1.247100 2.082400
1.266400 2.038300
1.285700 1.973700
1.305000 1.899600
1.324300 1.822800
1.343600 1.748900
1.362900 1.688600
1.382200 1.635400
1.401500 1.593600
1.420800 1.558800
1.440100 1.527200
1.459400 1.498700
1.478700 1.470600
1.498000 1.445100
1.517300 1.422600
1.536600 1.338500
1.555900 1.327000
1.575200 1.322200
1.594500 1.328000
1.613800 1.327000
1.633100 1.324900
1.652400 1.320900
1.671700 1.304500
1.691000 1.285400
1.710300 1.269300
1.729600 1.259900
1.748900 1.252100
1.768200 1.245100
1.787500 1.248800
1.806800 1.254900
1.826100 1.282200
1.845400 1.310900
1.864700 1.347700
1.884000 1.393100
1.903300 1.417100
1.922600 1.420100
1.941900 1.430800
1.961200 1.392500
1.980500 1.388100
1.999800 1.381800
2.019100 1.373100
2.038400 1.363400
2.057700 1.358400
2.077000 1.351600
2.096300 1.367500
2.115600 1.393200
2.134900 1.406400
2.154200 1.425000
2.173500 1.447900
2.192800 1.472700
2.212100 1.464200
2.231400 1.483900
2.250700 1.488500
2.270000 1.511000
2.289300 1.602000
2.308600 1.608600
2.327900 1.608100
2.347200 1.604500
2.366500 1.601500
2.385800 1.602300
2.405100 1.586000
2.424400 1.577200
2.443700 1.567500
2.463000 1.560500
2.482300 1.519200
2.501700 1.493900
2.521000 1.500000
2.540300 1.504800
2.559600 1.506900
2.578900 1.506300
2.598200 1.503000
2.617500 1.504900
2.636800 1.521400
2.656100 1.478900
2.675400 1.461700
2.694700 1.445200
2.714000 1.429300
2.733300 1.419700
2.752600 1.405700
2.771900 1.396600
2.791200 1.392900
2.810500 1.387800
2.829800 1.381800
2.849100 1.374400
2.868400 1.365800
2.887700 1.367700
2.907000 1.364900
2.926300 1.360200
2.945600 1.355500
2.964900 1.350700
2.984200 1.345900
3.003500 1.341000
3.022800 1.336600
3.042100 1.320700
3.061400 1.338900
3.080700 1.440500
3.100000 1.424600
3.119300 1.332500
3.138600 1.217800
3.157900 1.198300
3.177200 1.203800
3.196500 1.133200
3.215800 1.030900
3.235100 0.981000
3.254400 0.943300
3.273700 0.902400
3.293000 0.836900
3.312300 0.819300
3.331600 0.806300
3.350900 0.797100
3.370200 0.789200
3.389500 0.782200
3.408800 0.776900
3.428100 0.773400
3.447400 0.770600
3.466700 0.768500
3.486000 0.767700
3.505300 0.768500
3.524600 0.770700
3.543900 0.773600
3.563200 0.777000
3.582500 0.781100
3.601800 0.786800
3.621100 0.791400
3.640400 0.795200
3.659700 0.798300
3.679000 0.801100
3.698300 0.804100
3.717600 0.807200
3.736900 0.810500
3.756200 0.812500
3.775500 0.812400
3.794800 0.813200
3.814100 0.813700
3.833400 0.815300
3.852700 0.821400
3.872000 0.832800
3.891300 0.849000
3.910600 0.875800
3.929900 0.910000
3.949300 0.952400
3.968600 1.007400
3.987900 1.078300
4.007200 1.130200
4.026500 1.190200
4.045800 1.241800
4.065100 1.283100
4.084400 1.321900
4.103700 1.354800
4.123000 1.382500
4.142300 1.406500
4.161600 1.410500
4.180900 1.439300
4.200200 1.506000
4.219500 1.587000
4.238800 1.639700
4.258100 1.673200
4.277400 1.687200
4.296700 1.661300
4.316000 1.575900
4.335300 1.521000
4.354600 1.524300
4.373900 1.533900
4.393200 1.497300
4.412500 1.490200
4.431800 1.487700
4.451100 1.490100
4.470400 1.497400
4.489700 1.507500
4.509000 1.518800
4.528300 1.531400
4.547600 1.538700
4.566900 1.495300
4.586200 1.444100
4.605500 1.387600
4.624800 1.356400
4.644100 1.330000
4.663400 1.307800
4.682700 1.287800
4.702000 1.269600
4.721300 1.253300
4.740600 1.238900
4.759900 1.226000
4.779200 1.214000
4.798500 1.203000
4.817800 1.193100
4.837100 1.185900
4.856400 1.207600
4.875700 1.296800
4.895000 1.328000
4.914300 1.350300
4.933600 1.363000
4.952900 1.243400
4.972200 1.228200
4.991500 1.215900
5.010800 1.209300
5.030100 1.205200
5.049400 1.207800
5.068700 1.213400
5.088000 1.220900
5.107300 1.239300
5.126600 1.264300
5.145900 1.296000
5.165200 1.334200
5.184500 1.378700
5.203800 1.433300
5.223100 1.465600
5.242400 1.484300
5.261700 1.494100
5.281000 1.496200
5.300300 1.467000
5.319600 1.458700
5.338900 1.451200
5.358200 1.468600
5.377500 1.450100
5.396900 1.431400
5.416200 1.413200
5.435500 1.394900
5.454800 1.375100
5.474100 1.353800
5.493400 1.334300
5.512700 1.303900
5.532000 1.289700
5.551300 1.276100
5.570600 1.262900
5.589900 1.255000
5.609200 1.247900
5.628500 1.241600
5.647800 1.236200
5.667100 1.231700
5.686400 1.228200
5.705700 1.224300
5.725000 1.221800
5.744300 1.261000
5.763600 1.261800
5.782900 1.256400
5.802200 1.258300
5.821500 1.256400
5.840800 1.252800
5.860100 1.255700
5.879400 1.252100
5.898700 1.256800
5.918000 1.263100
5.937300 1.271700
5.956600 1.278900
5.975900 1.284200
5.995200 1.287100
6.014500 1.294900
6.033800 1.272100
6.053100 1.279700
6.072400 1.294700
6.091700 1.310600
6.111000 1.323200
6.130300 1.335300
6.149600 1.347300
6.168900 1.359800
6.188200 1.371700
6.207500 1.382400
6.226800 1.391800
6.246100 1.410800
6.265400 1.389100
6.284700 1.389700
6.304000 1.390000
6.323300 1.389900
6.342600 1.389900
6.361900 1.390700
6.381200 1.391700
6.400500 1.392400
6.419800 1.393900
6.439100 1.397600
6.458400 1.406100
6.477700 1.417300
6.497000 1.427300
6.516300 1.450400
6.535600 1.434100
6.554900 1.420500
6.574200 1.409700
6.593500 1.401400
6.612800 1.394000
6.632100 1.389900
6.651400 1.394000
6.670700 1.392100
6.690000 1.391200
6.709300 1.390200
6.728600 1.391300
6.747900 1.393400
6.767200 1.391700
6.786500 1.389500
6.805800 1.387700
6.825200 1.393100
6.844500 1.390900
6.863800 1.389600
6.883100 1.389000
6.902400 1.388600
6.921700 1.388100
6.941000 1.387500
6.960300 1.386600
6.979600 1.367800
6.998900 1.358300
7.018200 1.346400
7.037500 1.327800
7.056800 1.317700
7.076100 1.314900
7.095400 1.317300
7.114700 1.335000
7.134000 1.357700
7.153300 1.360400
7.172600 1.370700
7.191900 1.380300
7.211200 1.388300
7.230500 1.394900
7.249800 1.402800
7.269100 1.416200
7.288400 1.429900
7.307700 1.443400
7.327000 1.456200
7.346300 1.468800
7.365600 1.481400
7.384900 1.494300
7.404200 1.507300
7.423500 1.518400
7.442800 1.523100
7.462100 1.568000
7.481400 1.577500
7.500700 1.580200
7.520000 1.582600
7.539300 1.585000
7.558600 1.587100
7.577900 1.593600
7.597200 1.595900
7.616500 1.595400
7.635800 1.584700
7.655100 1.583700
7.674400 1.577400
7.693700 1.575400
7.713000 1.573200
7.732300 1.570800
7.751600 1.569000
7.770900 1.568500
7.790200 1.567100
7.809500 1.564700
7.828800 1.562500
7.848100 1.561900
7.867400 1.562500
7.886700 1.564100
7.906000 1.563900
7.925300 1.569800
7.944600 1.583100
7.963900 1.605200
7.983200 1.636400
8.002500 1.658900
8.021800 1.654900
8.041100 1.655800
8.060400 1.658100
8.079700 1.660200
8.099000 1.662400
8.118300 1.665200
8.137600 1.667600
8.156900 1.672100
8.176200 1.681300
8.195500 1.689700
8.214800 1.694600
8.234100 1.696200
8.253400 1.695000
8.272800 1.690700
8.292100 1.685200
8.311400 1.679100
8.330700 1.672500
8.350000 1.665700
8.369300 1.667200
8.388600 1.680200
8.407900 1.699000
8.427200 1.653300
8.446500 1.649500
8.465800 1.708300
8.485100 1.693100
8.504400 1.698700
8.523700 1.729300
8.543000 1.765600
8.562300 1.804700
8.581600 1.840800
8.600900 1.866600
8.620200 1.878000
8.639500 1.877600
8.658800 1.874200
8.678100 1.872900
8.697400 1.871100
8.716700 1.868700
8.736000 1.866900
8.755300 1.851900
8.774600 1.845300
8.793900 1.839700
8.813200 1.832700
8.832500 1.829600
8.851800 1.825300
8.871100 1.820900
8.890400 1.815800
8.909700 1.897700
8.929000 1.844800
8.948300 1.812200
8.967600 1.812900
8.986900 1.826700
9.006200 1.827400
9.025500 1.815500
9.044800 1.799500
9.064100 1.806400
9.083400 1.841200
9.102700 1.867100
9.122000 1.869600
9.141300 1.864300
9.160600 1.858400
9.179900 1.842700
9.199200 1.815100
9.218500 1.774100
9.237800 1.726700
9.257100 1.674900
9.276400 1.638400
9.295700 1.602400
9.315000 1.566600
9.334300 1.527500
9.353600 1.485900
9.372900 1.459800
9.392200 1.441500
9.411500 1.423900
9.430800 1.407300
9.450100 1.392400
9.469400 1.379200
9.488700 1.367400
9.508000 1.355800
9.527300 1.344400
9.546600 1.333900
9.565900 1.328100
9.585200 1.327800
9.604500 1.334800
9.623800 1.351900
9.643100 1.383300
9.662400 1.431700
9.681700 1.487100
9.701000 1.525700
9.720400 1.564800
9.739700 1.580200
9.759000 1.531600
9.778300 1.524900
9.797600 1.526400
9.816900 1.536200
9.836200 1.556100
9.855500 1.582600
9.874800 1.614300
9.894100 1.654400
9.913400 1.653600
9.932700 1.682500
9.952000 1.717900
9.971300 1.749400
9.990600 1.781100
10.009900 1.811800
10.029200 1.763400
10.048500 1.758900
10.067800 1.764100
10.087100 1.763700
10.106400 1.761700
10.125700 1.762100
10.145000 1.764900
10.164300 1.776800
10.183600 1.777800
10.202900 1.786900
10.222200 1.859400
10.241500 1.989800
10.260800 2.015800
10.280100 1.964000
10.299400 1.972300
10.318700 1.977900
10.338000 1.977400
10.357300 1.970800
10.376600 1.950000
10.395900 1.948500
10.415200 1.963700
10.434500 1.988700
10.453800 2.009600
10.473100 2.028100
10.492400 2.011200
10.511700 1.971500
10.531000 1.944000
10.550300 1.959800
10.569600 1.943800
10.588900 1.932700
10.608200 1.928100
10.627500 1.921900
10.646800 1.926500
10.666100 1.920500
10.685400 1.930200
10.704700 1.982700
10.724000 2.085800
10.743300 2.107400
10.762600 2.164900
10.781900 2.212900
10.801200 2.240000
10.820500 2.234700
10.839800 2.227500
10.859100 2.212200
10.878400 2.190900
10.897700 2.196800
10.917000 2.203200
10.936300 2.208800
10.955600 2.220900
10.974900 2.232700
10.994200 2.234200
11.013500 2.231800
11.032800 2.228600
11.052100 2.226300
11.071400 2.222900
11.090700 2.221100
11.110000 2.222900
11.129300 2.229200
11.148600 2.241200
11.168000 2.225000
11.187300 2.201700
11.206600 2.207100
11.225900 2.214200
11.245200 2.253500
11.264500 2.356200
11.283800 2.204700
11.303100 2.168100
11.322400 2.175700
11.341700 2.164200
11.361000 2.143300
11.380300 2.129600
11.399600 2.124000
11.418900 2.120500
11.438200 2.119900
11.457500 2.123000
11.476800 2.129400
11.496100 2.166900
11.515400 2.350200
11.534700 2.505200
11.554000 2.255400
11.573300 2.257400
11.592600 2.269300
11.611900 2.278700
11.631200 2.251500
11.650500 2.220100
11.669800 2.182500
11.689100 2.132400
11.708400 2.077200
11.727700 2.034000
11.747000 1.999200
11.766300 1.968100
11.785600 1.944300
11.804900 1.945000
11.824200 1.929500
11.843500 1.906000
11.862800 1.875200
11.882100 1.874300
11.901400 1.875000
11.920700 1.879300
11.940000 1.887400
11.959300 1.899400
11.978600 2.116100
11.997900 2.026400
12.017200 2.041200
12.036500 2.042800
12.055800 2.031600
12.075100 2.038100
12.094400 2.047200
12.113700 2.060200
12.133000 2.085800
12.152300 2.066900
12.171600 2.064600
