set title 'mp-1187550 - Density of States'
set xlabel 'Energy (eV)'
set ylabel 'DOS (states/eV)'
set grid
set xrange [-10:10]
set yrange [0:66.963]
set xzeroaxis lt -1
set terminal png size 800,600
set output 'mp-1187550_dos_gnuplot.png'
plot '-' using 1:2 with lines title 'DOS'
-7.307900 0.000000
-7.290800 0.000000
-7.273800 0.000000
-7.256700 0.000000
-7.239700 0.000000
-7.222600 0.000000
-7.205600 0.000000
-7.188500 0.000000
-7.171500 0.000000
-7.154400 0.000000
-7.137400 0.000000
-7.120300 0.000000
-7.103300 0.000000
-7.086300 0.000000
-7.069200 0.000000
-7.052200 0.000000
-7.035100 0.000000
-7.018100 0.000000
-7.001000 0.000000
-6.984000 0.000000
-6.966900 0.000000
-6.949900 0.000000
-6.932800 0.000000
-6.915800 0.000000
-6.898800 0.000000
-6.881700 0.000000
-6.864700 0.000000
-6.847600 0.000000
-6.830600 0.000000
-6.813500 0.000000
-6.796500 0.000000
-6.779400 0.000000
-6.762400 0.000000
-6.745300 0.000000
-6.728300 0.000000
-6.711200 0.000000
-6.694200 0.000000
-6.677200 0.000000
-6.660100 0.000000
-6.643100 0.000000
-6.626000 0.000000
-6.609000 0.000000
-6.591900 0.000000
-6.574900 0.000000
-6.557800 0.000000
-6.540800 0.000000
-6.523700 0.000000
-6.506700 0.000000
-6.489600 0.000000
-6.472600 0.000000
-6.455600 0.000000
-6.438500 0.000000
-6.421500 0.000000
-6.404400 0.000000
-6.387400 0.000000
-6.370300 0.000000
-6.353300 0.000000
-6.336200 0.000000
-6.319200 0.000000
-6.302100 0.000000
-6.285100 0.000000
-6.268100 0.000000
-6.251000 0.000000
-6.234000 0.000000
-6.216900 0.000000
-6.199900 0.000000
-6.182800 0.000000
-6.165800 0.000000
-6.148700 0.000000
-6.131700 0.000000
-6.114600 0.000000
-6.097600 0.000000
-6.080500 0.000000
-6.063500 0.000000
-6.046500 0.000000
-6.029400 0.000000
-6.012400 0.000000
-5.995300 0.000000
-5.978300 0.000000
-5.961200 0.000000
-5.944200 0.000000
-5.927100 0.000000
-5.910100 0.000000
-5.893000 0.000400
-5.876000 0.002900
-5.858900 0.017100
-5.841900 0.081600
-5.824900 0.320100
-5.807800 1.034000
-5.790800 2.769300
-5.773700 6.200900
-5.756700 11.740500
-5.739600 19.096300
-5.722600 27.286100
-5.705500 35.243200
-5.688500 42.340700
-5.671400 48.100300
-5.654400 51.546100
-5.637400 51.479900
-5.620300 47.741300
-5.603300 41.831000
-5.586200 35.899600
-5.569200 31.230900
-5.552100 27.781300
-5.535100 24.811000
-5.518000 21.655300
-5.501000 18.096600
-5.483900 14.399200
-5.466900 11.160700
-5.449800 9.090900
-5.432800 8.814800
-5.415800 10.684600
-5.398700 14.569700
-5.381700 19.783500
-5.364600 25.373300
-5.347600 30.664400
-5.330500 35.609800
-5.313500 40.649800
-5.296400 46.214200
-5.279400 52.165100
-5.262300 57.489600
-5.245300 60.677600
-5.228200 60.875900
-5.211200 58.844300
-5.194200 56.410300
-5.177100 54.703700
-5.160100 53.187900
-5.143000 50.701100
-5.126000 47.142000
-5.108900 43.689400
-5.091900 41.551600
-5.074800 40.979300
-5.057800 41.392600
-5.040700 41.908900
-5.023700 41.563500
-5.006700 39.382100
-4.989600 34.696900
-4.972600 27.662600
-4.955500 19.475500
-4.938500 11.869400
-4.921400 6.168100
-4.904400 2.703100
-4.887300 0.990800
-4.870300 0.301800
-4.853200 0.076000
-4.836200 0.015700
-4.819100 0.002700
-4.802100 0.000400
-4.785100 0.000000
-4.768000 0.000000
-4.751000 0.000000
-4.733900 0.000000
-4.716900 0.000000
-4.699800 0.000000
-4.682800 0.000000
-4.665700 0.000000
-4.648700 0.000000
-4.631600 0.000000
-4.614600 0.000000
-4.597500 0.000000
-4.580500 0.000000
-4.563500 0.000000
-4.546400 0.000000
-4.529400 0.000000
-4.512300 0.000000
-4.495300 0.000000
-4.478200 0.000000
-4.461200 0.000000
-4.444100 0.000000
-4.427100 0.000000
-4.410000 0.000000
-4.393000 0.000000
-4.376000 0.000000
-4.358900 0.000000
-4.341900 0.000000
-4.324800 0.000000
-4.307800 0.000000
-4.290700 0.000000
-4.273700 0.000000
-4.256600 0.000000
-4.239600 0.000000
-4.222500 0.000000
-4.205500 0.000000
-4.188400 0.000000
-4.171400 0.000000
-4.154400 0.000000
-4.137300 0.000000
-4.120300 0.000000
-4.103200 0.000000
-4.086200 0.000000
-4.069100 0.000000
-4.052100 0.000100
-4.035000 0.000500
-4.018000 0.002100
-4.000900 0.006600
-3.983900 0.016800
-3.966800 0.035500
-3.949800 0.062600
-3.932800 0.093000
-3.915700 0.117600
-3.898700 0.129900
-3.881600 0.135300
-3.864600 0.152900
-3.847500 0.202200
-3.830500 0.278200
-3.813400 0.344900
-3.796400 0.360700
-3.779300 0.317200
-3.762300 0.248500
-3.745300 0.201600
-3.728200 0.202200
-3.711200 0.245300
-3.694100 0.306000
-3.677100 0.357500
-3.660000 0.384700
-3.643000 0.388400
-3.625900 0.381200
-3.608900 0.380800
-3.591800 0.401500
-3.574800 0.443300
-3.557700 0.489100
-3.540700 0.520200
-3.523700 0.533400
-3.506600 0.534000
-3.489600 0.519500
-3.472500 0.483100
-3.455500 0.426300
-3.438400 0.358100
-3.421400 0.289900
-3.404300 0.237400
-3.387300 0.225800
-3.370200 0.279300
-3.353200 0.396500
-3.336100 0.535300
-3.319100 0.638800
-3.302100 0.685900
-3.285000 0.705700
-3.268000 0.730500
-3.250900 0.748100
-3.233900 0.719500
-3.216800 0.635500
-3.199800 0.533600
-3.182700 0.464900
-3.165700 0.457200
-3.148600 0.508200
-3.131600 0.594100
-3.114600 0.681000
-3.097500 0.737200
-3.080500 0.743900
-3.063400 0.703200
-3.046400 0.639500
-3.029300 0.584700
-3.012300 0.551300
-2.995200 0.526500
-2.978200 0.495400
-2.961100 0.457400
-2.944100 0.415900
-2.927000 0.370400
-2.910000 0.329100
-2.893000 0.321600
-2.875900 0.383600
-2.858900 0.517400
-2.841800 0.676300
-2.824800 0.804200
-2.807700 0.897700
-2.790700 1.011500
-2.773600 1.184300
-2.756600 1.370500
-2.739500 1.464700
-2.722500 1.389200
-2.705400 1.155800
-2.688400 0.857200
-2.671400 0.607300
-2.654300 0.468500
-2.637300 0.417800
-2.620200 0.386000
-2.603200 0.331800
-2.586100 0.281900
-2.569100 0.307800
-2.552000 0.463700
-2.535000 0.727500
-2.517900 0.986800
-2.500900 1.104900
-2.483800 1.029300
-2.466800 0.828700
-2.449800 0.616700
-2.432700 0.463300
-2.415700 0.393200
-2.398600 0.433100
-2.381600 0.610000
-2.364500 0.890400
-2.347500 1.151200
-2.330400 1.252800
-2.313400 1.160900
-2.296300 0.978900
-2.279300 0.844300
-2.262300 0.804200
-2.245200 0.803000
-2.228200 0.770300
-2.211100 0.697900
-2.194100 0.640600
-2.177000 0.666500
-2.160000 0.808900
-2.142900 1.041800
-2.125900 1.287700
-2.108800 1.461900
-2.091800 1.526500
-2.074700 1.511000
-2.057700 1.473000
-2.040700 1.431600
-2.023600 1.343800
-2.006600 1.156600
-1.989500 0.875700
-1.972500 0.573700
-1.955400 0.336700
-1.938400 0.216200
-1.921300 0.220900
-1.904300 0.328400
-1.887200 0.496200
-1.870200 0.678000
-1.853100 0.846600
-1.836100 0.995300
-1.819100 1.112000
-1.802000 1.163100
-1.785000 1.122900
-1.767900 1.012900
-1.750900 0.894100
-1.733800 0.817600
-1.716800 0.796400
-1.699700 0.820300
-1.682700 0.878900
-1.665600 0.958000
-1.648600 1.028800
-1.631600 1.061900
-1.614500 1.062000
-1.597500 1.080200
-1.580400 1.175200
-1.563400 1.356400
-1.546300 1.562900
-1.529300 1.691600
-1.512200 1.654200
-1.495200 1.434000
-1.478100 1.106700
-1.461100 0.805100
-1.444000 0.645900
-1.427000 0.666000
-1.410000 0.808100
-1.392900 0.966700
-1.375900 1.064100
-1.358800 1.103500
-1.341800 1.159100
-1.324700 1.303700
-1.307700 1.523300
-1.290600 1.697000
-1.273600 1.683800
-1.256500 1.450100
-1.239500 1.115200
-1.222400 0.863400
-1.205400 0.808100
-1.188400 0.930300
-1.171300 1.120900
-1.154300 1.260400
-1.137200 1.270800
-1.120200 1.136000
-1.103100 0.903900
-1.086100 0.661900
-1.069000 0.485400
-1.052000 0.402300
-1.034900 0.401100
-1.017900 0.459700
-1.000900 0.561000
-0.983800 0.698100
-0.966800 0.874000
-0.949700 1.087900
-0.932700 1.318000
-0.915600 1.527200
-0.898600 1.688200
-0.881500 1.795100
-0.864500 1.845300
-0.847400 1.814600
-0.830400 1.669100
-0.813300 1.419300
-0.796300 1.155700
-0.779300 0.998200
-0.762200 0.999200
-0.745200 1.110900
-0.728100 1.249300
-0.711100 1.368700
-0.694000 1.471200
-0.677000 1.575600
-0.659900 1.688900
-0.642900 1.794700
-0.625800 1.854000
-0.608800 1.823400
-0.591700 1.680700
-0.574700 1.440800
-0.557700 1.148600
-0.540600 0.856800
-0.523600 0.611000
-0.506500 0.456700
-0.489500 0.446200
-0.472400 0.622300
-0.455400 0.981100
-0.438300 1.451100
-0.421300 1.911400
-0.404200 2.236700
-0.387200 2.338600
-0.370200 2.192500
-0.353100 1.853500
-0.336100 1.448500
-0.319000 1.128300
-0.302000 0.995400
-0.284900 1.053500
-0.267900 1.213700
-0.250800 1.353100
-0.233800 1.379900
-0.216700 1.266800
-0.199700 1.047100
-0.182600 0.790000
-0.165600 0.572800
-0.148600 0.464200
-0.131500 0.513600
-0.114500 0.733400
-0.097400 1.076400
-0.080400 1.433700
-0.063300 1.681500
-0.046300 1.768300
-0.029200 1.761800
-0.012200 1.790100
0.004900 1.930500
0.021900 2.164600
0.039000 2.420200
0.056000 2.622100
0.073000 2.713200
0.090100 2.668100
0.107100 2.504900
0.124200 2.271000
0.141200 2.016400
0.158300 1.781800
0.175300 1.598300
0.192400 1.481600
0.209400 1.426800
0.226500 1.416400
0.243500 1.436000
0.260500 1.480100
0.277600 1.538700
0.294600 1.579400
0.311700 1.549500
0.328700 1.409400
0.345800 1.178500
0.362800 0.955200
0.379900 0.876400
0.396900 1.034900
0.414000 1.411000
0.431000 1.861000
0.448100 2.189800
0.465100 2.280200
0.482100 2.178000
0.499200 2.032600
0.516200 1.952000
0.533300 1.933100
0.550300 1.926700
0.567400 1.925300
0.584400 1.963300
0.601500 2.049800
0.618500 2.141300
0.635600 2.186400
0.652600 2.168500
0.669700 2.096500
0.686700 1.979600
0.703700 1.836000
0.720800 1.710900
0.737800 1.669100
0.754900 1.763800
0.771900 2.010500
0.789000 2.373200
0.806000 2.763100
0.823100 3.063500
0.840100 3.173500
0.857200 3.043300
0.874200 2.691200
0.891200 2.216600
0.908300 1.787600
0.925300 1.571000
0.942400 1.636900
0.959400 1.917500
0.976500 2.252100
0.993500 2.474900
1.010600 2.493500
1.027600 2.325900
1.044700 2.078800
1.061700 1.875300
1.078800 1.792600
1.095800 1.853900
1.112800 2.042100
1.129900 2.299800
1.146900 2.541900
1.164000 2.704800
1.181000 2.787200
1.198100 2.829100
1.215100 2.846600
1.232200 2.807800
1.249200 2.682600
1.266300 2.495200
1.283300 2.303600
1.300400 2.154200
1.317400 2.080300
1.334400 2.105300
1.351500 2.207000
1.368500 2.304900
1.385600 2.328000
1.402600 2.283700
1.419700 2.230900
1.436700 2.195900
1.453800 2.145600
1.470800 2.032300
1.487900 1.837000
1.504900 1.573200
1.521900 1.285100
1.539000 1.047500
1.556000 0.944500
1.573100 1.016600
1.590100 1.217200
1.607200 1.429000
1.624200 1.545400
1.641300 1.544000
1.658300 1.480000
1.675400 1.421500
1.692400 1.400200
1.709500 1.411200
1.726500 1.435000
1.743500 1.452900
1.760600 1.454800
1.777600 1.452000
1.794700 1.474300
1.811700 1.530600
1.828800 1.583600
1.845800 1.588600
1.862900 1.545600
1.879900 1.489700
1.897000 1.441300
1.914000 1.384300
1.931100 1.290700
1.948100 1.148600
1.965100 0.967700
1.982200 0.778000
1.999200 0.627900
2.016300 0.567200
2.033300 0.618000
2.050400 0.758000
2.067400 0.922700
2.084500 1.027000
2.101500 1.008200
2.118600 0.868800
2.135600 0.674800
2.152600 0.503000
2.169700 0.395600
2.186700 0.363400
2.203800 0.410200
2.220800 0.534000
2.237900 0.712700
2.254900 0.907300
2.272000 1.078500
2.289000 1.189600
2.306100 1.204700
2.323100 1.111600
2.340200 0.953200
2.357200 0.814800
2.374200 0.765000
2.391300 0.811800
2.408300 0.908200
2.425400 0.980300
2.442400 0.957200
2.459500 0.809900
2.476500 0.577000
2.493600 0.340900
2.510600 0.169900
2.527700 0.087500
2.544700 0.085600
2.561800 0.148300
2.578800 0.253500
2.595800 0.366000
2.612900 0.449800
2.629900 0.491400
2.647000 0.498300
2.664000 0.475500
2.681100 0.420200
2.698100 0.344400
2.715200 0.277700
2.732200 0.239300
2.749300 0.219800
2.766300 0.203500
2.783300 0.196500
2.800400 0.222600
2.817400 0.288500
2.834500 0.362500
2.851500 0.393200
2.868600 0.353700
2.885600 0.267200
2.902700 0.190200
2.919700 0.174400
2.936800 0.238100
2.953800 0.355900
2.970900 0.468600
2.987900 0.517000
3.004900 0.483900
3.022000 0.403000
3.039000 0.323700
3.056100 0.269300
3.073100 0.231900
3.090200 0.202200
3.107200 0.189100
3.124300 0.210600
3.141300 0.275300
3.158400 0.379200
3.175400 0.508900
3.192500 0.639800
3.209500 0.746400
3.226500 0.827100
3.243600 0.903100
3.260600 0.975500
3.277700 1.002200
3.294700 0.937600
3.311800 0.789400
3.328800 0.619300
3.345900 0.492600
3.362900 0.432800
3.380000 0.422600
3.397000 0.436700
3.414000 0.465400
3.431100 0.510900
3.448100 0.575100
3.465200 0.662100
3.482200 0.782100
3.499300 0.943300
3.516300 1.135600
3.533400 1.320300
3.550400 1.434700
3.567500 1.420000
3.584500 1.264600
3.601600 1.021200
3.618600 0.773700
3.635600 0.587100
3.652700 0.489900
3.669700 0.488900
3.686800 0.571300
3.703800 0.688100
3.720900 0.765200
3.737900 0.760900
3.755000 0.704100
3.772000 0.657700
3.789100 0.649100
3.806100 0.656300
3.823200 0.650500
3.840200 0.628000
3.857200 0.603000
3.874300 0.598300
3.891300 0.644900
3.908400 0.762400
3.925400 0.931300
3.942500 1.107700
3.959500 1.272300
3.976600 1.442900
3.993600 1.632800
4.010700 1.821000
4.027700 1.973600
4.044700 2.073500
4.061800 2.120100
4.078800 2.113400
4.095900 2.056400
4.112900 1.961900
4.130000 1.840300
4.147000 1.692700
4.164100 1.539800
4.181100 1.447500
4.198200 1.483100
4.215200 1.631600
4.232300 1.776900
4.249300 1.796200
4.266300 1.673700
4.283400 1.509800
4.300400 1.417700
4.317500 1.429000
4.334500 1.496200
4.351600 1.556600
4.368600 1.573500
4.385700 1.540700
4.402700 1.485400
4.419800 1.472500
4.436800 1.570700
4.453900 1.776900
4.470900 1.979200
4.487900 2.033600
4.505000 1.907700
4.522000 1.743300
4.539100 1.750500
4.556100 2.024800
4.573200 2.466500
4.590200 2.858200
4.607300 3.007200
4.624300 2.849000
4.641400 2.476200
4.658400 2.079900
4.675400 1.831400
4.692500 1.784400
4.709500 1.875700
4.726600 2.014100
4.743600 2.163100
4.760700 2.327000
4.777700 2.470500
4.794800 2.503100
4.811800 2.368500
4.828900 2.122900
4.845900 1.895900
4.863000 1.780500
4.880000 1.770500
4.897000 1.790700
4.914100 1.780500
4.931100 1.755700
4.948200 1.791300
4.965200 1.929100
4.982300 2.113300
4.999300 2.238600
5.016400 2.247600
5.033400 2.160000
5.050500 2.033400
5.067500 1.938400
5.084600 1.952400
5.101600 2.127000
5.118600 2.451300
5.135700 2.856800
5.152700 3.252900
5.169800 3.555100
5.186800 3.703100
5.203900 3.673700
5.220900 3.482200
5.238000 3.183900
5.255000 2.879600
5.272100 2.685700
5.289100 2.656700
5.306200 2.733200
5.323200 2.785900
5.340200 2.719100
5.357300 2.535000
5.374300 2.320500
5.391400 2.188300
5.408400 2.215200
5.425500 2.399800
5.442500 2.674600
5.459600 2.970000
5.476600 3.253200
5.493700 3.494500
5.510700 3.625000
5.527700 3.560700
5.544800 3.272000
5.561800 2.817900
5.578900 2.312100
5.595900 1.860200
5.613000 1.522300
5.630000 1.313400
5.647100 1.225800
5.664100 1.250100
5.681200 1.373600
5.698200 1.557000
5.715300 1.737600
5.732300 1.879000
5.749300 2.000900
5.766400 2.123800
5.783400 2.194900
5.800500 2.122000
5.817500 1.893900
5.834600 1.611900
5.851600 1.384500
5.868700 1.233600
5.885700 1.126300
5.902800 1.052900
5.919800 1.041500
5.936900 1.110700
5.953900 1.233500
5.970900 1.348100
5.988000 1.396900
6.005000 1.354800
6.022100 1.233000
6.039100 1.067900
6.056200 0.906400
6.073200 0.790100
6.090300 0.747900
6.107300 0.799800
6.124400 0.953400
6.141400 1.183500
6.158400 1.430600
6.175500 1.636500
6.192500 1.779100
6.209600 1.857300
6.226600 1.852700
6.243700 1.738200
6.260700 1.540200
6.277800 1.372400
6.294800 1.372800
6.311900 1.593700
6.328900 1.952500
6.346000 2.283100
6.363000 2.443700
6.380000 2.403200
6.397100 2.252900
6.414100 2.134500
6.431200 2.148800
6.448200 2.312700
6.465300 2.572200
6.482300 2.841400
6.499400 3.039800
6.516400 3.118100
6.533500 3.074600
6.550500 2.948800
6.567600 2.787600
6.584600 2.616900
6.601600 2.463400
6.618700 2.393200
6.635700 2.491300
6.652800 2.774300
6.669800 3.129600
6.686900 3.362000
6.703900 3.323400
6.721000 3.023600
6.738000 2.622600
6.755100 2.304800
6.772100 2.144400
6.789100 2.074400
6.806200 1.969500
6.823200 1.763200
6.840300 1.508300
6.857300 1.329500
6.874400 1.312700
6.891400 1.437100
6.908500 1.604200
6.925500 1.709100
6.942600 1.694800
6.959600 1.575900
6.976700 1.427700
6.993700 1.333000
7.010700 1.330200
7.027800 1.408700
7.044800 1.538600
7.061900 1.693900
7.078900 1.857000
7.096000 2.018000
7.113000 2.172300
7.130100 2.323100
7.147100 2.476200
7.164200 2.608100
7.181200 2.642700
7.198300 2.494100
7.215300 2.152100
7.232300 1.712900
7.249400 1.330800
7.266400 1.152400
7.283500 1.269500
7.300500 1.678700
7.317600 2.260900
7.334600 2.820400
7.351700 3.181000
7.368700 3.267100
7.385800 3.115200
7.402800 2.828400
7.419800 2.519800
7.436900 2.273200
7.453900 2.125000
7.471000 2.060400
7.488000 2.025800
7.505100 1.967300
7.522100 1.877000
7.539200 1.799700
7.556200 1.781400
7.573300 1.813100
7.590300 1.828800
7.607400 1.765500
7.624400 1.635300
7.641400 1.535400
7.658500 1.573800
7.675500 1.778400
7.692600 2.076400
7.709600 2.353400
7.726700 2.529200
7.743700 2.606100
7.760800 2.662700
7.777800 2.782200
7.794900 2.967400
7.811900 3.133800
7.829000 3.190600
7.846000 3.118800
7.863000 2.974000
7.880100 2.836900
7.897100 2.763500
7.914200 2.754300
7.931200 2.744000
7.948300 2.631900
7.965300 2.357300
7.982400 1.969600
7.999400 1.614200
8.016500 1.421800
8.033500 1.406800
8.050500 1.492500
8.067600 1.623200
8.084600 1.813400
8.101700 2.089300
8.118700 2.419900
8.135800 2.723900
8.152800 2.928300
8.169900 3.010400
8.186900 2.999000
8.204000 2.962700
8.221000 2.994700
8.238100 3.159000
8.255100 3.400800
8.272100 3.539300
8.289200 3.420500
8.306200 3.096700
8.323300 2.797500
8.340300 2.690200
8.357400 2.699600
8.374400 2.599100
8.391500 2.268800
8.408500 1.837400
8.425600 1.573200
8.442600 1.651500
8.459700 2.015400
8.476700 2.424000
8.493700 2.624100
8.510800 2.511300
8.527800 2.181600
8.544900 1.851600
8.561900 1.711800
8.579000 1.803200
8.596000 1.996300
8.613100 2.096800
8.630100 2.004000
8.647200 1.786500
8.664200 1.620100
8.681200 1.661800
8.698300 1.953700
8.715300 2.388500
8.732400 2.756700
8.749400 2.879500
8.766500 2.740200
8.783500 2.481400
8.800600 2.276300
8.817600 2.226100
8.834700 2.366300
8.851700 2.690200
8.868800 3.117300
8.885800 3.466800
8.902800 3.536000
8.919900 3.262900
8.936900 2.802800
8.954000 2.410200
8.971000 2.237200
8.988100 2.251400
9.005100 2.311000
9.022200 2.292100
9.039200 2.179200
9.056300 2.073600
9.073300 2.102700
9.090400 2.284900
9.107400 2.488400
9.124400 2.544700
9.141500 2.401100
9.158500 2.150000
9.175600 1.919800
9.192600 1.754800
9.209700 1.603100
9.226700 1.411900
9.243800 1.214900
9.260800 1.115300
9.277900 1.186700
9.294900 1.402400
9.311900 1.666100
9.329000 1.907900
9.346000 2.139000
9.363100 2.404700
9.380100 2.694800
9.397200 2.912300
9.414200 2.936800
9.431300 2.726600
9.448300 2.361500
9.465400 1.983900
9.482400 1.694300
9.499500 1.510400
9.516500 1.425000
9.533500 1.476500
9.550600 1.714200
9.567600 2.089100
9.584700 2.430200
9.601700 2.573400
9.618800 2.508700
9.635800 2.372700
9.652900 2.296200
9.669900 2.276600
9.687000 2.202600
9.704000 1.982000
9.721100 1.638300
9.738100 1.297900
9.755100 1.107000
9.772200 1.158300
9.789200 1.468500
9.806300 1.986000
9.823300 2.601300
9.840400 3.170700
9.857400 3.574200
9.874500 3.771700
9.891500 3.796100
9.908600 3.703300
9.925600 3.557700
9.942600 3.447100
9.959700 3.442600
9.976700 3.514500
9.993800 3.533200
10.010800 3.389600
10.027900 3.096500
10.044900 2.753000
10.062000 2.448900
10.079000 2.241500
10.096100 2.177500
10.113100 2.262300
10.130200 2.405200
10.147200 2.453700
10.164200 2.307000
10.181300 1.979700
10.198300 1.565600
10.215400 1.174000
10.232400 0.894400
10.249500 0.775300
10.266500 0.807700
10.283600 0.938600
10.300600 1.112700
10.317700 1.293600
10.334700 1.440100
10.351800 1.493200
10.368800 1.418100
10.385800 1.252500
10.402900 1.099700
10.419900 1.073100
10.437000 1.235100
10.454000 1.556600
10.471100 1.924400
10.488100 2.213600
10.505200 2.370300
10.522200 2.416400
10.539300 2.385700
10.556300 2.302800
10.573300 2.239800
10.590400 2.331300
10.607400 2.668600
10.624500 3.174500
10.641500 3.618700
10.658600 3.781000
10.675600 3.603400
10.692700 3.191000
10.709700 2.697500
10.726800 2.247300
10.743800 1.946700
10.760900 1.878700
10.777900 2.024200
10.794900 2.222100
10.812000 2.285000
10.829000 2.182300
10.846100 2.080600
