set title 'mp-1009818 - Density of States'
set xlabel 'Energy (eV)'
set ylabel 'DOS (states/eV)'
set grid
set xrange [-10:10]
set yrange [0:1.822]
set xzeroaxis lt -1
set terminal png size 800,600
set output 'mp-1009818_dos_gnuplot.png'
plot '-' using 1:2 with lines title 'DOS'
-21.588700 0.000000
-21.524700 0.000000
-21.460800 0.000000
-21.396800 0.000000
-21.332900 0.000000
-21.268900 0.000000
-21.204900 0.000000
-21.141000 0.000000
-21.077000 0.000000
-21.013100 0.000000
-20.949100 0.000000
-20.885100 0.000000
-20.821200 0.000000
-20.757200 0.000000
-20.693300 0.000000
-20.629300 0.000000
-20.565300 0.000000
-20.501400 0.000000
-20.437400 0.000000
-20.373500 0.000000
-20.309500 0.000000
-20.245500 0.000000
-20.181600 0.000000
-20.117600 0.000000
-20.053700 0.000000
-19.989700 0.000000
-19.925800 0.000000
-19.861800 0.000000
-19.797800 0.000000
-19.733900 0.000000
-19.669900 0.000000
-19.606000 0.000000
-19.542000 0.000000
-19.478000 0.000000
-19.414100 0.000000
-19.350100 0.000000
-19.286200 0.000000
-19.222200 0.000000
-19.158200 0.000000
-19.094300 0.000000
-19.030300 0.000000
-18.966400 0.000000
-18.902400 0.000000
-18.838400 0.000000
-18.774500 0.000000
-18.710500 0.000000
-18.646600 0.000000
-18.582600 0.000000
-18.518600 0.000000
-18.454700 0.000000
-18.390700 0.000000
-18.326800 0.000000
-18.262800 0.000000
-18.198800 0.000000
-18.134900 0.000000
-18.070900 0.000000
-18.007000 0.000000
-17.943000 0.000000
-17.879000 0.000000
-17.815100 0.000000
-17.751100 0.000000
-17.687200 0.000000
-17.623200 0.000000
-17.559200 0.000000
-17.495300 0.000000
-17.431300 0.000000
-17.367400 0.000000
-17.303400 0.000000
-17.239400 0.000000
-17.175500 0.000000
-17.111500 0.000000
-17.047600 0.000000
-16.983600 0.000000
-16.919600 0.000000
-16.855700 0.000000
-16.791700 0.000000
-16.727800 0.000000
-16.663800 0.000000
-16.599800 0.000000
-16.535900 0.000000
-16.471900 0.000000
-16.408000 0.000000
-16.344000 0.000000
-16.280000 0.000000
-16.216100 0.000000
-16.152100 0.000000
-16.088200 0.000000
-16.024200 0.000000
-15.960200 0.000000
-15.896300 0.000000
-15.832300 0.000600
-15.768400 0.010500
-15.704400 0.048500
-15.640400 0.069600
-15.576500 0.091100
-15.512500 0.129900
-15.448600 0.113600
-15.384600 0.130300
-15.320600 0.166600
-15.256700 0.149900
-15.192700 0.193000
-15.128800 0.208500
-15.064800 0.159100
-15.000800 0.168900
-14.936900 0.251400
-14.872900 0.228700
-14.809000 0.316300
-14.745000 0.222500
-14.681000 0.114800
-14.617100 0.243200
-14.553100 0.421600
-14.489200 0.276400
-14.425200 0.284100
-14.361200 0.293500
-14.297300 0.236000
-14.233300 0.301000
-14.169400 0.335300
-14.105400 0.413000
-14.041400 0.396400
-13.977500 0.280900
-13.913500 0.292100
-13.849600 0.411300
-13.785600 0.412900
-13.721600 0.496800
-13.657700 0.267700
-13.593700 0.417700
-13.529800 0.506600
-13.465800 0.367600
-13.401800 0.466300
-13.337900 0.547500
-13.273900 0.473900
-13.210000 0.588300
-13.146000 0.366300
-13.082000 0.497800
-13.018100 0.658000
-12.954100 0.618800
-12.890200 0.625900
-12.826200 0.684200
-12.762200 0.710600
-12.698300 0.853400
-12.634300 0.764100
-12.570400 0.855800
-12.506400 0.867000
-12.442400 0.757500
-12.378500 1.008300
-12.314500 0.995600
-12.250600 0.584300
-12.186600 0.537900
-12.122600 0.799800
-12.058700 0.882000
-11.994700 0.492500
-11.930800 0.518400
-11.866800 0.431500
-11.802900 0.531000
-11.738900 0.702300
-11.674900 0.490500
-11.611000 0.340700
-11.547000 0.432100
-11.483100 0.479600
-11.419100 0.581200
-11.355100 0.465400
-11.291200 0.417100
-11.227200 0.316900
-11.163300 0.433800
-11.099300 0.516600
-11.035300 0.369800
-10.971400 0.368300
-10.907400 0.477500
-10.843500 0.337900
-10.779500 0.180700
-10.715500 0.124800
-10.651600 0.156900
-10.587600 0.097200
-10.523700 0.131000
-10.459700 0.182700
-10.395700 0.200900
-10.331800 0.266600
-10.267800 0.189200
-10.203900 0.137900
-10.139900 0.152000
-10.075900 0.208900
-10.012000 0.236000
-9.948000 0.228700
-9.884100 0.103500
-9.820100 0.239400
-9.756100 0.371600
-9.692200 0.289900
-9.628200 0.309300
-9.564300 0.143800
-9.500300 0.295100
-9.436300 0.296500
-9.372400 0.148300
-9.308400 0.150700
-9.244500 0.368900
-9.180500 0.445900
-9.116500 0.532200
-9.052600 0.409400
-8.988600 0.311800
-8.924700 0.404200
-8.860700 0.315200
-8.796700 0.267900
-8.732800 0.379500
-8.668800 0.649200
-8.604900 0.615600
-8.540900 0.645900
-8.476900 0.508700
-8.413000 0.433800
-8.349000 0.462000
-8.285100 0.557800
-8.221100 0.560700
-8.157100 0.519100
-8.093200 0.519700
-8.029200 0.447600
-7.965300 0.355900
-7.901300 0.497900
-7.837300 0.595900
-7.773400 0.504800
-7.709400 0.373200
-7.645500 0.540500
-7.581500 0.549400
-7.517500 0.422700
-7.453600 0.377200
-7.389600 0.447400
-7.325700 0.618700
-7.261700 0.508600
-7.197700 0.371100
-7.133800 0.367400
-7.069800 0.411900
-7.005900 0.217000
-6.941900 0.377800
-6.877900 0.680900
-6.814000 0.531000
-6.750000 0.280700
-6.686100 0.338500
-6.622100 0.328800
-6.558100 0.282900
-6.494200 0.340500
-6.430200 0.592200
-6.366300 0.370000
-6.302300 0.115400
-6.238300 0.259000
-6.174400 0.269300
-6.110400 0.303300
-6.046500 0.318700
-5.982500 0.218900
-5.918500 0.225900
-5.854600 0.197900
-5.790600 0.156300
-5.726700 0.181100
-5.662700 0.309400
-5.598700 0.241900
-5.534800 0.090800
-5.470800 0.108100
-5.406900 0.170100
-5.342900 0.274600
-5.278900 0.224200
-5.215000 0.253000
-5.151000 0.457000
-5.087100 0.333500
-5.023100 0.369400
-4.959100 0.596300
-4.895200 0.475500
-4.831200 0.483000
-4.767300 0.929000
-4.703300 0.992000
-4.639300 0.788100
-4.575400 0.864000
-4.511400 1.066400
-4.447500 0.739800
-4.383500 0.887900
-4.319500 0.877800
-4.255600 0.863500
-4.191600 0.860900
-4.127700 1.175400
-4.063700 1.045100
-3.999700 0.748500
-3.935800 0.666000
-3.871800 0.888200
-3.807900 0.767200
-3.743900 0.629200
-3.680000 0.613200
-3.616000 0.483500
-3.552000 0.353500
-3.488100 0.350800
-3.424100 0.381900
-3.360200 0.482400
-3.296200 0.512300
-3.232200 0.419100
-3.168300 0.399800
-3.104300 0.460200
-3.040400 0.456900
-2.976400 0.348100
-2.912400 0.216800
-2.848500 0.150700
-2.784500 0.286800
-2.720600 0.310900
-2.656600 0.320800
-2.592600 0.321900
-2.528700 0.423200
-2.464700 0.296500
-2.400800 0.283100
-2.336800 0.203900
-2.272800 0.170500
-2.208900 0.400300
-2.144900 0.430700
-2.081000 0.375800
-2.017000 0.367000
-1.953000 0.532800
-1.889100 0.663900
-1.825100 0.693100
-1.761200 0.786900
-1.697200 1.025900
-1.633200 1.013200
-1.569300 0.688200
-1.505300 0.625600
-1.441400 0.731000
-1.377400 1.214800
-1.313400 1.549100
-1.249500 1.308500
-1.185500 1.257300
-1.121600 1.645200
-1.057600 1.640600
-0.993600 1.485000
-0.929700 1.499900
-0.865700 1.502800
-0.801800 1.656500
-0.737800 1.552100
-0.673800 1.272400
-0.609900 1.295500
-0.545900 1.159500
-0.482000 1.027700
-0.418000 0.901600
-0.354000 0.798700
-0.290100 0.714800
-0.226100 0.870800
-0.162200 1.189100
-0.098200 1.223500
-0.034200 1.432000
0.029700 1.079200
0.093700 0.864800
0.157600 0.816500
0.221600 0.658700
0.285600 0.627700
0.349500 0.774300
0.413500 0.742000
0.477400 0.688800
0.541400 0.596600
0.605400 0.737400
0.669300 0.966300
0.733300 1.126200
0.797200 1.169000
0.861200 1.177200
0.925200 0.956100
0.989100 0.816800
1.053100 0.549400
1.117000 0.517700
1.181000 0.758500
1.245000 0.969600
1.308900 0.711500
1.372900 0.666300
1.436800 0.737900
1.500800 0.877600
1.564800 0.810500
1.628700 1.030600
1.692700 1.114900
1.756600 0.881700
1.820600 0.663200
1.884600 0.543200
1.948500 0.607300
2.012500 0.512100
2.076400 0.651700
2.140400 0.709400
2.204400 0.608600
2.268300 0.830900
2.332300 0.810100
2.396200 0.617800
2.460200 0.553800
2.524200 0.388400
2.588100 0.207500
2.652100 0.174300
2.716000 0.082100
2.780000 0.015100
2.844000 0.017800
2.907900 0.038600
2.971900 0.071800
3.035800 0.071900
3.099800 0.044100
3.163800 0.088000
3.227700 0.127600
3.291700 0.168800
3.355600 0.075600
3.419600 0.071200
3.483600 0.172000
3.547500 0.201800
3.611500 0.198200
3.675400 0.201400
3.739400 0.216500
3.803400 0.295300
3.867300 0.377000
3.931300 0.512500
3.995200 0.653500
4.059200 0.624500
4.123200 0.493400
4.187100 0.487500
4.251100 0.522000
4.315000 0.530000
4.379000 0.705900
4.442900 0.650300
4.506900 0.514800
4.570900 0.570400
4.634800 0.509600
4.698800 0.492900
4.762700 0.539700
4.826700 0.667100
4.890700 0.553100
4.954600 0.683600
5.018600 0.768900
5.082500 0.584400
5.146500 0.446800
5.210500 0.597800
5.274400 0.626500
5.338400 0.663200
5.402300 0.817500
5.466300 0.703700
5.530300 0.535500
5.594200 0.552300
5.658200 0.607500
5.722100 0.625500
5.786100 0.635400
5.850100 0.662600
5.914000 0.873500
5.978000 0.949500
6.041900 0.884500
6.105900 0.895600
6.169900 0.778600
6.233800 0.654200
6.297800 0.768500
6.361700 0.998800
6.425700 0.939500
6.489700 1.130500
6.553600 1.065100
6.617600 0.862300
6.681500 0.763700
6.745500 0.787700
6.809500 0.886400
6.873400 0.743300
6.937400 0.712100
7.001300 0.803700
7.065300 1.027400
7.129300 0.866900
7.193200 0.667600
7.257200 0.598300
7.321100 0.837000
7.385100 0.840000
7.449100 0.871400
7.513000 0.639400
7.577000 0.496900
7.640900 0.710200
7.704900 0.730100
7.768900 0.609600
7.832800 0.638500
7.896800 0.540900
7.960700 0.544500
8.024700 0.486800
8.088700 0.634800
8.152600 0.728100
8.216600 0.644400
8.280500 0.596200
8.344500 0.615600
8.408500 0.712900
8.472400 0.578500
8.536400 0.512600
8.600300 0.369900
8.664300 0.490300
8.728300 0.625500
8.792200 0.514900
8.856200 0.486400
8.920100 0.591200
8.984100 0.374400
9.048100 0.425400
9.112000 0.400500
9.176000 0.459000
9.239900 0.407900
9.303900 0.483000
9.367900 0.246600
9.431800 0.190100
9.495800 0.274200
9.559700 0.274800
9.623700 0.347200
9.687700 0.218600
9.751600 0.184700
9.815600 0.197000
9.879500 0.240600
9.943500 0.324900
10.007500 0.258600
10.071400 0.215000
10.135400 0.105200
10.199300 0.115000
10.263300 0.186900
10.327300 0.163600
10.391200 0.071700
10.455200 0.117700
10.519100 0.167000
10.583100 0.140000
10.647100 0.103900
10.711000 0.043200
10.775000 0.048000
10.838900 0.038700
10.902900 0.025900
10.966900 0.005600
11.030800 0.016000
11.094800 0.021700
11.158700 0.010900
11.222700 0.013000
11.286700 0.073200
11.350600 0.111300
11.414600 0.058500
11.478500 0.048600
11.542500 0.112200
11.606500 0.144900
11.670400 0.092000
11.734400 0.047300
11.798300 0.077000
11.862300 0.176300
11.926300 0.143000
11.990200 0.079500
12.054200 0.100600
12.118100 0.309200
12.182100 0.319700
12.246100 0.133000
12.310000 0.098800
12.374000 0.174400
12.437900 0.334100
12.501900 0.231000
12.565800 0.187300
12.629800 0.087500
12.693800 0.218500
12.757700 0.466900
12.821700 0.353500
12.885600 0.267500
12.949600 0.308800
13.013600 0.370300
13.077500 0.324900
13.141500 0.247800
13.205400 0.399800
13.269400 0.459200
13.333400 0.267800
13.397300 0.325400
13.461300 0.473700
13.525200 0.502500
13.589200 0.477100
13.653200 0.571800
13.717100 0.604300
13.781100 0.519600
13.845000 0.470300
13.909000 0.405500
13.973000 0.421500
14.036900 0.649500
14.100900 0.580900
14.164800 0.715500
14.228800 0.754300
14.292800 0.570700
14.356700 0.724300
14.420700 1.022600
14.484600 0.860700
14.548600 0.792600
14.612600 1.138700
14.676500 1.396000
14.740500 1.320300
14.804400 1.274400
14.868400 1.193000
14.932400 0.691600
14.996300 0.890600
15.060300 1.328200
15.124200 1.086900
15.188200 0.692500
15.252200 0.642000
15.316100 0.560500
15.380100 0.867700
15.444000 1.262100
15.508000 1.100200
15.572000 1.055400
15.635900 1.030600
15.699900 0.991900
15.763800 1.047300
15.827800 1.087700
15.891800 1.195500
15.955700 0.857700
16.019700 0.929400
16.083600 1.041300
16.147600 1.064600
16.211600 0.808900
16.275500 0.657300
16.339500 0.941700
16.403400 0.836000
16.467400 0.674100
16.531400 0.988100
16.595300 0.913800
16.659300 1.018200
16.723200 0.947800
16.787200 1.134700
16.851200 1.134400
16.915100 0.818600
16.979100 1.035900
17.043000 1.069100
17.107000 2.052000
17.171000 2.859200
17.234900 2.415900
17.298900 1.870100
17.362800 1.516400
17.426800 1.319500
17.490800 1.193500
17.554700 1.462400
17.618700 1.406100
17.682600 1.171300
17.746600 1.074300
17.810600 1.095700
17.874500 1.214300
17.938500 1.192900
18.002400 1.363600
18.066400 0.931100
18.130400 0.711200
18.194300 0.899900
18.258300 1.353100
18.322200 1.369500
18.386200 1.398100
18.450200 1.145100
18.514100 0.894700
18.578100 0.708000
18.642000 0.860200
18.706000 1.030500
18.770000 1.209700
18.833900 1.274200
18.897900 0.834000
18.961800 0.823200
19.025800 1.135900
19.089800 0.899600
19.153700 0.945300
19.217700 1.036100
19.281600 0.931000
19.345600 0.762300
19.409600 0.994300
19.473500 1.098000
19.537500 1.140000
19.601400 1.169200
19.665400 1.067000
19.729400 0.968000
19.793300 0.988500
19.857300 1.135700
19.921200 1.441400
19.985200 1.767500
20.049200 1.496000
20.113100 1.327900
20.177100 1.508300
20.241000 1.518900
20.305000 1.121000
20.369000 1.145500
20.432900 1.017100
20.496900 0.932400
20.560800 0.834600
20.624800 0.622300
20.688700 0.526100
20.752700 0.555500
20.816700 0.755500
20.880600 0.648800
20.944600 0.686000
21.008500 0.611100
21.072500 0.508700
21.136500 0.524400
21.200400 0.603900
21.264400 0.795700
21.328300 0.746000
21.392300 0.594900
21.456300 0.415400
21.520200 0.787800
21.584200 0.827200
21.648100 0.679200
21.712100 0.792600
21.776100 0.864500
21.840000 0.952600
21.904000 0.851300
21.967900 0.785800
22.031900 1.104400
22.095900 1.304400
22.159800 1.245100
22.223800 1.126800
22.287700 1.280600
22.351700 1.150600
22.415700 1.049100
22.479600 1.136500
22.543600 1.108700
22.607500 0.984700
22.671500 1.299300
22.735500 1.398500
22.799400 1.527400
22.863400 1.957300
22.927300 1.925800
22.991300 1.842200
23.055300 1.226400
23.119200 0.862400
23.183200 0.934600
23.247100 0.782300
23.311100 0.755000
23.375100 1.033400
23.439000 0.994200
23.503000 0.748800
23.566900 0.530900
23.630900 0.579100
23.694900 0.571400
23.758800 0.680700
23.822800 0.643100
23.886700 0.621000
23.950700 0.597800
24.014700 0.710400
24.078600 0.770600
24.142600 0.728700
24.206500 0.665700
24.270500 0.695700
24.334500 0.937600
24.398400 1.044200
24.462400 0.630000
24.526300 0.570300
24.590300 0.688200
24.654300 0.931100
24.718200 0.858500
24.782200 0.830500
24.846100 0.749900
24.910100 0.997600
24.974100 0.889300
25.038000 0.728700
25.102000 0.642300
25.165900 0.490000
25.229900 0.292100
25.293900 0.385800
25.357800 0.254800
25.421800 0.166900
25.485700 0.200500
25.549700 0.245300
25.613700 0.262400
25.677600 0.348800
25.741600 0.246400
25.805500 0.258200
25.869500 0.311600
25.933500 0.347800
25.997400 0.271500
26.061400 0.219200
26.125300 0.386100
26.189300 0.442400
26.253300 0.434300
26.317200 0.252100
26.381200 0.382600
26.445100 0.793200
26.509100 0.728700
26.573100 0.788300
26.637000 1.034000
26.701000 1.073300
26.764900 1.080300
26.828900 0.912000
26.892900 0.983600
26.956800 1.102600
27.020800 1.115400
27.084700 0.828800
27.148700 0.507300
27.212700 0.603600
27.276600 0.705900
27.340600 0.624500
27.404500 0.464800
27.468500 0.388000
27.532500 0.790900
27.596400 1.091700
27.660400 0.949100
27.724300 0.595000
27.788300 0.644400
27.852300 0.802600
27.916200 0.754500
27.980200 0.951400
28.044100 1.062900
28.108100 0.775200
28.172100 0.512500
28.236000 0.651600
28.300000 0.690800
28.363900 0.773100
28.427900 0.682500
28.491900 0.301300
28.555800 0.247100
28.619800 0.379100
28.683700 0.369000
28.747700 0.385700
28.811600 0.591800
28.875600 0.830600
28.939600 0.874200
29.003500 1.033000
29.067500 1.091800
29.131400 0.914300
29.195400 0.845200
29.259400 0.788200
29.323300 0.760400
29.387300 0.826900
29.451200 0.796500
29.515200 0.813600
29.579200 1.102700
29.643100 1.185800
29.707100 0.969400
29.771000 0.701200
29.835000 0.540400
29.899000 0.676500
29.962900 0.839900
30.026900 0.794600
30.090800 0.620100
30.154800 0.620300
30.218800 0.711300
30.282700 0.693000
30.346700 0.721300
30.410600 0.679300
30.474600 0.610300
30.538600 0.479400
30.602500 0.433400
30.666500 0.520200
30.730400 0.470200
30.794400 0.446800
30.858400 0.703100
30.922300 0.766600
30.986300 0.660400
31.050200 0.552200
31.114200 0.662500
31.178200 0.734400
31.242100 0.601500
31.306100 0.773700
31.370000 0.911100
31.434000 0.806100
31.498000 0.573500
31.561900 0.678300
31.625900 0.927400
31.689800 1.271500
31.753800 1.167500
31.817800 1.120400
31.881700 1.163300
31.945700 1.257900
32.009600 0.956300
32.073600 1.001900
32.137600 1.333400
32.201500 1.309200
32.265500 1.465900
32.329400 1.599500
32.393400 1.109200
32.457400 1.004900
32.521300 0.963500
32.585300 0.920300
32.649200 0.841500
32.713200 0.903000
32.777200 0.908700
32.841100 1.039400
32.905100 1.360700
32.969000 1.403700
33.033000 2.072400
33.097000 2.476700
33.160900 1.816300
33.224900 1.442900
33.288800 1.189400
33.352800 1.045900
33.416800 1.233100
33.480700 0.870300
33.544700 0.683400
33.608600 0.697500
33.672600 0.928600
33.736600 1.182000
33.800500 1.097000
33.864500 0.821000
33.928400 0.729300
33.992400 0.819100
34.056400 1.047400
34.120300 0.739300
34.184300 0.543600
34.248200 0.691200
34.312200 0.663500
34.376200 0.490000
34.440100 0.408200
34.504100 0.388500
34.568000 0.600000
34.632000 0.614900
34.696000 0.564700
34.759900 0.549800
34.823900 0.470100
34.887800 0.337600
34.951800 0.359300
35.015800 0.424400
35.079700 0.549000
35.143700 0.420200
35.207600 0.231600
35.271600 0.294200
35.335600 0.355100
35.399500 0.524400
35.463500 0.434400
35.527400 0.235300
35.591400 0.172300
35.655400 0.299100
35.719300 0.405500
35.783300 0.285500
35.847200 0.285300
35.911200 0.285000
35.975200 0.155600
36.039100 0.148500
36.103100 0.311500
36.167000 0.408400
36.231000 0.389600
36.295000 0.225800
36.358900 0.160200
36.422900 0.173500
36.486800 0.182900
36.550800 0.270100
36.614800 0.245200
36.678700 0.257000
36.742700 0.281700
36.806600 0.464500
36.870600 0.501400
36.934500 0.501000
36.998500 0.731000
37.062500 0.882700
37.126400 0.890500
37.190400 0.660500
37.254300 0.414500
37.318300 0.453000
37.382300 0.579300
37.446200 0.724700
37.510200 0.571900
37.574100 0.431800
37.638100 0.640100
37.702100 0.745600
37.766000 0.524100
37.830000 0.495800
37.893900 0.650500
37.957900 0.459500
38.021900 0.389100
38.085800 0.600400
38.149800 0.559100
38.213700 0.802000
38.277700 1.038000
38.341700 1.048600
38.405600 0.872600
38.469600 0.784000
38.533500 0.620200
38.597500 0.540800
38.661500 0.742000
38.725400 0.901600
38.789400 0.657400
38.853300 0.547100
38.917300 0.718100
38.981300 0.653600
39.045200 0.658500
39.109200 0.772000
39.173100 0.823300
39.237100 0.802000
39.301100 0.538600
39.365000 0.635700
39.429000 0.820500
39.492900 0.657200
39.556900 0.811200
39.620900 0.842300
39.684800 0.765900
39.748800 0.760900
39.812700 0.827900
39.876700 0.770900
39.940700 0.754700
40.004600 0.812700
40.068600 0.919300
40.132500 0.838100
40.196500 0.861300
40.260500 0.849900
40.324400 0.828300
40.388400 0.748900
40.452300 0.815400
40.516300 0.717600
40.580300 0.595400
40.644200 0.702700
40.708200 0.538500
40.772100 0.573800
40.836100 0.535100
40.900100 0.444300
40.964000 0.432100
41.028000 0.671400
41.091900 0.911600
41.155900 0.908600
41.219900 0.600700
41.283800 0.311000
41.347800 0.324100
41.411700 0.571800
41.475700 0.592100
41.539700 0.480100
41.603600 0.371600
41.667600 0.322300
41.731500 0.372000
41.795500 0.442900
41.859500 0.490400
41.923400 0.404500
41.987400 0.633000
42.051300 0.405300
42.115300 0.300700
42.179300 0.477700
42.243200 0.518300
42.307200 0.556500
42.371100 0.651100
42.435100 0.482100
42.499100 0.699700
42.563000 0.895100
42.627000 0.739300
42.690900 0.797600
42.754900 1.076400
42.818900 0.864100
42.882800 0.598600
42.946800 0.721700
43.010700 0.772000
43.074700 0.656200
43.138700 0.745500
43.202600 0.869400
43.266600 0.989100
43.330500 0.894600
43.394500 0.915600
43.458500 0.944900
43.522400 0.680300
43.586400 0.639700
43.650300 0.779600
43.714300 0.895300
43.778300 0.466500
43.842200 0.645200
43.906200 0.744100
43.970100 0.703200
44.034100 0.959200
44.098100 1.009500
44.162000 0.661800
44.226000 0.609500
44.289900 0.528000
44.353900 0.551100
44.417900 0.636400
44.481800 0.679600
44.545800 0.500500
44.609700 0.688000
