set title 'mp-1551 - Density of States'
set xlabel 'Energy (eV)'
set ylabel 'DOS (states/eV)'
set grid
set xrange [-10:10]
set yrange [0:17.511]
set xzeroaxis lt -1
set terminal png size 800,600
set output 'mp-1551_dos_gnuplot.png'
plot '-' using 1:2 with lines title 'DOS'
-7.517200 0.000000
-7.500400 0.000000
-7.483500 0.000000
-7.466700 0.000000
-7.449900 0.000000
-7.433000 0.000000
-7.416200 0.000000
-7.399300 0.000000
-7.382500 0.000000
-7.365700 0.000000
-7.348800 0.000000
-7.332000 0.000000
-7.315200 0.000000
-7.298300 0.000000
-7.281500 0.000000
-7.264700 0.000000
-7.247800 0.000000
-7.231000 0.000000
-7.214100 0.000000
-7.197300 0.000000
-7.180500 0.000000
-7.163600 0.000000
-7.146800 0.000000
-7.130000 0.000000
-7.113100 0.000000
-7.096300 0.000000
-7.079400 0.000000
-7.062600 0.000000
-7.045800 0.000000
-7.028900 0.000000
-7.012100 0.000000
-6.995300 0.000000
-6.978400 0.000000
-6.961600 0.000000
-6.944800 0.000000
-6.927900 0.000000
-6.911100 0.000000
-6.894200 0.000000
-6.877400 0.000000
-6.860600 0.000000
-6.843700 0.000000
-6.826900 0.000000
-6.810100 0.000000
-6.793200 0.000000
-6.776400 0.000000
-6.759600 0.000000
-6.742700 0.000000
-6.725900 0.000000
-6.709000 0.000000
-6.692200 0.000000
-6.675400 0.000000
-6.658500 0.000000
-6.641700 0.000000
-6.624900 0.000000
-6.608000 0.000000
-6.591200 0.000000
-6.574300 0.000000
-6.557500 0.000000
-6.540700 0.000000
-6.523800 0.000000
-6.507000 0.000000
-6.490200 0.000000
-6.473300 0.000000
-6.456500 0.000000
-6.439700 0.000000
-6.422800 0.000000
-6.406000 0.000000
-6.389100 0.000000
-6.372300 0.000000
-6.355500 0.000000
-6.338600 0.000000
-6.321800 0.000000
-6.305000 0.000000
-6.288100 0.000000
-6.271300 0.000000
-6.254500 0.000000
-6.237600 0.000000
-6.220800 0.000000
-6.203900 0.000000
-6.187100 0.000000
-6.170300 0.000000
-6.153400 0.000000
-6.136600 0.000000
-6.119800 0.000000
-6.102900 0.000000
-6.086100 0.000000
-6.069300 0.000000
-6.052400 0.000000
-6.035600 0.000000
-6.018700 0.000000
-6.001900 0.000000
-5.985100 0.052700
-5.968200 0.113700
-5.951400 0.189400
-5.934600 0.279600
-5.917700 0.373000
-5.900900 0.457900
-5.884000 0.544800
-5.867200 0.633500
-5.850400 0.725400
-5.833500 0.868100
-5.816700 0.972000
-5.799900 1.071800
-5.783000 1.139700
-5.766200 1.167100
-5.749400 1.190400
-5.732500 1.206900
-5.715700 1.220400
-5.698800 1.234500
-5.682000 1.242100
-5.665200 1.237400
-5.648300 1.223300
-5.631500 1.198500
-5.614700 1.185800
-5.597800 1.180200
-5.581000 1.181600
-5.564200 1.188500
-5.547300 1.196400
-5.530500 1.204800
-5.513600 1.213500
-5.496800 1.223000
-5.480000 1.233700
-5.463100 1.244700
-5.446300 1.337800
-5.429500 1.395200
-5.412600 1.458300
-5.395800 1.521400
-5.379000 1.576800
-5.362100 1.634300
-5.345300 1.694400
-5.328400 1.757200
-5.311600 1.823000
-5.294800 1.892000
-5.277900 1.955200
-5.261100 2.017800
-5.244300 2.080100
-5.227400 2.141600
-5.210600 2.204400
-5.193700 2.267800
-5.176900 2.332900
-5.160100 2.411700
-5.143200 2.486500
-5.126400 2.561500
-5.109600 2.723200
-5.092700 2.822500
-5.075900 2.918300
-5.059100 3.003800
-5.042200 3.077800
-5.025400 3.199400
-5.008500 3.297700
-4.991700 3.394500
-4.974900 3.466800
-4.958000 3.565800
-4.941200 3.599500
-4.924400 3.632000
-4.907500 3.661900
-4.890700 3.692400
-4.873900 3.712400
-4.857000 3.730800
-4.840200 3.751100
-4.823300 3.780500
-4.806500 3.526900
-4.789700 3.423900
-4.772800 3.449900
-4.756000 3.431500
-4.739200 3.435900
-4.722300 3.447100
-4.705500 3.545500
-4.688600 3.690000
-4.671800 3.802200
-4.655000 3.820200
-4.638100 3.695800
-4.621300 3.348800
-4.604500 2.113100
-4.587600 2.178700
-4.570800 2.206200
-4.554000 2.243700
-4.537100 2.276800
-4.520300 2.323500
-4.503400 2.347200
-4.486600 2.452200
-4.469800 2.557900
-4.452900 2.549000
-4.436100 2.637600
-4.419300 2.732700
-4.402400 2.835900
-4.385600 3.031400
-4.368800 3.172500
-4.351900 3.310300
-4.335100 3.422300
-4.318200 3.528500
-4.301400 3.628900
-4.284600 3.838000
-4.267700 4.098900
-4.250900 4.147000
-4.234100 4.190700
-4.217200 4.231700
-4.200400 4.112400
-4.183600 3.972300
-4.166700 3.925000
-4.149900 3.997000
-4.133000 4.026700
-4.116200 4.068800
-4.099400 4.385800
-4.082500 5.699600
-4.065700 6.594700
-4.048900 7.215900
-4.032000 8.050800
-4.015200 8.696900
-3.998300 9.343000
-3.981500 9.593800
-3.964700 9.551000
-3.947800 9.758300
-3.931000 8.222800
-3.914200 6.965900
-3.897300 4.620700
-3.880500 3.854500
-3.863700 3.220700
-3.846800 2.996300
-3.830000 2.788600
-3.813100 2.611700
-3.796300 2.444300
-3.779500 2.255700
-3.762600 2.478500
-3.745800 2.873200
-3.729000 3.463300
-3.712100 3.931100
-3.695300 4.756300
-3.678500 5.293200
-3.661600 5.753700
-3.644800 5.773400
-3.627900 6.297900
-3.611100 6.567400
-3.594300 6.876400
-3.577400 8.016900
-3.560600 7.456300
-3.543800 7.313000
-3.526900 8.276800
-3.510100 9.121500
-3.493300 10.351100
-3.476400 10.076000
-3.459600 9.701600
-3.442700 9.169600
-3.425900 8.809100
-3.409100 11.093400
-3.392200 9.013200
-3.375400 8.681500
-3.358600 8.128800
-3.341700 7.611400
-3.324900 7.176000
-3.308000 7.099300
-3.291200 7.367300
-3.274400 7.860600
-3.257500 7.727300
-3.240700 7.230700
-3.223900 6.719500
-3.207000 5.662000
-3.190200 5.273600
-3.173400 5.118500
-3.156500 5.101300
-3.139700 4.944400
-3.122800 4.874500
-3.106000 5.000200
-3.089200 4.747900
-3.072300 4.365100
-3.055500 3.963000
-3.038700 3.623200
-3.021800 3.318900
-3.005000 3.019600
-2.988200 2.640100
-2.971300 2.167100
-2.954500 1.941200
-2.937600 1.826800
-2.920800 1.728000
-2.904000 1.647100
-2.887100 1.614300
-2.870300 1.616400
-2.853500 1.583900
-2.836600 1.493500
-2.819800 1.391100
-2.803000 1.295100
-2.786100 1.205700
-2.769300 1.334800
-2.752400 1.370400
-2.735600 1.284400
-2.718800 1.028700
-2.701900 0.495200
-2.685100 0.000000
-2.668300 0.000000
-2.651400 0.000000
-2.634600 0.000000
-2.617700 0.000000
-2.600900 0.000000
-2.584100 0.000000
-2.567200 0.000000
-2.550400 0.000000
-2.533600 0.000000
-2.516700 0.000000
-2.499900 0.000000
-2.483100 0.000000
-2.466200 0.000000
-2.449400 0.000000
-2.432500 0.000000
-2.415700 0.000000
-2.398900 0.000000
-2.382000 0.000000
-2.365200 0.000000
-2.348400 0.000000
-2.331500 0.000000
-2.314700 0.000000
-2.297900 0.000000
-2.281000 0.000000
-2.264200 0.000000
-2.247300 0.000000
-2.230500 0.000000
-2.213700 0.000000
-2.196800 0.000000
-2.180000 0.000000
-2.163200 0.000000
-2.146300 0.000000
-2.129500 0.000000
-2.112600 0.000000
-2.095800 0.000000
-2.079000 0.000000
-2.062100 0.000000
-2.045300 0.000000
-2.028500 0.000000
-2.011600 0.000000
-1.994800 0.000000
-1.978000 0.000000
-1.961100 0.000000
-1.944300 0.000000
-1.927400 0.000000
-1.910600 0.000000
-1.893800 0.000000
-1.876900 0.000000
-1.860100 0.000000
-1.843300 0.000000
-1.826400 0.000000
-1.809600 0.000000
-1.792800 0.000000
-1.775900 0.000000
-1.759100 0.000000
-1.742200 0.000000
-1.725400 0.000000
-1.708600 0.000000
-1.691700 0.000000
-1.674900 0.000000
-1.658100 0.000000
-1.641200 0.000000
-1.624400 0.000000
-1.607600 0.000000
-1.590700 0.000000
-1.573900 0.000000
-1.557000 0.000000
-1.540200 0.000000
-1.523400 0.000000
-1.506500 0.000000
-1.489700 0.000000
-1.472900 0.000000
-1.456000 0.000000
-1.439200 0.000000
-1.422300 0.000000
-1.405500 0.000000
-1.388700 0.000000
-1.371800 0.000000
-1.355000 0.000000
-1.338200 0.000000
-1.321300 0.000000
-1.304500 0.000000
-1.287700 0.000000
-1.270800 0.000000
-1.254000 0.000000
-1.237100 0.000000
-1.220300 0.000000
-1.203500 0.000000
-1.186600 0.000000
-1.169800 0.000000
-1.153000 0.000000
-1.136100 0.000000
-1.119300 0.000000
-1.102500 0.000000
-1.085600 0.000000
-1.068800 0.000000
-1.051900 0.000000
-1.035100 0.000000
-1.018300 0.000000
-1.001400 0.000000
-0.984600 0.000000
-0.967800 0.000000
-0.950900 0.000000
-0.934100 0.000000
-0.917300 0.000000
-0.900400 0.000000
-0.883600 0.000000
-0.866700 0.000000
-0.849900 0.000000
-0.833100 0.000000
-0.816200 0.000000
-0.799400 0.000000
-0.782600 0.000000
-0.765700 0.000000
-0.748900 0.000000
-0.732000 0.000000
-0.715200 0.000000
-0.698400 0.000000
-0.681500 0.000000
-0.664700 0.000000
-0.647900 0.000000
-0.631000 0.000000
-0.614200 0.000000
-0.597400 0.000000
-0.580500 0.000000
-0.563700 0.000000
-0.546800 0.000000
-0.530000 0.000000
-0.513200 0.000000
-0.496300 0.000000
-0.479500 0.000000
-0.462700 0.000000
-0.445800 0.000000
-0.429000 0.000000
-0.412200 0.000000
-0.395300 0.000000
-0.378500 0.000000
-0.361600 0.000000
-0.344800 0.000000
-0.328000 0.000000
-0.311100 0.000000
-0.294300 0.000000
-0.277500 0.000000
-0.260600 0.000000
-0.243800 0.000000
-0.226900 0.000000
-0.210100 0.000000
-0.193300 0.000000
-0.176400 0.000000
-0.159600 0.000000
-0.142800 0.000000
-0.125900 0.000000
-0.109100 0.000000
-0.092300 0.000000
-0.075400 0.000000
-0.058600 0.000000
-0.041700 0.000000
-0.024900 0.000000
-0.008100 0.000000
0.008800 0.000000
0.025600 0.000000
0.042400 0.000000
0.059300 0.000000
0.076100 0.000000
0.092900 0.000000
0.109800 0.000000
0.126600 0.000000
0.143500 0.000000
0.160300 0.000000
0.177100 0.000000
0.194000 0.000000
0.210800 0.000000
0.227600 0.000000
0.244500 0.000000
0.261300 0.000000
0.278100 0.000000
0.295000 0.000000
0.311800 0.000000
0.328700 0.000000
0.345500 0.000000
0.362300 0.000000
0.379200 0.000000
0.396000 0.000000
0.412800 0.000000
0.429700 0.000000
0.446500 0.000000
0.463400 0.000000
0.480200 0.000000
0.497000 0.000000
0.513900 0.000000
0.530700 0.000000
0.547500 0.000000
0.564400 0.000000
0.581200 0.000000
0.598000 0.000000
0.614900 0.000000
0.631700 0.000000
0.648600 0.000000
0.665400 0.000000
0.682200 0.000000
0.699100 0.000000
0.715900 0.000000
0.732700 0.000000
0.749600 0.000000
0.766400 0.000000
0.783200 0.000000
0.800100 0.000000
0.816900 0.000000
0.833800 0.000000
0.850600 0.000000
0.867400 0.000000
0.884300 0.000000
0.901100 0.000000
0.917900 0.000000
0.934800 0.000000
0.951600 0.000000
0.968400 0.000000
0.985300 0.000000
1.002100 0.000000
1.019000 0.000000
1.035800 0.000000
1.052600 0.000000
1.069500 0.000000
1.086300 0.000000
1.103100 0.000000
1.120000 0.000000
1.136800 0.000000
1.153700 0.111700
1.170500 0.204500
1.187300 0.361600
1.204200 0.475800
1.221000 0.554300
1.237800 0.634000
1.254700 0.712100
1.271500 0.789200
1.288300 0.868900
1.305200 1.028300
1.322000 1.401200
1.338900 1.893400
1.355700 2.576300
1.372500 4.003100
1.389400 5.182700
1.406200 5.900000
1.423000 6.560800
1.439900 7.609500
1.456700 9.034000
1.473500 9.290600
1.490400 9.075200
1.507200 9.862100
1.524100 9.860800
1.540900 9.630700
1.557700 9.123300
1.574600 8.212100
1.591400 7.518900
1.608200 7.354300
1.625100 6.392000
1.641900 5.583000
1.658700 5.230000
1.675600 5.062800
1.692400 5.051700
1.709300 5.265000
1.726100 5.579200
1.742900 5.571500
1.759800 5.322100
1.776600 5.036500
1.793400 4.849400
1.810300 4.732600
1.827100 4.599600
1.844000 4.111900
1.860800 3.569700
1.877600 3.446300
1.894500 3.375600
1.911300 3.489100
1.928100 3.646100
1.945000 3.901400
1.961800 4.240400
1.978600 4.425100
1.995500 4.562100
2.012300 4.839700
2.029200 4.910900
2.046000 5.038300
2.062800 5.255400
2.079700 5.308400
2.096500 5.369800
2.113300 5.276500
2.130200 5.506600
2.147000 5.707000
2.163800 5.889000
2.180700 6.083800
2.197500 6.282300
2.214400 6.427300
2.231200 6.656100
2.248000 8.539800
2.264900 7.254900
2.281700 7.128200
2.298500 7.436800
2.315400 8.289900
2.332200 7.921000
2.349100 7.476800
2.365900 6.686500
2.382700 6.011700
2.399600 6.194500
2.416400 6.283900
2.433200 6.501700
2.450100 6.252600
2.466900 5.625500
2.483700 5.446200
2.500600 5.481100
2.517400 5.564500
2.534300 5.659700
2.551100 6.025800
2.567900 6.497500
2.584800 6.886300
2.601600 7.250300
2.618400 7.562100
2.635300 7.654600
2.652100 7.512500
2.668900 7.109400
2.685800 6.799600
2.702600 7.133500
2.719500 7.312200
2.736300 7.389500
2.753100 7.736400
2.770000 7.788700
2.786800 7.806200
2.803600 8.101800
2.820500 8.240500
2.837300 8.530500
2.854100 9.521400
2.871000 9.797600
2.887800 9.500900
2.904700 9.209900
2.921500 9.196600
2.938300 9.507900
2.955200 8.476000
2.972000 8.476600
2.988800 8.754600
3.005700 9.780200
3.022500 9.632600
3.039400 9.152600
3.056200 9.265400
3.073000 9.935400
3.089900 9.769200
3.106700 8.999600
3.123500 9.107600
3.140400 9.698900
3.157200 10.155900
3.174000 10.890200
3.190900 10.264900
3.207700 8.474500
3.224600 7.218100
3.241400 7.241100
3.258200 7.256000
3.275100 7.945200
3.291900 7.594300
3.308700 8.785500
3.325600 10.188200
3.342400 10.506000
3.359200 10.061200
3.376100 10.426900
3.392900 10.543400
3.409800 11.537300
3.426600 10.220100
3.443400 11.672700
3.460300 12.418500
3.477100 13.487100
3.493900 11.930600
3.510800 11.029100
3.527600 10.443300
3.544400 10.323600
3.561300 10.032200
3.578100 9.627300
3.595000 9.582400
3.611800 8.484800
3.628600 6.460300
3.645500 5.475600
3.662300 5.053000
3.679100 4.780700
3.696000 4.603200
3.712800 4.684900
3.729700 4.981700
3.746500 5.032500
3.763300 5.201200
3.780200 5.377100
3.797000 5.543200
3.813800 5.801400
3.830700 6.290000
3.847500 6.786000
3.864300 7.253300
3.881200 7.652300
3.898000 7.935000
3.914900 7.842000
3.931700 7.416500
3.948500 7.256400
3.965400 7.057600
3.982200 7.200200
3.999000 7.288600
4.015900 7.233400
4.032700 7.388100
4.049500 7.762700
4.066400 7.942600
4.083200 8.496100
4.100100 9.014600
4.116900 8.528600
4.133700 7.379400
4.150600 6.409800
4.167400 5.846400
4.184200 5.500000
4.201100 5.359700
4.217900 5.406900
4.234800 5.439700
4.251600 5.527200
4.268400 5.636900
4.285300 5.851400
4.302100 6.968800
4.318900 8.594600
4.335800 8.674300
4.352600 8.906900
4.369400 9.262500
4.386300 9.906300
4.403100 10.005800
4.420000 10.120700
4.436800 9.657600
4.453600 9.145300
4.470500 8.822300
4.487300 8.458200
4.504100 8.328500
4.521000 8.575500
4.537800 9.097400
4.554600 8.335700
4.571500 9.009800
4.588300 9.779300
4.605200 10.532900
4.622000 10.499900
4.638800 10.371400
4.655700 10.521900
4.672500 9.849900
4.689300 9.372900
4.706200 9.424400
4.723000 10.048000
4.739800 9.363600
4.756700 9.110900
4.773500 8.758700
4.790400 9.155200
4.807200 10.006700
4.824000 10.701700
4.840900 11.986600
4.857700 12.321500
4.874500 12.518500
4.891400 12.463000
4.908200 12.434300
4.925100 12.518700
4.941900 12.137100
4.958700 11.506400
4.975600 11.423500
4.992400 11.177500
5.009200 11.491700
5.026100 11.769700
5.042900 12.344000
5.059700 12.864600
5.076600 13.087800
5.093400 11.595200
5.110300 11.415200
5.127100 10.914100
5.143900 10.211100
5.160800 9.353400
5.177600 8.842600
5.194400 10.130800
5.211300 10.823100
5.228100 10.800800
5.244900 10.150600
5.261800 10.515500
5.278600 11.526500
5.295500 11.957900
5.312300 12.507900
5.329100 11.129400
5.346000 11.508200
5.362800 10.718900
5.379600 11.972900
5.396500 13.487700
5.413300 14.212900
5.430100 15.918700
5.447000 13.561700
5.463800 11.101600
5.480700 10.188600
5.497500 13.891000
5.514300 11.684500
5.531200 10.697200
5.548000 11.245700
5.564800 11.000200
5.581700 10.642400
5.598500 10.625800
5.615400 11.955100
5.632200 11.603600
5.649000 11.024000
5.665900 9.507100
5.682700 8.804800
5.699500 8.642000
5.716400 8.926300
5.733200 9.385600
5.750000 9.841500
5.766900 10.927100
5.783700 11.883900
5.800600 12.828000
5.817400 13.459100
5.834200 13.253900
5.851100 13.046500
5.867900 12.697500
5.884700 12.476000
5.901600 12.010000
5.918400 11.951100
5.935200 11.244700
5.952100 10.773700
5.968900 10.271700
5.985800 10.064700
6.002600 9.910500
6.019400 9.687200
6.036300 9.864300
6.053100 10.534600
6.069900 11.432200
6.086800 12.104800
6.103600 13.427900
6.120400 11.904500
6.137300 11.307000
6.154100 10.611300
6.171000 10.059200
6.187800 10.220500
6.204600 9.387800
6.221500 9.007800
6.238300 8.727400
6.255100 8.515000
6.272000 8.434800
6.288800 8.498800
6.305700 7.962100
6.322500 8.231600
6.339300 8.825300
6.356200 9.312300
6.373000 9.590800
6.389800 9.804600
6.406700 9.212100
6.423500 10.196700
6.440300 10.148800
6.457200 9.316800
6.474000 8.875700
6.490900 8.775100
6.507700 8.382000
6.524500 7.384800
6.541400 6.429300
6.558200 5.459600
6.575000 5.101600
6.591900 4.901200
6.608700 4.830500
6.625500 4.833000
6.642400 4.890000
6.659200 4.975000
6.676100 5.183600
6.692900 5.517100
6.709700 5.716100
6.726600 5.823400
6.743400 5.950500
6.760200 5.853800
6.777100 5.816500
6.793900 5.746100
6.810800 5.636500
6.827600 5.435700
6.844400 5.164400
6.861300 4.586200
6.878100 4.121700
6.894900 3.852600
6.911800 3.648700
6.928600 3.556200
6.945400 3.598200
6.962300 4.006200
6.979100 3.464200
6.996000 3.647300
7.012800 4.675500
7.029600 4.717400
7.046500 5.256900
7.063300 5.667700
7.080100 5.866500
7.097000 6.027400
7.113800 6.062200
7.130600 6.439400
7.147500 7.080000
7.164300 7.466300
7.181200 7.750800
7.198000 8.037100
7.214800 7.815800
7.231700 7.959700
7.248500 8.053500
7.265300 7.334800
7.282200 7.239600
7.299000 7.409000
7.315800 6.994000
7.332700 6.299000
7.349500 5.596200
7.366400 5.033200
7.383200 4.008200
7.400000 2.916800
7.416900 1.916100
7.433700 1.392100
7.450500 0.955900
7.467400 0.919600
7.484200 0.311300
7.501100 0.328200
7.517900 0.437200
7.534700 0.573800
7.551600 0.737300
7.568400 0.936100
7.585200 1.502200
7.602100 2.773300
7.618900 4.694600
7.635700 3.173700
7.652600 2.767000
7.669400 2.673300
7.686300 2.567500
7.703100 2.468500
7.719900 2.377600
7.736800 2.294500
7.753600 2.207800
7.770400 2.141500
7.787300 2.096700
7.804100 2.078900
7.820900 2.097300
7.837800 2.113400
7.854600 2.117500
7.871500 2.110900
7.888300 2.104200
7.905100 2.100000
7.922000 2.099000
7.938800 2.100700
7.955600 2.087400
7.972500 2.135200
7.989300 2.150800
8.006100 2.114200
8.023000 2.017200
8.039800 1.886900
8.056700 1.761800
8.073500 1.656800
8.090300 1.577900
8.107200 1.535600
8.124000 1.525000
8.140800 1.522600
8.157700 1.561700
8.174500 1.716100
8.191400 2.073800
8.208200 2.585300
8.225000 3.225700
8.241900 3.799900
8.258700 4.586500
8.275500 5.125500
8.292400 5.218500
8.309200 5.439700
8.326000 5.033200
8.342900 4.715300
8.359700 4.461300
8.376600 4.430900
8.393400 4.515200
8.410200 4.613900
8.427100 4.608300
8.443900 4.226000
8.460700 4.016200
8.477600 3.814200
8.494400 3.608900
8.511200 3.507800
8.528100 3.360300
8.544900 3.160000
8.561800 3.139100
8.578600 3.206600
8.595400 3.325600
8.612300 3.479900
8.629100 3.712400
8.645900 3.983000
8.662800 4.445300
8.679600 5.128600
8.696500 6.040700
8.713300 6.087900
8.730100 6.057300
8.747000 5.953800
8.763800 5.890900
8.780600 6.193700
8.797500 6.383300
8.814300 6.696700
8.831100 7.189900
8.848000 7.918400
8.864800 7.557000
8.881700 5.125900
8.898500 4.510800
8.915300 4.315200
8.932200 4.125600
8.949000 4.124200
8.965800 4.458800
8.982700 5.277900
8.999500 5.653700
9.016300 5.829000
9.033200 6.038200
9.050000 6.272700
9.066900 6.184400
9.083700 6.417600
9.100500 6.669100
9.117400 6.916600
9.134200 6.920600
9.151000 6.944000
9.167900 7.283400
9.184700 7.502300
9.201500 7.409700
9.218400 6.795800
9.235200 5.975500
9.252100 5.334800
9.268900 4.967400
9.285700 4.777500
9.302600 4.674600
9.319400 4.656900
9.336200 4.724800
9.353100 4.531600
9.369900 4.611600
9.386800 4.615600
9.403600 4.557100
9.420400 4.877900
9.437300 5.135400
9.454100 5.496300
9.470900 6.593000
9.487800 8.117000
9.504600 8.438100
9.521400 8.403700
9.538300 7.502900
9.555100 7.707400
9.572000 7.801400
9.588800 7.421900
9.605600 6.918100
9.622500 6.718900
9.639300 6.602200
9.656100 6.526500
9.673000 6.486900
9.689800 6.562900
9.706600 6.643800
9.723500 6.763500
9.740300 6.677100
9.757200 5.946800
9.774000 4.834000
9.790800 4.415700
9.807700 4.195300
9.824500 4.044700
9.841300 3.944700
9.858200 4.009000
9.875000 4.218800
9.891800 4.950900
9.908700 5.074000
9.925500 4.826600
9.942400 5.023400
9.959200 5.294700
9.976000 5.532300
9.992900 5.615700
10.009700 5.570300
10.026500 5.602200
10.043400 5.693200
10.060200 5.704000
10.077100 5.832800
10.093900 5.996600
10.110700 6.048200
10.127600 6.023300
10.144400 6.123300
10.161200 6.236000
10.178100 6.424600
10.194900 6.638800
10.211700 6.482300
10.228600 6.195400
10.245400 5.865100
10.262300 5.341200
10.279100 5.063400
10.295900 4.680400
10.312800 4.554100
10.329600 4.496000
10.346400 4.476500
10.363300 4.673600
10.380100 4.832300
