set title 'mp-1077125 - Density of States'
set xlabel 'Energy (eV)'
set ylabel 'DOS (states/eV)'
set grid
set xrange [-10:10]
set yrange [0:2.689]
set xzeroaxis lt -1
set terminal png size 800,600
set output 'mp-1077125_dos_gnuplot.png'
plot '-' using 1:2 with lines title 'DOS'
-15.458500 0.000000
-15.419800 0.000000
-15.381100 0.000000
-15.342500 0.000000
-15.303800 0.000000
-15.265100 0.000000
-15.226400 0.000000
-15.187800 0.000000
-15.149100 0.000000
-15.110400 0.000000
-15.071700 0.000000
-15.033000 0.000000
-14.994400 0.000000
-14.955700 0.000000
-14.917000 0.000000
-14.878300 0.000000
-14.839700 0.000000
-14.801000 0.000000
-14.762300 0.000000
-14.723600 0.000000
-14.685000 0.000000
-14.646300 0.000000
-14.607600 0.000000
-14.568900 0.000000
-14.530200 0.000000
-14.491600 0.000000
-14.452900 0.000000
-14.414200 0.000000
-14.375500 0.000000
-14.336900 0.000000
-14.298200 0.000000
-14.259500 0.000000
-14.220800 0.000000
-14.182200 0.000000
-14.143500 0.000000
-14.104800 0.000000
-14.066100 0.000000
-14.027500 0.000000
-13.988800 0.000000
-13.950100 0.000000
-13.911400 0.000000
-13.872700 0.000000
-13.834100 0.000000
-13.795400 0.000000
-13.756700 0.000000
-13.718000 0.000000
-13.679400 0.000000
-13.640700 0.000000
-13.602000 0.000000
-13.563300 0.000000
-13.524700 0.000000
-13.486000 0.000000
-13.447300 0.000000
-13.408600 0.000000
-13.370000 0.000000
-13.331300 0.000000
-13.292600 0.000000
-13.253900 0.000000
-13.215200 0.000000
-13.176600 0.000000
-13.137900 0.000000
-13.099200 0.000000
-13.060500 0.000000
-13.021900 0.000000
-12.983200 0.000000
-12.944500 0.000000
-12.905800 0.000000
-12.867200 0.000000
-12.828500 0.000000
-12.789800 0.000000
-12.751100 0.000000
-12.712500 0.000000
-12.673800 0.000000
-12.635100 0.000000
-12.596400 0.000000
-12.557700 0.000000
-12.519100 0.000000
-12.480400 0.000000
-12.441700 0.000000
-12.403000 0.000000
-12.364400 0.000000
-12.325700 0.000000
-12.287000 0.000000
-12.248300 0.000000
-12.209700 0.000000
-12.171000 0.000000
-12.132300 0.000000
-12.093600 0.000000
-12.055000 0.000000
-12.016300 0.000000
-11.977600 0.000000
-11.938900 0.000500
-11.900200 0.043000
-11.861600 0.116100
-11.822900 0.166600
-11.784200 0.190000
-11.745500 0.216500
-11.706900 0.257600
-11.668200 0.317900
-11.629500 0.360400
-11.590800 0.355200
-11.552200 0.340500
-11.513500 0.338500
-11.474800 0.342900
-11.436100 0.346500
-11.397500 0.347800
-11.358800 0.343400
-11.320100 0.338300
-11.281400 0.339100
-11.242700 0.344900
-11.204100 0.350900
-11.165400 0.352300
-11.126700 0.350600
-11.088000 0.349900
-11.049400 0.349600
-11.010700 0.349100
-10.972000 0.347100
-10.933300 0.342800
-10.894700 0.340400
-10.856000 0.341500
-10.817300 0.343200
-10.778600 0.345300
-10.740000 0.347700
-10.701300 0.350400
-10.662600 0.353400
-10.623900 0.355800
-10.585200 0.355600
-10.546600 0.354500
-10.507900 0.353800
-10.469200 0.353000
-10.430500 0.351700
-10.391900 0.349200
-10.353200 0.346900
-10.314500 0.346300
-10.275800 0.346700
-10.237200 0.347500
-10.198500 0.348500
-10.159800 0.349600
-10.121100 0.351000
-10.082400 0.352600
-10.043800 0.354500
-10.005100 0.356300
-9.966400 0.358100
-9.927700 0.359800
-9.889100 0.360100
-9.850400 0.359300
-9.811700 0.358900
-9.773000 0.358500
-9.734400 0.361400
-9.695700 0.386000
-9.657000 0.422000
-9.618300 0.436200
-9.579700 0.443700
-9.541000 0.457700
-9.502300 0.468900
-9.463600 0.484000
-9.424900 0.499700
-9.386300 0.509800
-9.347600 0.516000
-9.308900 0.525000
-9.270200 0.534900
-9.231600 0.544800
-9.192900 0.555100
-9.154200 0.565800
-9.115500 0.576600
-9.076900 0.587900
-9.038200 0.598700
-8.999500 0.607300
-8.960800 0.615000
-8.922200 0.623600
-8.883500 0.632600
-8.844800 0.641700
-8.806100 0.651000
-8.767400 0.661100
-8.728800 0.672400
-8.690100 0.691300
-8.651400 0.711800
-8.612700 0.736000
-8.574100 0.745100
-8.535400 0.740500
-8.496700 0.742800
-8.458000 0.747600
-8.419400 0.751600
-8.380700 0.753200
-8.342000 0.753000
-8.303300 0.752000
-8.264700 0.753000
-8.226000 0.756500
-8.187300 0.760000
-8.148600 0.764000
-8.109900 0.800300
-8.071300 0.883500
-8.032600 1.019300
-7.993900 1.032100
-7.955200 0.949700
-7.916600 0.885800
-7.877900 0.837400
-7.839200 0.818400
-7.800500 0.806300
-7.761900 0.787200
-7.723200 0.757400
-7.684500 0.740400
-7.645800 0.729700
-7.607200 0.725000
-7.568500 0.722200
-7.529800 0.719400
-7.491100 0.716300
-7.452400 0.713100
-7.413800 0.708300
-7.375100 0.700800
-7.336400 0.689900
-7.297700 0.684400
-7.259100 0.681700
-7.220400 0.814000
-7.181700 0.947100
-7.143000 0.973500
-7.104400 1.071200
-7.065700 1.137200
-7.027000 1.132800
-6.988300 1.099400
-6.949700 1.081700
-6.911000 1.054600
-6.872300 1.038600
-6.833600 1.015400
-6.794900 0.980200
-6.756300 0.951200
-6.717600 0.928400
-6.678900 0.907300
-6.640200 0.885100
-6.601600 0.860600
-6.562900 0.840100
-6.524200 0.810700
-6.485500 0.777700
-6.446900 0.754800
-6.408200 0.732000
-6.369500 0.715900
-6.330800 0.702700
-6.292200 0.691000
-6.253500 0.680300
-6.214800 0.669500
-6.176100 0.661000
-6.137400 0.651500
-6.098800 0.644400
-6.060100 0.638600
-6.021400 0.629600
-5.982700 0.620800
-5.944100 0.614000
-5.905400 0.605200
-5.866700 0.597600
-5.828000 0.591900
-5.789400 0.587000
-5.750700 0.583100
-5.712000 0.579800
-5.673300 0.576200
-5.634600 0.573800
-5.596000 0.571600
-5.557300 0.569800
-5.518600 0.568400
-5.479900 0.567500
-5.441300 0.592500
-5.402600 0.646900
-5.363900 0.703300
-5.325200 0.762500
-5.286600 0.840200
-5.247900 0.942000
-5.209200 1.032700
-5.170500 1.070500
-5.131900 1.075900
-5.093200 1.101100
-5.054500 1.141500
-5.015800 1.206700
-4.977100 1.275100
-4.938500 1.379400
-4.899800 1.331700
-4.861100 1.210500
-4.822400 1.195900
-4.783800 1.178800
-4.745100 1.156200
-4.706400 1.136300
-4.667700 1.104700
-4.629100 1.089600
-4.590400 1.081600
-4.551700 1.069000
-4.513000 1.087400
-4.474400 1.143100
-4.435700 1.055400
-4.397000 0.996100
-4.358300 0.984200
-4.319600 0.953700
-4.281000 0.936500
-4.242300 0.923900
-4.203600 0.910300
-4.164900 0.897400
-4.126300 0.888700
-4.087600 0.882200
-4.048900 0.877300
-4.010200 0.875800
-3.971600 0.866900
-3.932900 0.896700
-3.894200 0.851100
-3.855500 0.847500
-3.816900 0.847400
-3.778200 0.848600
-3.739500 0.852500
-3.700800 0.842300
-3.662100 0.778800
-3.623500 0.772100
-3.584800 0.746700
-3.546100 0.673000
-3.507400 0.680900
-3.468800 0.751400
-3.430100 0.860600
-3.391400 0.909600
-3.352700 1.001400
-3.314100 1.298700
-3.275400 1.263100
-3.236700 1.220800
-3.198000 1.150200
-3.159400 0.935500
-3.120700 0.750200
-3.082000 0.625100
-3.043300 0.541400
-3.004600 0.476600
-2.966000 0.449500
-2.927300 0.444500
-2.888600 0.444400
-2.849900 0.460900
-2.811300 0.479200
-2.772600 0.488200
-2.733900 0.492200
-2.695200 0.499100
-2.656600 0.505600
-2.617900 0.532600
-2.579200 0.551300
-2.540500 0.632700
-2.501900 0.944600
-2.463200 0.895900
-2.424500 0.947000
-2.385800 1.097600
-2.347100 1.363200
-2.308500 1.272400
-2.269800 1.420500
-2.231100 1.522300
-2.192400 1.530200
-2.153800 1.499100
-2.115100 1.513100
-2.076400 1.508400
-2.037700 1.499600
-1.999100 1.534400
-1.960400 1.600100
-1.921700 1.688400
-1.883000 1.818000
-1.844400 1.892800
-1.805700 1.844000
-1.767000 1.771300
-1.728300 1.711700
-1.689600 1.602500
-1.651000 1.601700
-1.612300 1.686800
-1.573600 1.487000
-1.534900 1.346500
-1.496300 1.240800
-1.457600 1.138400
-1.418900 1.101000
-1.380200 1.083200
-1.341600 1.090600
-1.302900 1.117900
-1.264200 1.176500
-1.225500 1.164500
-1.186800 1.131400
-1.148200 1.137600
-1.109500 1.149700
-1.070800 1.183700
-1.032100 1.267000
-0.993500 1.224600
-0.954800 1.198900
-0.916100 1.183300
-0.877400 1.166400
-0.838800 1.138700
-0.800100 1.091700
-0.761400 1.015400
-0.722700 0.951700
-0.684100 0.897200
-0.645400 0.848600
-0.606700 0.775200
-0.568000 0.720600
-0.529300 0.675900
-0.490700 0.638400
-0.452000 0.609800
-0.413300 0.599600
-0.374600 0.596300
-0.336000 0.596400
-0.297300 0.614300
-0.258600 0.612500
-0.219900 0.614400
-0.181300 0.598000
-0.142600 0.584400
-0.103900 0.578900
-0.065200 0.597900
-0.026600 0.609600
0.012100 0.638700
0.050800 0.765400
0.089500 0.824900
0.128200 0.879600
0.166800 0.949700
0.205500 1.024600
0.244200 1.102000
0.282900 1.212700
0.321500 1.413000
0.360200 1.599700
0.398900 1.817500
0.437600 1.894000
0.476200 1.961600
0.514900 1.904600
0.553600 1.824200
0.592300 1.848100
0.630900 1.884000
0.669600 1.869000
0.708300 1.925000
0.747000 1.904300
0.785700 1.826800
0.824300 1.797800
0.863000 1.733100
0.901700 1.652300
0.940400 1.544200
0.979000 1.442900
1.017700 1.466900
1.056400 1.511400
1.095100 1.549700
1.133700 1.591200
1.172400 1.587700
1.211100 1.625700
1.249800 1.699200
1.288400 1.773200
1.327100 1.665200
1.365800 1.433300
1.404500 1.385700
1.443200 1.325500
1.481800 1.286200
1.520500 1.314000
1.559200 1.389300
1.597900 1.472900
1.636500 1.612500
1.675200 1.634900
1.713900 1.724600
1.752600 1.807900
1.791200 1.840400
1.829900 1.808100
1.868600 1.744400
1.907300 1.784200
1.945900 1.832900
1.984600 1.817700
2.023300 1.797600
2.062000 1.827700
2.100700 1.864300
2.139300 1.834800
2.178000 1.906700
2.216700 1.991100
2.255400 2.042100
2.294000 2.070000
2.332700 2.011500
2.371400 1.917700
2.410100 1.847700
2.448700 1.829200
2.487400 1.842300
2.526100 1.862700
2.564800 1.889000
2.603400 1.874700
2.642100 1.862100
2.680800 1.877900
2.719500 1.890500
2.758200 1.923900
2.796800 1.993900
2.835500 2.046300
2.874200 1.979800
2.912900 2.057100
2.951500 2.044900
2.990200 2.091300
3.028900 2.078700
3.067600 2.066900
3.106200 1.992500
3.144900 1.896500
3.183600 1.886200
3.222300 1.857600
3.261000 1.938200
3.299600 1.973800
3.338300 1.999300
3.377000 2.045200
3.415700 2.048300
3.454300 2.091200
3.493000 2.084000
3.531700 2.048900
3.570400 2.109600
3.609000 2.192500
3.647700 2.346400
3.686400 2.186700
3.725100 2.162100
3.763700 2.124600
3.802400 2.084900
3.841100 2.071200
3.879800 2.040500
3.918500 2.065600
3.957100 2.062300
3.995800 2.148000
4.034500 2.214600
4.073200 2.243000
4.111800 2.274200
4.150500 2.336800
4.189200 2.369900
4.227900 2.366600
4.266500 2.392200
4.305200 2.444800
4.343900 2.347500
4.382600 2.277500
4.421200 2.191200
4.459900 2.156700
4.498600 2.127000
4.537300 2.130900
4.576000 2.124400
4.614600 2.135000
4.653300 2.131000
4.692000 2.140200
4.730700 2.143000
4.769300 2.147200
4.808000 2.159300
4.846700 2.141600
4.885400 2.105400
4.924000 2.161600
4.962700 2.141200
5.001400 2.164800
5.040100 2.187900
5.078700 2.224800
5.117400 2.265800
5.156100 2.292700
5.194800 2.337500
5.233500 2.277500
5.272100 2.283900
5.310800 2.318800
5.349500 2.354400
5.388200 2.339000
5.426800 2.281900
5.465500 2.254000
5.504200 2.234100
5.542900 2.206200
5.581500 2.177600
5.620200 2.161100
5.658900 2.147000
5.697600 2.110800
5.736200 2.089300
5.774900 2.104100
5.813600 2.122300
5.852300 2.144100
5.891000 2.177700
5.929600 2.219300
5.968300 2.264400
6.007000 2.269300
6.045700 2.343500
6.084300 2.211500
6.123000 2.120000
6.161700 1.928400
6.200400 1.760000
6.239000 1.644900
6.277700 1.530600
6.316400 1.404900
6.355100 1.271200
6.393700 1.171300
6.432400 1.093600
6.471100 1.049100
6.509800 1.023200
6.548500 1.005300
6.587100 0.984700
6.625800 0.964900
6.664500 0.948000
6.703200 0.938200
6.741800 0.932500
6.780500 0.939200
6.819200 0.940300
6.857900 1.024800
6.896500 0.935400
6.935200 0.848500
6.973900 0.733200
7.012600 0.714900
7.051200 0.708100
7.089900 0.701800
7.128600 0.702300
7.167300 0.701000
7.206000 0.697400
7.244600 0.682400
7.283300 0.673100
7.322000 0.666900
7.360700 0.664700
7.399300 0.662900
7.438000 0.658300
7.476700 0.654200
7.515400 0.650300
7.554000 0.646000
7.592700 0.643300
7.631400 0.640400
7.670100 0.637500
7.708800 0.634600
7.747400 0.630600
7.786100 0.625500
7.824800 0.623800
7.863500 0.621000
7.902100 0.617500
7.940800 0.612400
7.979500 0.607100
8.018200 0.612400
8.056800 0.616500
8.095500 0.616800
8.134200 0.613300
8.172900 0.614300
8.211500 0.615900
8.250200 0.618800
8.288900 0.622700
8.327600 0.625800
8.366300 0.626600
8.404900 0.625200
8.443600 0.620100
8.482300 0.617900
8.521000 0.629600
8.559600 0.621200
8.598300 0.634000
8.637000 0.639200
8.675700 0.639800
8.714300 0.641300
8.753000 0.649600
8.791700 0.670800
8.830400 0.769100
8.869000 0.837000
8.907700 0.832900
8.946400 0.830200
8.985100 0.918900
9.023800 1.063900
9.062400 1.099700
9.101100 1.107100
9.139800 1.107700
9.178500 1.098900
9.217100 1.076600
9.255800 1.054900
9.294500 1.029600
9.333200 0.996400
9.371800 0.810000
9.410500 0.547400
9.449200 0.479700
9.487900 0.432300
9.526500 0.394200
9.565200 0.360900
9.603900 0.340300
9.642600 0.317100
9.681300 0.277100
9.719900 0.246100
9.758600 0.217300
9.797300 0.190700
9.836000 0.166300
9.874600 0.143500
9.913300 0.121300
9.952000 0.099300
9.990700 0.079100
10.029300 0.060400
10.068000 0.041500
10.106700 0.029900
10.145400 0.000400
10.184000 0.000000
10.222700 0.000000
10.261400 0.000000
10.300100 0.000000
10.338800 0.000000
10.377400 0.000000
10.416100 0.000000
10.454800 0.000000
10.493500 0.000000
10.532100 0.000000
10.570800 0.000000
10.609500 0.000000
10.648200 0.000000
10.686800 0.000000
10.725500 0.000000
10.764200 0.000000
10.802900 0.000000
10.841500 0.000000
10.880200 0.000000
10.918900 0.000000
10.957600 0.000000
10.996300 0.000000
11.034900 0.000000
11.073600 0.000000
11.112300 0.000000
11.151000 0.000000
11.189600 0.000000
11.228300 0.000000
11.267000 0.000000
11.305700 0.000000
11.344300 0.000000
11.383000 0.000000
11.421700 0.000000
11.460400 0.000000
11.499000 0.000000
11.537700 0.000000
11.576400 0.000000
11.615100 0.000000
11.653800 0.000000
11.692400 0.000000
11.731100 0.000000
11.769800 0.000000
11.808500 0.000000
11.847100 0.000000
11.885800 0.000000
11.924500 0.000000
11.963200 0.000000
12.001800 0.000000
12.040500 0.000000
12.079200 0.000000
12.117900 0.000000
12.156600 0.000000
12.195200 0.000000
12.233900 0.000000
12.272600 0.000000
12.311300 0.000000
12.349900 0.000000
12.388600 0.000000
12.427300 0.000000
12.466000 0.000000
12.504600 0.000000
12.543300 0.000000
12.582000 0.000000
12.620700 0.000000
12.659300 0.000000
12.698000 0.000000
12.736700 0.000000
12.775400 0.000000
12.814100 0.000000
12.852700 0.000000
12.891400 0.000000
12.930100 0.000000
12.968800 0.000000
13.007400 0.002800
13.046100 0.027500
13.084800 0.074100
13.123500 0.134500
13.162100 0.198500
13.200800 0.229500
13.239500 0.238600
13.278200 0.252800
13.316800 0.262900
13.355500 0.282800
13.394200 0.309800
13.432900 0.321900
13.471600 0.330100
13.510200 0.350800
13.548900 0.382100
13.587600 0.415900
13.626300 0.456100
13.664900 0.503000
13.703600 0.534100
13.742300 0.547300
13.781000 0.573100
13.819600 0.561200
13.858300 0.566500
13.897000 0.590200
13.935700 0.630700
13.974300 0.678800
14.013000 0.732800
14.051700 0.790100
14.090400 0.857600
14.129100 0.876300
14.167700 0.874200
14.206400 0.897700
14.245100 0.984500
14.283800 1.033500
14.322400 1.119300
14.361100 1.275100
14.399800 1.221900
14.438500 1.172100
14.477100 1.145900
14.515800 1.137600
14.554500 1.137400
14.593200 1.140600
14.631800 1.137200
14.670500 1.144100
14.709200 1.152300
14.747900 1.162700
14.786600 1.181900
14.825200 1.197900
14.863900 1.256700
14.902600 1.247700
14.941300 1.279600
14.979900 1.321400
15.018600 1.363400
15.057300 1.363100
15.096000 1.378400
15.134600 1.387200
15.173300 1.408400
15.212000 1.434200
15.250700 1.461900
15.289300 1.490800
15.328000 1.518600
15.366700 1.560400
15.405400 1.586000
15.444100 1.602200
15.482700 1.624800
15.521400 1.658000
15.560100 1.694900
15.598800 1.739700
15.637400 1.795800
15.676100 1.847500
15.714800 1.901200
15.753500 1.986600
15.792100 2.049900
15.830800 2.104800
15.869500 2.175800
15.908200 2.213900
15.946800 2.254800
15.985500 2.154500
16.024200 2.138000
16.062900 2.178600
16.101600 2.272400
16.140200 2.263500
16.178900 2.471300
16.217600 2.422800
16.256300 2.332300
16.294900 2.284000
16.333600 2.209900
16.372300 2.173300
16.411000 2.215400
16.449600 2.322600
16.488300 2.411500
16.527000 2.506400
16.565700 2.572100
16.604400 2.646100
16.643000 2.769900
16.681700 2.918600
16.720400 3.067600
16.759100 3.133400
16.797700 2.978600
16.836400 2.954200
16.875100 2.736700
16.913800 2.586500
16.952400 2.568600
16.991100 2.635000
17.029800 2.844800
17.068500 2.512000
17.107100 2.512000
17.145800 2.556300
17.184500 2.575600
17.223200 2.576800
17.261900 2.575600
17.300500 2.530000
17.339200 2.488500
17.377900 2.622300
17.416600 2.844700
17.455200 3.040800
17.493900 2.672000
17.532600 2.464500
17.571300 2.392500
17.609900 2.404100
17.648600 2.491000
17.687300 2.485600
17.726000 2.510700
17.764600 2.514000
17.803300 2.635700
17.842000 2.604900
17.880700 2.478200
17.919400 2.463800
17.958000 2.533300
17.996700 2.613200
18.035400 2.670700
18.074100 2.647400
18.112700 2.488600
18.151400 2.434400
18.190100 2.375300
18.228800 2.348300
18.267400 2.340900
18.306100 2.344200
18.344800 2.364500
18.383500 2.427100
18.422100 2.371200
18.460800 2.395500
18.499500 2.464300
18.538200 2.532800
18.576900 2.533800
18.615500 2.579600
18.654200 2.528400
18.692900 2.414700
18.731600 2.405000
18.770200 2.391700
18.808900 2.311800
18.847600 2.294300
18.886300 2.266000
18.924900 2.243200
18.963600 2.196700
19.002300 2.229600
19.041000 2.203300
19.079600 2.128400
19.118300 2.101700
19.157000 2.069200
19.195700 2.047500
19.234400 2.077800
19.273000 2.166400
19.311700 2.262700
19.350400 2.286800
19.389100 2.219300
19.427700 2.205000
19.466400 2.160200
19.505100 2.173900
19.543800 2.214400
19.582400 2.233000
19.621100 2.259900
19.659800 2.299700
19.698500 2.267300
19.737100 2.170100
19.775800 2.140400
19.814500 2.114800
19.853200 2.141900
19.891900 2.181800
19.930500 2.234700
19.969200 2.252300
20.007900 2.224900
20.046600 2.156500
20.085200 2.054900
20.123900 2.001700
20.162600 1.884100
20.201300 1.830900
20.239900 1.842900
20.278600 1.816700
20.317300 1.766700
20.356000 1.710700
20.394600 1.700800
20.433300 1.699600
20.472000 1.685200
20.510700 1.635700
20.549400 1.657800
20.588000 1.752300
20.626700 1.831900
20.665400 1.937900
20.704100 2.053400
20.742700 2.154600
20.781400 2.262900
20.820100 2.337900
20.858800 2.463900
20.897400 2.729400
20.936100 2.973200
20.974800 2.869300
21.013500 2.623100
21.052200 2.327500
21.090800 2.130200
21.129500 2.185200
21.168200 2.113800
21.206900 2.076900
21.245500 2.124400
21.284200 2.253900
21.322900 2.273500
21.361600 2.275500
21.400200 2.409300
21.438900 2.439400
21.477600 2.382900
21.516300 2.280900
21.554900 2.210400
21.593600 2.133100
21.632300 2.065000
21.671000 2.002000
21.709700 1.953000
21.748300 1.892800
21.787000 1.834500
21.825700 1.788500
21.864400 1.746200
21.903000 1.703200
21.941700 1.680500
21.980400 1.678200
22.019100 1.678300
22.057700 1.752400
22.096400 1.746200
22.135100 1.780500
22.173800 1.901800
22.212400 2.090100
22.251100 2.193000
22.289800 2.239300
22.328500 2.359100
22.367200 2.340300
22.405800 2.387900
22.444500 2.479700
22.483200 2.668500
22.521900 2.764600
22.560500 2.727000
22.599200 2.655900
22.637900 2.805900
22.676600 3.047600
22.715200 2.954700
22.753900 2.945400
22.792600 2.903500
22.831300 2.712400
22.869900 2.391800
22.908600 2.244100
22.947300 2.171100
22.986000 2.179600
23.024700 2.256800
23.063300 2.291600
23.102000 2.324200
23.140700 2.301900
23.179400 2.275400
23.218000 2.346000
23.256700 2.463700
23.295400 2.581300
23.334100 2.727600
23.372700 2.888100
23.411400 2.944100
23.450100 2.925200
23.488800 2.752500
23.527400 2.571500
23.566100 2.359300
23.604800 2.212400
23.643500 1.930400
23.682200 1.788000
23.720800 1.761400
23.759500 1.746200
23.798200 1.730600
23.836900 1.729700
23.875500 1.743900
23.914200 1.776400
23.952900 1.827900
23.991600 1.879000
24.030200 1.938200
24.068900 1.957000
24.107600 1.993900
24.146300 2.171200
24.184900 2.293300
24.223600 2.407000
24.262300 2.255100
24.301000 2.088400
24.339700 2.141400
24.378300 2.305600
24.417000 2.418900
24.455700 2.377600
24.494400 2.306000
24.533000 2.388800
24.571700 2.174200
24.610400 2.040200
24.649100 1.953100
24.687700 1.823000
24.726400 1.668400
24.765100 1.633900
24.803800 1.639000
24.842500 1.671400
24.881100 1.600000
