set title 'mp-1056376 - Density of States'
set xlabel 'Energy (eV)'
set ylabel 'DOS (states/eV)'
set grid
set xrange [-10:10]
set yrange [0:2.730]
set xzeroaxis lt -1
set terminal png size 800,600
set output 'mp-1056376_dos_gnuplot.png'
plot '-' using 1:2 with lines title 'DOS'
-53.402700 0.000000
-53.306700 0.000000
-53.210600 0.000000
-53.114600 0.000000
-53.018500 0.000000
-52.922500 0.000000
-52.826500 0.000000
-52.730400 0.000000
-52.634400 0.000000
-52.538400 0.000000
-52.442300 0.000000
-52.346300 0.000000
-52.250200 0.000000
-52.154200 0.000000
-52.058200 0.000000
-51.962100 0.000000
-51.866100 0.000000
-51.770100 0.000000
-51.674000 0.000000
-51.578000 0.000000
-51.482000 0.000000
-51.385900 0.000000
-51.289900 0.000000
-51.193800 0.000000
-51.097800 0.000000
-51.001800 0.000000
-50.905700 0.000000
-50.809700 0.000000
-50.713700 0.000000
-50.617600 0.000000
-50.521600 0.000000
-50.425500 0.000000
-50.329500 0.000000
-50.233500 0.000000
-50.137400 0.000000
-50.041400 0.000000
-49.945400 0.000000
-49.849300 0.000000
-49.753300 0.000000
-49.657200 0.000000
-49.561200 0.000000
-49.465200 0.000000
-49.369100 0.000000
-49.273100 0.000000
-49.177100 0.000000
-49.081000 0.000000
-48.985000 0.000000
-48.888900 0.000000
-48.792900 0.000000
-48.696900 0.000000
-48.600800 0.000000
-48.504800 0.000000
-48.408800 0.000000
-48.312700 0.000000
-48.216700 0.000000
-48.120600 0.000000
-48.024600 0.000000
-47.928600 0.000000
-47.832500 0.000000
-47.736500 0.000000
-47.640500 0.000000
-47.544400 0.000000
-47.448400 0.000000
-47.352400 0.000000
-47.256300 0.000000
-47.160300 0.000000
-47.064200 0.000000
-46.968200 0.000000
-46.872200 0.000000
-46.776100 0.000000
-46.680100 0.000000
-46.584100 0.000000
-46.488000 0.000000
-46.392000 0.000000
-46.295900 0.000000
-46.199900 0.000000
-46.103900 0.000000
-46.007800 0.000000
-45.911800 0.000000
-45.815800 0.000000
-45.719700 0.000000
-45.623700 0.000000
-45.527600 0.000000
-45.431600 0.000000
-45.335600 0.000000
-45.239500 0.000000
-45.143500 0.000000
-45.047500 0.000000
-44.951400 0.000000
-44.855400 0.000000
-44.759300 0.000000
-44.663300 0.698200
-44.567300 5.075500
-44.471200 14.053800
-44.375200 3.055200
-44.279200 0.000000
-44.183100 0.000000
-44.087100 0.000000
-43.991100 0.000000
-43.895000 0.000000
-43.799000 0.000000
-43.702900 0.000000
-43.606900 0.000000
-43.510900 0.000000
-43.414800 0.000000
-43.318800 0.000000
-43.222800 0.000000
-43.126700 0.000000
-43.030700 0.000000
-42.934600 0.000000
-42.838600 0.000000
-42.742600 0.000000
-42.646500 0.000000
-42.550500 0.000000
-42.454500 0.000000
-42.358400 0.000000
-42.262400 0.000000
-42.166300 0.000000
-42.070300 0.000000
-41.974300 0.000000
-41.878200 0.000000
-41.782200 0.000000
-41.686200 0.000000
-41.590100 0.000000
-41.494100 0.000000
-41.398000 0.000000
-41.302000 0.000000
-41.206000 0.000000
-41.109900 0.000000
-41.013900 0.000000
-40.917900 0.000000
-40.821800 0.000000
-40.725800 0.000000
-40.629800 0.000000
-40.533700 0.000000
-40.437700 0.000000
-40.341600 0.000000
-40.245600 0.000000
-40.149600 0.000000
-40.053500 0.000000
-39.957500 0.000000
-39.861500 0.000000
-39.765400 0.000000
-39.669400 0.000000
-39.573300 0.000000
-39.477300 0.000000
-39.381300 0.000000
-39.285200 0.000000
-39.189200 0.000000
-39.093200 0.000000
-38.997100 0.000000
-38.901100 0.000000
-38.805000 0.000000
-38.709000 0.000000
-38.613000 0.000000
-38.516900 0.000000
-38.420900 0.000000
-38.324900 0.000000
-38.228800 0.000000
-38.132800 0.000000
-38.036700 0.000000
-37.940700 0.000000
-37.844700 0.000000
-37.748600 0.000000
-37.652600 0.000000
-37.556600 0.000000
-37.460500 0.000000
-37.364500 0.000000
-37.268500 0.000000
-37.172400 0.000000
-37.076400 0.000000
-36.980300 0.000000
-36.884300 0.000000
-36.788300 0.000000
-36.692200 0.000000
-36.596200 0.000000
-36.500200 0.000000
-36.404100 0.000000
-36.308100 0.000000
-36.212000 0.000000
-36.116000 0.000000
-36.020000 0.000000
-35.923900 0.000000
-35.827900 0.000000
-35.731900 0.000000
-35.635800 0.000000
-35.539800 0.000000
-35.443700 0.000000
-35.347700 0.000000
-35.251700 0.000000
-35.155600 0.000000
-35.059600 0.000000
-34.963600 0.000000
-34.867500 0.000000
-34.771500 0.000000
-34.675400 0.000000
-34.579400 0.000000
-34.483400 0.000000
-34.387300 0.000000
-34.291300 0.000000
-34.195300 0.000000
-34.099200 0.000000
-34.003200 0.000000
-33.907200 0.000000
-33.811100 0.000000
-33.715100 0.000000
-33.619000 0.000000
-33.523000 0.000000
-33.427000 0.000000
-33.330900 0.000000
-33.234900 0.000000
-33.138900 0.000000
-33.042800 0.000000
-32.946800 0.000000
-32.850700 0.000000
-32.754700 0.000000
-32.658700 0.000000
-32.562600 0.000000
-32.466600 0.000000
-32.370600 0.000000
-32.274500 0.000000
-32.178500 0.000000
-32.082400 0.000000
-31.986400 0.000000
-31.890400 0.000000
-31.794300 0.000000
-31.698300 0.000000
-31.602300 0.000000
-31.506200 0.000000
-31.410200 0.000000
-31.314100 0.000000
-31.218100 0.000000
-31.122100 0.000000
-31.026000 0.000000
-30.930000 0.000000
-30.834000 0.000000
-30.737900 0.000000
-30.641900 0.000000
-30.545800 0.000000
-30.449800 0.000000
-30.353800 0.000000
-30.257700 0.000000
-30.161700 0.000000
-30.065700 0.000000
-29.969600 0.000000
-29.873600 0.000000
-29.777600 0.000000
-29.681500 0.000000
-29.585500 0.000000
-29.489400 0.000000
-29.393400 0.000000
-29.297400 0.000000
-29.201300 0.000000
-29.105300 0.000000
-29.009300 0.000000
-28.913200 0.000000
-28.817200 0.000000
-28.721100 0.000000
-28.625100 0.000000
-28.529100 0.000000
-28.433000 0.000000
-28.337000 0.000000
-28.241000 0.000000
-28.144900 0.000000
-28.048900 0.000000
-27.952800 0.000000
-27.856800 0.000000
-27.760800 0.000000
-27.664700 0.000000
-27.568700 0.000000
-27.472700 0.000000
-27.376600 0.000000
-27.280600 0.000000
-27.184500 0.000000
-27.088500 0.000000
-26.992500 0.000000
-26.896400 0.000000
-26.800400 0.000000
-26.704400 0.000000
-26.608300 0.000000
-26.512300 0.000000
-26.416300 0.000000
-26.320200 0.000000
-26.224200 0.000000
-26.128100 0.000000
-26.032100 0.000000
-25.936100 0.000000
-25.840000 0.000000
-25.744000 0.000000
-25.648000 0.000000
-25.551900 0.000000
-25.455900 0.000000
-25.359800 0.000000
-25.263800 0.000000
-25.167800 0.000000
-25.071700 0.000000
-24.975700 0.000000
-24.879700 0.000000
-24.783600 0.000000
-24.687600 0.000000
-24.591500 0.000000
-24.495500 0.000000
-24.399500 0.000000
-24.303400 0.000000
-24.207400 0.000000
-24.111400 0.000000
-24.015300 0.000000
-23.919300 0.000000
-23.823200 0.000000
-23.727200 0.000000
-23.631200 0.000000
-23.535100 0.000000
-23.439100 0.000000
-23.343100 1.092300
-23.247000 3.143400
-23.151000 5.423900
-23.055000 6.040600
-22.958900 5.088900
-22.862900 3.803800
-22.766800 3.700200
-22.670800 3.869900
-22.574800 4.621500
-22.478700 5.491300
-22.382700 8.021300
-22.286700 8.032500
-22.190600 3.471000
-22.094600 2.085000
-21.998500 0.000000
-21.902500 0.000000
-21.806500 0.000000
-21.710400 0.000000
-21.614400 0.000000
-21.518400 0.000000
-21.422300 0.000000
-21.326300 0.000000
-21.230200 0.000000
-21.134200 0.000000
-21.038200 0.000000
-20.942100 0.000000
-20.846100 0.000000
-20.750100 0.000000
-20.654000 0.000000
-20.558000 0.000000
-20.461900 0.000000
-20.365900 0.000000
-20.269900 0.000000
-20.173800 0.000000
-20.077800 0.000000
-19.981800 0.000000
-19.885700 0.000000
-19.789700 0.000000
-19.693700 0.000000
-19.597600 0.000000
-19.501600 0.000000
-19.405500 0.000000
-19.309500 0.000000
-19.213500 0.000000
-19.117400 0.000000
-19.021400 0.000000
-18.925400 0.000000
-18.829300 0.000000
-18.733300 0.000000
-18.637200 0.000000
-18.541200 0.000000
-18.445200 0.000000
-18.349100 0.000000
-18.253100 0.000000
-18.157100 0.000000
-18.061000 0.000000
-17.965000 0.000000
-17.868900 0.000000
-17.772900 0.000000
-17.676900 0.000000
-17.580800 0.000000
-17.484800 0.000000
-17.388800 0.000000
-17.292700 0.000000
-17.196700 0.000000
-17.100600 0.000000
-17.004600 0.000000
-16.908600 0.000000
-16.812500 0.000000
-16.716500 0.000000
-16.620500 0.000000
-16.524400 0.000000
-16.428400 0.000000
-16.332400 0.000000
-16.236300 0.000000
-16.140300 0.000000
-16.044200 0.000000
-15.948200 0.000000
-15.852200 0.000000
-15.756100 0.000000
-15.660100 0.000000
-15.564100 0.000000
-15.468000 0.000000
-15.372000 0.000000
-15.275900 0.000000
-15.179900 0.000000
-15.083900 0.000000
-14.987800 0.000000
-14.891800 0.000000
-14.795800 0.000000
-14.699700 0.000000
-14.603700 0.000000
-14.507600 0.000000
-14.411600 0.000000
-14.315600 0.000000
-14.219500 0.000000
-14.123500 0.000000
-14.027500 0.000000
-13.931400 0.000000
-13.835400 0.000000
-13.739300 0.000000
-13.643300 0.000000
-13.547300 0.000000
-13.451200 0.000000
-13.355200 0.000000
-13.259200 0.000000
-13.163100 0.000000
-13.067100 0.000000
-12.971100 0.000000
-12.875000 0.000000
-12.779000 0.000000
-12.682900 0.000000
-12.586900 0.000000
-12.490900 0.000000
-12.394800 0.000000
-12.298800 0.000000
-12.202800 0.000000
-12.106700 0.000000
-12.010700 0.000000
-11.914600 0.000000
-11.818600 0.000000
-11.722600 0.000000
-11.626500 0.000000
-11.530500 0.000000
-11.434500 0.000000
-11.338400 0.000000
-11.242400 0.000000
-11.146300 0.000000
-11.050300 0.000000
-10.954300 0.000000
-10.858200 0.000000
-10.762200 0.000000
-10.666200 0.000000
-10.570100 0.000000
-10.474100 0.000000
-10.378000 0.000000
-10.282000 0.000000
-10.186000 0.000000
-10.089900 0.000000
-9.993900 0.000000
-9.897900 0.000000
-9.801800 0.000000
-9.705800 0.000000
-9.609700 0.000000
-9.513700 0.000000
-9.417700 0.000000
-9.321600 0.000000
-9.225600 0.000000
-9.129600 0.000000
-9.033500 0.000000
-8.937500 0.000000
-8.841500 0.000000
-8.745400 0.000000
-8.649400 0.000000
-8.553300 0.000000
-8.457300 0.000000
-8.361300 0.000000
-8.265200 0.000000
-8.169200 0.000000
-8.073200 0.000000
-7.977100 0.000000
-7.881100 0.000000
-7.785000 0.000000
-7.689000 0.000000
-7.593000 0.000000
-7.496900 0.000000
-7.400900 0.000000
-7.304900 0.000000
-7.208800 0.000000
-7.112800 0.000000
-7.016700 0.000000
-6.920700 0.000000
-6.824700 0.000000
-6.728600 0.000000
-6.632600 0.000000
-6.536600 0.000000
-6.440500 0.000000
-6.344500 0.000000
-6.248400 0.000000
-6.152400 0.000000
-6.056400 0.000000
-5.960300 0.000000
-5.864300 0.000000
-5.768300 0.000000
-5.672200 0.000000
-5.576200 0.000000
-5.480200 0.000000
-5.384100 0.000000
-5.288100 0.000000
-5.192000 0.000000
-5.096000 0.000000
-5.000000 0.000000
-4.903900 0.000000
-4.807900 0.000000
-4.711900 0.000000
-4.615800 0.000000
-4.519800 0.000000
-4.423700 0.000000
-4.327700 0.000000
-4.231700 0.000000
-4.135600 0.000000
-4.039600 0.000000
-3.943600 0.000000
-3.847500 0.000000
-3.751500 0.000000
-3.655400 0.000000
-3.559400 0.000000
-3.463400 0.000000
-3.367300 0.000000
-3.271300 0.000000
-3.175300 0.000000
-3.079200 0.000000
-2.983200 0.000000
-2.887100 0.000000
-2.791100 0.000000
-2.695100 0.000000
-2.599000 0.000000
-2.503000 0.000000
-2.407000 0.000000
-2.310900 0.000000
-2.214900 0.000000
-2.118900 0.000000
-2.022800 0.000000
-1.926800 0.000000
-1.830700 0.000000
-1.734700 0.000000
-1.638700 0.000000
-1.542600 0.000000
-1.446600 0.000000
-1.350600 0.000000
-1.254500 0.006900
-1.158500 0.033500
-1.062400 0.041600
-0.966400 0.055500
-0.870400 0.063200
-0.774300 0.071200
-0.678300 0.080600
-0.582300 0.090000
-0.486200 0.097900
-0.390200 0.106100
-0.294100 0.114700
-0.198100 0.124300
-0.102100 0.134000
-0.006000 0.143700
0.090000 0.153500
0.186000 0.164600
0.282100 0.176600
0.378100 0.189600
0.474200 0.203400
0.570200 0.218600
0.666200 0.236300
0.762300 0.257400
0.858300 0.282400
0.954300 0.312600
1.050400 0.349200
1.146400 0.583600
1.242400 0.853000
1.338500 0.955900
1.434500 1.073700
1.530600 1.213800
1.626600 1.406700
1.722600 1.941800
1.818700 1.823700
1.914700 1.653100
2.010700 1.157300
2.106800 1.027100
2.202800 0.969400
2.298900 1.035100
2.394900 0.921800
2.490900 0.877300
2.587000 0.905100
2.683000 0.954700
2.779000 1.175400
2.875100 1.663700
2.971100 1.985700
3.067200 2.336000
3.163200 2.457500
3.259200 2.481400
3.355300 1.881700
3.451300 1.610000
3.547300 1.636600
3.643400 0.952000
3.739400 0.502000
3.835500 0.406500
3.931500 0.417700
4.027500 0.597800
4.123600 0.964800
4.219600 1.112300
4.315600 1.254500
4.411700 1.331900
4.507700 1.447400
4.603700 1.432500
4.699800 1.306500
4.795800 1.272900
4.891900 1.287700
4.987900 1.150000
5.083900 1.005300
5.180000 0.955900
5.276000 1.006800
5.372000 0.869800
5.468100 0.730500
5.564100 0.705100
5.660200 1.035800
5.756200 0.969300
5.852200 1.240500
5.948300 1.419700
6.044300 1.602900
6.140300 1.822600
6.236400 2.240200
6.332400 2.112400
6.428500 1.948100
6.524500 1.904200
6.620500 1.850300
6.716600 1.600400
6.812600 1.315200
6.908600 1.031300
7.004700 1.281300
7.100700 1.597300
7.196800 1.544000
7.292800 1.358900
7.388800 1.360100
7.484900 1.712300
7.580900 1.575800
7.676900 1.363000
7.773000 1.316500
7.869000 1.296000
7.965000 1.210700
8.061100 1.182800
8.157100 1.183700
8.253200 1.183000
8.349200 1.044400
8.445200 1.073000
8.541300 1.132500
8.637300 1.001500
8.733300 0.972700
8.829400 0.931800
8.925400 0.851600
9.021500 0.814400
9.117500 0.747300
9.213500 0.674200
9.309600 0.590700
9.405600 0.519100
9.501600 0.502200
9.597700 0.483200
9.693700 0.456500
9.789800 0.461700
9.885800 0.470000
9.981800 0.523500
10.077900 0.588600
10.173900 0.600500
10.269900 0.483000
10.366000 0.466500
10.462000 0.430200
10.558100 0.405500
10.654100 0.390900
10.750100 0.378200
10.846200 0.363000
10.942200 0.338100
11.038200 0.336200
11.134300 0.333000
11.230300 0.329500
11.326400 0.324500
11.422400 0.332600
11.518400 0.318900
11.614500 0.314600
11.710500 0.324900
11.806500 0.326700
11.902600 0.336300
11.998600 0.385400
12.094600 0.659800
12.190700 1.036300
12.286700 0.784600
12.382800 0.798000
12.478800 0.743000
12.574800 0.584700
12.670900 0.472800
12.766900 0.465100
12.862900 0.479100
12.959000 0.511600
13.055000 0.549500
13.151100 0.580000
13.247100 0.607600
13.343100 0.624600
13.439200 0.635200
13.535200 0.660600
13.631200 0.675300
13.727300 0.694000
13.823300 0.746700
13.919400 0.683800
14.015400 0.643900
14.111400 0.615500
14.207500 0.599100
14.303500 0.566100
14.399500 0.536300
14.495600 0.510700
14.591600 0.491600
14.687700 0.476200
14.783700 0.462600
14.879700 0.451200
14.975800 0.442000
15.071800 0.433600
15.167800 0.426400
15.263900 0.422000
15.359900 0.419000
15.455900 0.416000
15.552000 0.414700
15.648000 0.414500
15.744100 0.415700
15.840100 0.419900
15.936100 0.427300
16.032200 0.438000
16.128200 0.454700
16.224200 0.472100
16.320300 0.492600
16.416300 0.508700
16.512400 0.530400
16.608400 0.760100
16.704400 1.029400
16.800500 1.203400
16.896500 1.189100
16.992500 1.148200
17.088600 1.152400
17.184600 1.245700
17.280700 1.325100
17.376700 1.597600
17.472700 1.152000
17.568800 1.111400
17.664800 1.011100
17.760800 0.896300
17.856900 0.941900
17.952900 0.953600
18.049000 1.114800
18.145000 1.032800
18.241000 1.079700
18.337100 1.101100
18.433100 1.202200
18.529100 1.295600
18.625200 1.524600
18.721200 0.926500
18.817200 0.864100
18.913300 0.829800
19.009300 0.830700
19.105400 0.838200
19.201400 0.803100
19.297400 0.777800
19.393500 0.780200
19.489500 0.796000
19.585500 0.828300
19.681600 0.802700
19.777600 0.759900
19.873700 0.753300
19.969700 0.754100
20.065700 0.750100
20.161800 0.762200
20.257800 0.753700
20.353800 0.758000
20.449900 0.767100
20.545900 0.797400
20.642000 0.840700
20.738000 0.887000
20.834000 0.959600
20.930100 1.009100
21.026100 1.040400
21.122100 1.041300
21.218200 1.164900
21.314200 1.052900
21.410300 0.862100
21.506300 0.810200
21.602300 0.821700
21.698400 1.007400
21.794400 0.997200
21.890400 1.014000
21.986500 1.047100
22.082500 1.055100
22.178500 1.039300
22.274600 1.137800
22.370600 1.010300
22.466700 1.047400
22.562700 0.910200
22.658700 0.782900
22.754800 0.761200
22.850800 0.766900
22.946800 0.785300
23.042900 0.830000
23.138900 0.876800
23.235000 0.922700
23.331000 1.045200
23.427000 1.153200
23.523100 0.927800
23.619100 0.885700
23.715100 0.879100
23.811200 0.915200
23.907200 0.842800
24.003300 0.714900
24.099300 0.638700
24.195300 0.591400
24.291400 0.601700
24.387400 0.573400
24.483400 0.522500
24.579500 0.513500
24.675500 0.554100
24.771600 0.603900
24.867600 0.589600
24.963600 0.569900
25.059700 0.522700
25.155700 0.494900
25.251700 0.530300
25.347800 0.584000
25.443800 0.657400
25.539800 0.719800
25.635900 0.777500
25.731900 0.853900
25.828000 0.917300
25.924000 0.939600
26.020000 1.014000
26.116100 1.102500
26.212100 1.120200
26.308100 1.136000
26.404200 1.260100
26.500200 1.377300
26.596300 1.465100
26.692300 1.318100
26.788300 1.203600
26.884400 1.022600
26.980400 0.953100
27.076400 1.018200
27.172500 1.033200
27.268500 0.950800
27.364600 0.933300
27.460600 0.969100
27.556600 1.037500
27.652700 1.055600
27.748700 1.065200
27.844700 1.046900
27.940800 1.015400
28.036800 1.018100
28.132900 1.004100
28.228900 0.972500
28.324900 0.881200
28.421000 0.835900
28.517000 0.795600
28.613000 0.739100
28.709100 0.671000
28.805100 0.607800
28.901200 0.599300
28.997200 0.608800
29.093200 0.618100
29.189300 0.627900
29.285300 0.640100
29.381300 0.695000
29.477400 0.798900
29.573400 0.840200
29.669400 0.879100
29.765500 0.955500
29.861500 1.109100
29.957600 1.071000
30.053600 1.137400
30.149600 1.193000
30.245700 1.180600
30.341700 1.300600
30.437700 1.330200
30.533800 1.207500
30.629800 1.239500
30.725900 1.085100
30.821900 0.955300
30.917900 0.887700
31.014000 0.857700
31.110000 0.877400
31.206000 0.991600
31.302100 1.124500
31.398100 1.220600
31.494200 1.249000
31.590200 1.276300
31.686200 1.327700
31.782300 1.288300
31.878300 1.181200
31.974300 1.008600
32.070400 0.939200
32.166400 0.890200
32.262500 0.942900
32.358500 0.967900
32.454500 1.039300
32.550600 1.052100
32.646600 1.097300
32.742600 1.191000
32.838700 1.182200
32.934700 1.172900
33.030700 1.105400
33.126800 1.089300
33.222800 1.119700
33.318900 1.115600
33.414900 1.125100
33.510900 1.082600
33.607000 1.012600
33.703000 0.972900
33.799000 0.936800
33.895100 0.947300
33.991100 0.929000
34.087200 0.934800
34.183200 0.917900
34.279200 0.841300
34.375300 0.808700
34.471300 0.808400
34.567300 0.740600
34.663400 0.698500
34.759400 0.728900
34.855500 0.742000
34.951500 0.727800
35.047500 0.762000
35.143600 0.884100
35.239600 0.987200
35.335600 1.062400
35.431700 1.056100
35.527700 1.008500
35.623800 0.971200
35.719800 0.944600
35.815800 0.889000
35.911900 0.821000
36.007900 0.820900
36.103900 0.818000
36.200000 0.905900
36.296000 1.012200
36.392000 0.990000
36.488100 1.088200
36.584100 1.229900
36.680200 1.430000
36.776200 1.685400
36.872200 1.765700
36.968300 1.518100
37.064300 1.275300
37.160300 1.165800
37.256400 1.096600
37.352400 1.172800
37.448500 1.100100
37.544500 1.015700
37.640500 1.025800
37.736600 1.132000
37.832600 1.204000
37.928600 1.172500
38.024700 1.220700
38.120700 1.350900
38.216800 1.316800
38.312800 1.260500
38.408800 1.195900
38.504900 1.169900
38.600900 1.185800
38.696900 1.204300
38.793000 1.183700
38.889000 1.171800
38.985100 1.077600
39.081100 0.969300
39.177100 0.952400
39.273200 0.979900
39.369200 0.971000
39.465200 0.959000
39.561300 1.043100
39.657300 1.058500
39.753300 1.088400
39.849400 1.159900
39.945400 1.243600
40.041500 1.248600
40.137500 1.198500
40.233500 1.111100
40.329600 1.069400
40.425600 1.073200
40.521600 1.093800
40.617700 1.112900
40.713700 1.011000
40.809800 0.941900
40.905800 0.924800
41.001800 0.923700
41.097900 0.958900
41.193900 0.917100
41.289900 0.871200
41.386000 0.937500
41.482000 0.950800
41.578100 0.976600
41.674100 1.014800
41.770100 1.039200
41.866200 1.051700
41.962200 0.955400
42.058200 0.981700
42.154300 1.092300
42.250300 1.090200
42.346400 1.024700
42.442400 1.005100
42.538400 0.991000
42.634500 0.993600
42.730500 0.997400
42.826500 1.041400
42.922600 1.138000
43.018600 1.139200
43.114600 1.217700
43.210700 1.237300
43.306700 1.300300
43.402800 1.301300
43.498800 1.282700
43.594800 1.236700
43.690900 1.257200
43.786900 1.197500
43.882900 1.193800
43.979000 1.215400
44.075000 1.238500
44.171100 1.257100
44.267100 1.244900
44.363100 1.206300
