set title 'mp-79 - Density of States'
set xlabel 'Energy (eV)'
set ylabel 'DOS (states/eV)'
set grid
set xrange [-10:10]
set yrange [0:25.772]
set xzeroaxis lt -1
set terminal png size 800,600
set output 'mp-79_dos_gnuplot.png'
plot '-' using 1:2 with lines title 'DOS'
-8.870800 0.000000
-8.853300 0.000000
-8.835800 0.000000
-8.818300 0.000000
-8.800900 0.000000
-8.783400 0.000000
-8.765900 0.000000
-8.748400 0.000000
-8.730900 0.000000
-8.713500 0.000000
-8.696000 0.000000
-8.678500 0.000000
-8.661000 0.000000
-8.643500 0.000000
-8.626000 0.000000
-8.608600 0.000000
-8.591100 0.000000
-8.573600 0.000000
-8.556100 0.000000
-8.538600 0.000000
-8.521200 0.000000
-8.503700 0.000000
-8.486200 0.000000
-8.468700 0.000000
-8.451200 0.000000
-8.433700 0.000000
-8.416300 0.000000
-8.398800 0.000000
-8.381300 0.000000
-8.363800 0.000000
-8.346300 0.000000
-8.328800 0.000000
-8.311400 0.000000
-8.293900 0.000000
-8.276400 0.000000
-8.258900 0.000000
-8.241400 0.000000
-8.224000 0.000000
-8.206500 0.000000
-8.189000 0.000000
-8.171500 0.000000
-8.154000 0.000000
-8.136500 0.000000
-8.119100 0.000000
-8.101600 0.000000
-8.084100 0.000000
-8.066600 0.000000
-8.049100 0.000000
-8.031700 0.000000
-8.014200 0.000000
-7.996700 0.000000
-7.979200 0.000000
-7.961700 0.000000
-7.944200 0.000000
-7.926800 0.000000
-7.909300 0.000000
-7.891800 0.000000
-7.874300 0.000000
-7.856800 0.000000
-7.839400 0.000000
-7.821900 0.000000
-7.804400 0.000000
-7.786900 0.000000
-7.769400 0.000000
-7.751900 0.000000
-7.734500 0.000000
-7.717000 0.000000
-7.699500 0.000000
-7.682000 0.000000
-7.664500 0.000000
-7.647100 0.000000
-7.629600 0.000000
-7.612100 0.000000
-7.594600 0.000000
-7.577100 0.000000
-7.559600 0.000000
-7.542200 0.000000
-7.524700 0.000000
-7.507200 0.000000
-7.489700 0.000000
-7.472200 0.000000
-7.454800 0.000000
-7.437300 0.000000
-7.419800 0.000000
-7.402300 0.000000
-7.384800 0.000000
-7.367300 0.000000
-7.349900 0.000000
-7.332400 0.000000
-7.314900 0.000000
-7.297400 0.000000
-7.279900 0.000000
-7.262400 0.006600
-7.245000 0.024200
-7.227500 0.044700
-7.210000 0.050000
-7.192500 0.051000
-7.175000 0.058500
-7.157600 0.066400
-7.140100 0.074500
-7.122600 0.082000
-7.105100 0.086400
-7.087600 0.088100
-7.070100 0.091000
-7.052700 0.094800
-7.035200 0.099300
-7.017700 0.103800
-7.000200 0.108300
-6.982700 0.112800
-6.965300 0.117600
-6.947800 0.122400
-6.930300 0.126000
-6.912800 0.128300
-6.895300 0.131100
-6.877800 0.134300
-6.860400 0.137400
-6.842900 0.140400
-6.825400 0.143400
-6.807900 0.146500
-6.790400 0.150100
-6.773000 0.153800
-6.755500 0.157600
-6.738000 0.161500
-6.720500 0.165300
-6.703000 0.168900
-6.685500 0.172200
-6.668100 0.175200
-6.650600 0.177700
-6.633100 0.180300
-6.615600 0.183400
-6.598100 0.186600
-6.580700 0.189800
-6.563200 0.193000
-6.545700 0.196300
-6.528200 0.199700
-6.510700 0.203200
-6.493200 0.206700
-6.475800 0.210300
-6.458300 0.213900
-6.440800 0.217700
-6.423300 0.221500
-6.405800 0.225400
-6.388400 0.229500
-6.370900 0.233500
-6.353400 0.237200
-6.335900 0.241000
-6.318400 0.245000
-6.300900 0.249000
-6.283500 0.252900
-6.266000 0.257000
-6.248500 0.261200
-6.231000 0.265500
-6.213500 0.270000
-6.196000 0.274800
-6.178600 0.280400
-6.161100 0.286200
-6.143600 0.292100
-6.126100 0.298000
-6.108600 0.304200
-6.091200 0.310600
-6.073700 0.317100
-6.056200 0.323700
-6.038700 0.330400
-6.021200 0.337200
-6.003700 0.344300
-5.986300 0.353100
-5.968800 0.363300
-5.951300 0.373300
-5.933800 0.384400
-5.916300 0.396200
-5.898900 0.408400
-5.881400 0.421000
-5.863900 0.435100
-5.846400 0.454400
-5.828900 0.474800
-5.811400 0.495100
-5.794000 0.516600
-5.776500 0.548100
-5.759000 0.592900
-5.741500 0.645400
-5.724000 0.760500
-5.706600 0.798200
-5.689100 0.815400
-5.671600 0.840800
-5.654100 0.851700
-5.636600 0.862500
-5.619100 0.889200
-5.601700 0.916800
-5.584200 0.944500
-5.566700 0.968000
-5.549200 1.001000
-5.531700 1.042300
-5.514300 1.092300
-5.496800 1.147600
-5.479300 2.318500
-5.461800 4.743200
-5.444300 6.096200
-5.426800 6.980800
-5.409400 8.498200
-5.391900 8.202500
-5.374400 8.036200
-5.356900 7.984100
-5.339400 7.938600
-5.322000 7.874500
-5.304500 7.997000
-5.287000 8.196900
-5.269500 9.323700
-5.252000 7.774500
-5.234500 7.036900
-5.217100 6.669700
-5.199600 6.248200
-5.182100 7.690600
-5.164600 9.238700
-5.147100 10.395900
-5.129600 11.272200
-5.112200 12.298000
-5.094700 14.151700
-5.077200 14.928700
-5.059700 14.904700
-5.042200 13.501600
-5.024800 12.261900
-5.007300 12.357400
-4.989800 14.642600
-4.972300 17.211100
-4.954800 16.736000
-4.937300 17.547500
-4.919900 18.988900
-4.902400 13.300700
-4.884900 10.764600
-4.867400 10.289100
-4.849900 10.572800
-4.832500 13.099800
-4.815000 13.382300
-4.797500 12.470800
-4.780000 14.759400
-4.762500 15.112200
-4.745000 14.417400
-4.727600 11.428600
-4.710100 10.097700
-4.692600 11.393400
-4.675100 11.743600
-4.657600 11.836400
-4.640200 10.948000
-4.622700 11.071600
-4.605200 12.082300
-4.587700 13.381500
-4.570200 13.484300
-4.552700 14.434400
-4.535300 14.527300
-4.517800 16.526400
-4.500300 18.281400
-4.482800 18.278000
-4.465300 18.349600
-4.447900 19.908500
-4.430400 20.150500
-4.412900 23.428900
-4.395400 21.038800
-4.377900 17.685300
-4.360400 18.769800
-4.343000 20.944800
-4.325500 20.060800
-4.308000 20.036800
-4.290500 20.617400
-4.273000 23.093200
-4.255600 22.905800
-4.238100 21.157500
-4.220600 16.688300
-4.203100 17.902000
-4.185600 19.703000
-4.168100 19.218600
-4.150700 9.596700
-4.133200 9.355700
-4.115700 9.674200
-4.098200 9.926800
-4.080700 10.108900
-4.063200 11.738300
-4.045800 15.512400
-4.028300 7.712800
-4.010800 6.295900
-3.993300 5.743100
-3.975800 5.275400
-3.958400 4.792400
-3.940900 4.793700
-3.923400 4.086000
-3.905900 0.556700
-3.888400 0.541600
-3.870900 0.522900
-3.853500 0.509800
-3.836000 0.499200
-3.818500 0.492900
-3.801000 0.487000
-3.783500 0.481800
-3.766100 0.477100
-3.748600 0.472700
-3.731100 0.469000
-3.713600 0.466100
-3.696100 0.463700
-3.678600 0.461100
-3.661200 0.458600
-3.643700 0.456400
-3.626200 0.454700
-3.608700 0.453200
-3.591200 0.451900
-3.573800 0.450600
-3.556300 0.449500
-3.538800 0.448800
-3.521300 0.448200
-3.503800 0.447700
-3.486300 0.447400
-3.468900 0.446800
-3.451400 0.443200
-3.433900 0.440400
-3.416400 0.438400
-3.398900 0.436300
-3.381500 0.434300
-3.364000 0.432800
-3.346500 0.431800
-3.329000 0.431000
-3.311500 0.430100
-3.294000 0.429200
-3.276600 0.428400
-3.259100 0.427700
-3.241600 0.427100
-3.224100 0.426600
-3.206600 0.426300
-3.189200 0.426100
-3.171700 0.426100
-3.154200 0.426100
-3.136700 0.426100
-3.119200 0.426200
-3.101700 0.426300
-3.084300 0.426500
-3.066800 0.426700
-3.049300 0.427000
-3.031800 0.427200
-3.014300 0.427500
-2.996800 0.427900
-2.979400 0.428400
-2.961900 0.428800
-2.944400 0.429300
-2.926900 0.429800
-2.909400 0.430400
-2.892000 0.430900
-2.874500 0.430600
-2.857000 0.430000
-2.839500 0.429900
-2.822000 0.429700
-2.804500 0.429500
-2.787100 0.429400
-2.769600 0.429400
-2.752100 0.429500
-2.734600 0.429700
-2.717100 0.429900
-2.699700 0.430100
-2.682200 0.430400
-2.664700 0.430700
-2.647200 0.431000
-2.629700 0.431400
-2.612200 0.431900
-2.594800 0.432400
-2.577300 0.433000
-2.559800 0.433500
-2.542300 0.434100
-2.524800 0.434700
-2.507400 0.435200
-2.489900 0.435800
-2.472400 0.436300
-2.454900 0.436900
-2.437400 0.437500
-2.419900 0.438000
-2.402500 0.438600
-2.385000 0.439200
-2.367500 0.439800
-2.350000 0.440400
-2.332500 0.441100
-2.315100 0.441700
-2.297600 0.442400
-2.280100 0.443100
-2.262600 0.443900
-2.245100 0.444600
-2.227600 0.445400
-2.210200 0.446200
-2.192700 0.446900
-2.175200 0.447600
-2.157700 0.448000
-2.140200 0.448400
-2.122800 0.448800
-2.105300 0.449300
-2.087800 0.449800
-2.070300 0.450200
-2.052800 0.450700
-2.035300 0.451300
-2.017900 0.451900
-2.000400 0.452400
-1.982900 0.453000
-1.965400 0.453600
-1.947900 0.454300
-1.930400 0.454900
-1.913000 0.455600
-1.895500 0.456300
-1.878000 0.457000
-1.860500 0.457700
-1.843000 0.458400
-1.825600 0.459200
-1.808100 0.459900
-1.790600 0.460700
-1.773100 0.461500
-1.755600 0.462200
-1.738100 0.463000
-1.720700 0.463800
-1.703200 0.464600
-1.685700 0.465300
-1.668200 0.466100
-1.650700 0.466900
-1.633300 0.467700
-1.615800 0.468500
-1.598300 0.469400
-1.580800 0.470200
-1.563300 0.471100
-1.545800 0.472000
-1.528400 0.472900
-1.510900 0.473900
-1.493400 0.474800
-1.475900 0.475800
-1.458400 0.476800
-1.441000 0.477700
-1.423500 0.478700
-1.406000 0.479700
-1.388500 0.480700
-1.371000 0.481800
-1.353500 0.482700
-1.336100 0.483500
-1.318600 0.484300
-1.301100 0.485300
-1.283600 0.486200
-1.266100 0.487100
-1.248700 0.488000
-1.231200 0.489000
-1.213700 0.489900
-1.196200 0.490900
-1.178700 0.492000
-1.161200 0.493000
-1.143800 0.494100
-1.126300 0.495200
-1.108800 0.496300
-1.091300 0.497500
-1.073800 0.498600
-1.056400 0.499800
-1.038900 0.501000
-1.021400 0.502200
-1.003900 0.503400
-0.986400 0.504600
-0.968900 0.505900
-0.951500 0.507200
-0.934000 0.508400
-0.916500 0.509700
-0.899000 0.511100
-0.881500 0.512400
-0.864000 0.513800
-0.846600 0.515200
-0.829100 0.516600
-0.811600 0.517800
-0.794100 0.518700
-0.776600 0.519500
-0.759200 0.520300
-0.741700 0.521000
-0.724200 0.521200
-0.706700 0.521600
-0.689200 0.522000
-0.671700 0.522400
-0.654300 0.522800
-0.636800 0.523200
-0.619300 0.523600
-0.601800 0.524000
-0.584300 0.524500
-0.566900 0.525000
-0.549400 0.525500
-0.531900 0.526000
-0.514400 0.526400
-0.496900 0.526900
-0.479400 0.527300
-0.462000 0.527800
-0.444500 0.528200
-0.427000 0.528600
-0.409500 0.529100
-0.392000 0.529500
-0.374600 0.529900
-0.357100 0.530400
-0.339600 0.531000
-0.322100 0.531600
-0.304600 0.532100
-0.287100 0.532700
-0.269700 0.533400
-0.252200 0.534000
-0.234700 0.534800
-0.217200 0.535500
-0.199700 0.536300
-0.182300 0.537100
-0.164800 0.537900
-0.147300 0.538800
-0.129800 0.539600
-0.112300 0.540600
-0.094800 0.541500
-0.077400 0.542500
-0.059900 0.543400
-0.042400 0.544400
-0.024900 0.545400
-0.007400 0.546500
0.010000 0.547600
0.027500 0.548800
0.045000 0.550000
0.062500 0.551300
0.080000 0.552600
0.097500 0.557000
0.114900 0.562700
0.132400 0.565300
0.149900 0.567300
0.167400 0.569300
0.184900 0.571100
0.202400 0.572700
0.219800 0.573900
0.237300 0.574700
0.254800 0.575400
0.272300 0.576000
0.289800 0.582900
0.307200 0.594700
0.324700 0.599300
0.342200 0.600400
0.359700 0.600900
0.377200 0.600600
0.394700 0.599600
0.412100 0.597600
0.429600 0.593900
0.447100 0.589800
0.464600 0.585400
0.482100 0.582100
0.499500 0.580000
0.517000 0.578200
0.534500 0.576700
0.552000 0.575300
0.569500 0.574000
0.587000 0.572400
0.604400 0.570900
0.621900 0.569400
0.639400 0.568100
0.656900 0.566800
0.674400 0.565600
0.691800 0.564600
0.709300 0.563700
0.726800 0.563000
0.744300 0.562300
0.761800 0.561700
0.779300 0.561300
0.796700 0.560400
0.814200 0.559800
0.831700 0.579000
0.849200 0.600200
0.866700 0.591500
0.884100 0.575500
0.901600 0.569600
0.919100 0.568600
0.936600 0.567700
0.954100 0.566800
0.971600 0.561900
0.989000 0.559000
1.006500 0.558100
1.024000 0.557700
1.041500 0.557200
1.059000 0.556600
1.076400 0.556100
1.093900 0.555600
1.111400 0.555600
1.128900 0.554600
1.146400 0.553000
1.163900 0.552500
1.181300 0.553000
1.198800 0.555200
1.216300 0.558500
1.233800 0.562900
1.251300 0.568300
1.268800 0.574600
1.286200 0.581800
1.303700 0.590000
1.321200 0.603300
1.338700 0.612800
1.356200 0.628400
1.373600 0.635100
1.391100 0.643100
1.408600 0.654800
1.426100 0.664500
1.443600 0.672200
1.461100 0.673700
1.478500 0.669100
1.496000 0.663500
1.513500 0.649200
1.531000 0.643600
1.548500 0.650400
1.565900 0.659800
1.583400 0.671400
1.600900 0.683800
1.618400 0.695200
1.635900 0.723200
1.653400 0.723400
1.670800 0.697800
1.688300 0.699200
1.705800 0.695600
1.723300 0.646200
1.740800 0.636200
1.758200 0.628800
1.775700 0.616800
1.793200 0.612200
1.810700 0.608200
1.828200 0.604100
1.845700 0.599800
1.863100 0.595500
1.880600 0.591400
1.898100 0.587500
1.915600 0.583800
1.933100 0.581000
1.950500 0.576400
1.968000 0.574200
1.985500 0.572900
2.003000 0.574000
2.020500 0.581000
2.038000 0.591100
2.055400 0.601700
2.072900 0.612900
2.090400 0.617900
2.107900 0.597300
2.125400 0.592900
2.142900 0.587600
2.160300 0.581000
2.177800 0.576800
2.195300 0.575900
2.212800 0.575600
2.230300 0.577500
2.247700 0.584300
2.265200 0.576200
2.282700 0.570000
2.300200 0.563200
2.317700 0.556800
2.335200 0.550800
2.352600 0.545600
2.370100 0.548200
2.387600 0.542400
2.405100 0.537500
2.422600 0.532700
2.440000 0.527900
2.457500 0.523200
2.475000 0.518300
2.492500 0.512500
2.510000 0.506700
2.527500 0.502100
2.544900 0.499000
2.562400 0.497200
2.579900 0.495700
2.597400 0.489700
2.614900 0.482300
2.632300 0.475100
2.649800 0.470900
2.667300 0.491700
2.684800 0.509900
2.702300 0.482900
2.719800 0.455000
2.737200 0.447100
2.754700 0.439100
2.772200 0.430900
2.789700 0.426200
2.807200 0.430700
2.824600 0.442300
2.842100 0.454500
2.859600 0.435300
2.877100 0.424100
2.894600 0.422000
2.912100 0.419400
2.929500 0.414900
2.947000 0.408900
2.964500 0.407300
2.982000 0.407000
2.999500 0.405600
3.016900 0.406800
3.034400 0.408100
3.051900 0.408300
3.069400 0.407200
3.086900 0.403500
3.104400 0.400400
3.121800 0.397300
3.139300 0.393700
3.156800 0.392300
3.174300 0.389100
3.191800 0.380100
3.209300 0.372100
3.226700 0.364700
3.244200 0.358500
3.261700 0.354300
3.279200 0.350000
3.296700 0.345700
3.314100 0.342000
3.331600 0.347100
3.349100 0.364700
3.366600 0.376300
3.384100 0.385300
3.401600 0.394800
3.419000 0.405700
3.436500 0.418300
3.454000 0.429800
3.471500 0.440100
3.489000 0.450800
3.506400 0.462300
3.523900 0.474500
3.541400 0.486800
3.558900 0.494900
3.576400 0.501000
3.593900 0.494100
3.611300 0.495300
3.628800 0.497000
3.646300 0.498600
3.663800 0.502400
3.681300 0.511700
3.698700 0.522000
3.716200 0.533300
3.733700 0.545700
3.751200 0.558700
3.768700 0.569100
3.786200 0.578900
3.803600 0.589600
3.821100 0.618100
3.838600 0.629200
3.856100 0.630500
3.873600 0.635000
3.891000 0.629000
3.908500 0.627600
3.926000 0.645200
3.943500 0.640900
3.961000 0.639400
3.978500 0.650500
3.995900 0.662500
4.013400 0.652300
4.030900 0.604300
4.048400 0.593800
4.065900 0.595200
4.083300 0.595300
4.100800 0.598100
4.118300 0.602400
4.135800 0.618700
4.153300 0.624700
4.170800 0.616900
4.188200 0.637200
4.205700 0.657700
4.223200 0.676700
4.240700 0.686400
4.258200 0.685900
4.275700 0.691200
4.293100 0.698800
4.310600 0.706500
4.328100 0.714100
4.345600 0.719500
4.363100 0.721900
4.380500 0.723800
4.398000 0.725200
4.415500 0.726100
4.433000 0.722600
4.450500 0.725700
4.468000 0.730700
4.485400 0.735600
4.502900 0.740400
4.520400 0.744700
4.537900 0.748100
4.555400 0.750700
4.572800 0.752100
4.590300 0.753200
4.607800 0.753500
4.625300 0.752900
4.642800 0.751400
4.660300 0.749500
4.677700 0.751800
4.695200 0.752700
4.712700 0.753500
4.730200 0.756900
4.747700 0.762700
4.765100 0.771100
4.782600 0.780300
4.800100 0.789100
4.817600 0.797100
4.835100 0.804200
4.852600 0.804800
4.870000 0.800900
4.887500 0.793400
4.905000 0.789100
4.922500 0.786400
4.940000 0.785100
4.957400 0.784900
4.974900 0.784700
4.992400 0.783700
5.009900 0.780900
5.027400 0.776700
5.044900 0.771600
5.062300 0.765800
5.079800 0.759500
5.097300 0.753500
5.114800 0.748100
5.132300 0.766400
5.149700 0.776400
5.167200 0.768200
5.184700 0.754700
5.202200 0.753200
5.219700 0.751500
5.237200 0.749200
5.254600 0.746600
5.272100 0.743500
5.289600 0.740000
5.307100 0.736500
5.324600 0.732700
5.342100 0.731600
5.359500 0.726700
5.377000 0.722000
5.394500 0.716600
5.412000 0.713400
5.429500 0.711200
5.446900 0.710500
5.464400 0.711300
5.481900 0.712900
5.499400 0.714900
5.516900 0.715200
5.534400 0.714000
5.551800 0.712900
5.569300 0.712700
5.586800 0.714200
5.604300 0.731100
5.621800 0.760600
5.639200 0.762700
5.656700 0.767600
5.674200 0.771100
5.691700 0.774500
5.709200 0.750200
5.726700 0.750700
5.744100 0.751800
5.761600 0.753400
5.779100 0.755400
5.796600 0.757400
5.814100 0.760900
5.831500 0.759200
5.849000 0.759500
5.866500 0.762100
5.884000 0.766800
5.901500 0.772200
5.919000 0.780700
5.936400 0.788500
5.953900 0.795900
5.971400 0.802600
5.988900 0.810200
6.006400 0.817600
6.023800 0.829700
6.041300 0.842400
6.058800 0.847900
6.076300 0.849000
6.093800 0.862200
6.111300 0.855900
6.128700 0.850900
6.146200 0.847600
6.163700 0.845000
6.181200 0.840700
6.198700 0.835300
6.216100 0.829500
6.233600 0.823400
6.251100 0.819100
6.268600 0.816200
6.286100 0.813300
6.303600 0.810400
6.321000 0.807800
6.338500 0.805300
6.356000 0.803000
6.373500 0.800900
6.391000 0.799500
6.408500 0.800000
6.425900 0.801800
6.443400 0.805200
6.460900 0.808200
6.478400 0.811200
6.495900 0.819300
6.513300 0.843200
6.530800 0.824100
6.548300 0.810000
6.565800 0.799000
6.583300 0.789200
6.600800 0.780100
6.618200 0.775500
6.635700 0.771000
6.653200 0.766000
6.670700 0.760400
6.688200 0.754500
6.705600 0.748500
6.723100 0.742700
6.740600 0.740400
6.758100 0.736100
6.775600 0.726100
6.793100 0.720100
6.810500 0.720600
6.828000 0.723300
6.845500 0.719300
6.863000 0.714100
6.880500 0.710100
6.897900 0.706200
6.915400 0.702600
6.932900 0.700000
6.950400 0.698500
6.967900 0.696900
6.985400 0.694100
7.002800 0.691100
7.020300 0.688200
7.037800 0.685600
7.055300 0.682300
7.072800 0.679700
7.090200 0.677400
7.107700 0.674400
7.125200 0.670800
7.142700 0.666600
7.160200 0.663500
7.177700 0.660900
7.195100 0.658500
7.212600 0.656500
7.230100 0.656800
7.247600 0.659900
7.265100 0.659000
7.282500 0.658100
7.300000 0.656700
7.317500 0.658300
7.335000 0.660000
7.352500 0.661900
7.370000 0.664500
7.387400 0.671700
7.404900 0.682400
7.422400 0.686800
7.439900 0.690100
7.457400 0.693400
7.474900 0.695900
7.492300 0.696600
7.509800 0.697300
7.527300 0.698600
7.544800 0.701000
7.562300 0.704500
7.579700 0.708500
7.597200 0.712800
7.614700 0.717500
7.632200 0.720900
7.649700 0.722400
7.667200 0.723200
7.684600 0.723700
7.702100 0.723900
7.719600 0.724000
7.737100 0.725400
7.754600 0.728100
7.772000 0.729000
7.789500 0.729400
7.807000 0.727000
7.824500 0.723100
7.842000 0.720100
7.859500 0.725400
7.876900 0.729200
7.894400 0.731800
7.911900 0.733300
7.929400 0.730800
7.946900 0.727500
7.964300 0.724000
7.981800 0.714800
7.999300 0.707600
8.016800 0.701800
8.034300 0.696700
8.051800 0.692200
8.069200 0.688800
8.086700 0.686400
8.104200 0.687300
8.121700 0.688200
8.139200 0.688700
8.156600 0.688900
8.174100 0.696200
8.191600 0.706100
8.209100 0.695200
8.226600 0.695400
8.244100 0.695800
8.261500 0.696400
8.279000 0.697100
8.296500 0.697900
8.314000 0.699100
8.331500 0.700600
8.348900 0.702200
8.366400 0.704000
8.383900 0.705800
8.401400 0.707200
8.418900 0.709000
8.436400 0.710800
8.453800 0.712300
8.471300 0.716700
8.488800 0.718100
8.506300 0.719600
8.523800 0.722200
8.541300 0.727500
8.558700 0.733300
8.576200 0.738500
8.593700 0.743800
8.611200 0.748700
8.628700 0.751500
8.646100 0.756300
8.663600 0.763900
8.681100 0.774100
8.698600 0.786800
8.716100 0.800000
8.733600 0.807900
8.751000 0.817000
8.768500 0.828100
8.786000 0.829300
8.803500 0.831100
8.821000 0.838000
8.838400 0.838600
8.855900 0.835700
8.873400 0.833000
8.890900 0.831100
8.908400 0.832800
8.925900 0.836300
8.943300 0.839200
8.960800 0.841800
8.978300 0.843800
8.995800 0.843800
9.013300 0.842500
9.030700 0.841100
9.048200 0.840300
9.065700 0.839500
9.083200 0.840000
9.100700 0.839100
9.118200 0.838600
9.135600 0.839900
9.153100 0.841700
9.170600 0.842100
9.188100 0.840700
9.205600 0.839500
9.223000 0.844800
9.240500 0.843800
9.258000 0.844300
9.275500 0.846100
9.293000 0.847800
9.310500 0.849500
9.327900 0.850400
9.345400 0.850200
9.362900 0.849500
9.380400 0.841200
9.397900 0.841400
9.415300 0.841600
9.432800 0.842200
9.450300 0.843300
9.467800 0.840800
9.485300 0.842200
9.502800 0.843000
9.520200 0.843300
9.537700 0.843500
9.555200 0.843500
9.572700 0.842800
9.590200 0.842700
9.607700 0.845900
9.625100 0.853800
9.642600 0.866000
9.660100 0.871100
9.677600 0.873600
9.695100 0.874600
9.712500 0.874800
