set title 'mp-981366 - Density of States'
set xlabel 'Energy (eV)'
set ylabel 'DOS (states/eV)'
set grid
set xrange [-10:10]
set yrange [0:43.166]
set xzeroaxis lt -1
set terminal png size 800,600
set output 'mp-981366_dos_gnuplot.png'
plot '-' using 1:2 with lines title 'DOS'
-13.299300 0.000000
-13.271900 0.000000
-13.244400 0.000000
-13.217000 0.000000
-13.189600 0.000000
-13.162100 0.000000
-13.134700 0.000000
-13.107200 0.000000
-13.079800 0.000000
-13.052400 0.000000
-13.024900 0.000000
-12.997500 0.000000
-12.970000 0.000000
-12.942600 0.000000
-12.915200 0.000000
-12.887700 0.000000
-12.860300 0.000000
-12.832900 0.000000
-12.805400 0.000000
-12.778000 0.000000
-12.750500 0.000000
-12.723100 0.000000
-12.695700 0.000000
-12.668200 0.000000
-12.640800 0.000000
-12.613300 0.000000
-12.585900 0.000000
-12.558500 0.000000
-12.531000 0.000000
-12.503600 0.000000
-12.476100 0.000000
-12.448700 0.000000
-12.421300 0.000000
-12.393800 0.000000
-12.366400 0.000000
-12.339000 0.000000
-12.311500 0.000000
-12.284100 0.000000
-12.256600 0.000000
-12.229200 0.000000
-12.201800 0.000000
-12.174300 0.000000
-12.146900 0.000000
-12.119400 0.000000
-12.092000 0.000000
-12.064600 0.000000
-12.037100 0.000000
-12.009700 0.000000
-11.982200 0.000000
-11.954800 0.000000
-11.927400 0.000000
-11.899900 0.000000
-11.872500 0.000000
-11.845100 0.000000
-11.817600 0.000000
-11.790200 0.000000
-11.762700 0.000000
-11.735300 0.000000
-11.707900 0.000000
-11.680400 0.000000
-11.653000 0.000000
-11.625500 0.000000
-11.598100 0.000000
-11.570700 0.000000
-11.543200 0.000000
-11.515800 0.000000
-11.488300 0.000000
-11.460900 0.000000
-11.433500 0.000000
-11.406000 0.000000
-11.378600 0.000000
-11.351200 0.000000
-11.323700 0.000000
-11.296300 0.000000
-11.268800 0.000000
-11.241400 0.000000
-11.214000 0.000000
-11.186500 0.000000
-11.159100 0.000000
-11.131600 0.000000
-11.104200 0.000000
-11.076800 0.000000
-11.049300 0.000000
-11.021900 0.000000
-10.994400 0.000000
-10.967000 0.000000
-10.939600 0.000000
-10.912100 0.000000
-10.884700 0.000000
-10.857200 0.000000
-10.829800 0.000000
-10.802400 0.000800
-10.774900 0.109400
-10.747500 0.231300
-10.720100 0.289500
-10.692600 0.339200
-10.665200 0.413400
-10.637700 0.473400
-10.610300 0.519000
-10.582900 0.572300
-10.555400 0.630800
-10.528000 0.695800
-10.500500 0.767400
-10.473100 0.840200
-10.445700 0.914000
-10.418200 1.012800
-10.390800 1.117200
-10.363300 1.310600
-10.335900 1.432800
-10.308500 1.468600
-10.281000 1.539500
-10.253600 1.585500
-10.226200 1.647800
-10.198700 1.730500
-10.171300 1.817200
-10.143800 1.902400
-10.116400 1.998600
-10.089000 2.132900
-10.061500 2.322000
-10.034100 2.551700
-10.006600 2.816700
-9.979200 3.123600
-9.951800 3.926800
-9.924300 5.483000
-9.896900 3.999700
-9.869400 3.282600
-9.842000 3.054700
-9.814600 2.808900
-9.787100 2.617500
-9.759700 2.553700
-9.732300 2.416300
-9.704800 2.387200
-9.677400 1.871000
-9.649900 0.000000
-9.622500 0.000000
-9.595100 0.000000
-9.567600 0.000000
-9.540200 0.000000
-9.512700 0.000000
-9.485300 0.000000
-9.457900 0.000000
-9.430400 0.000000
-9.403000 0.000000
-9.375500 0.000000
-9.348100 0.000000
-9.320700 0.000000
-9.293200 0.000000
-9.265800 0.000000
-9.238400 0.000000
-9.210900 0.000000
-9.183500 0.000000
-9.156000 0.000000
-9.128600 0.000000
-9.101200 0.000000
-9.073700 0.000000
-9.046300 0.000000
-9.018800 0.000000
-8.991400 0.000000
-8.964000 0.000000
-8.936500 0.000000
-8.909100 0.000000
-8.881600 0.000000
-8.854200 0.000000
-8.826800 0.000000
-8.799300 0.000000
-8.771900 0.000000
-8.744500 0.000000
-8.717000 0.000000
-8.689600 0.000000
-8.662100 0.000000
-8.634700 0.000000
-8.607300 0.000000
-8.579800 0.000000
-8.552400 0.000000
-8.524900 0.000000
-8.497500 0.000000
-8.470100 0.000000
-8.442600 0.000000
-8.415200 0.000000
-8.387700 0.000000
-8.360300 0.000000
-8.332900 0.000000
-8.305400 0.000000
-8.278000 0.000000
-8.250600 0.000000
-8.223100 0.000000
-8.195700 0.000000
-8.168200 0.000000
-8.140800 0.000000
-8.113400 0.000000
-8.085900 0.000000
-8.058500 0.000000
-8.031000 0.000000
-8.003600 0.000000
-7.976200 0.000000
-7.948700 0.000000
-7.921300 0.000000
-7.893800 0.000000
-7.866400 0.000000
-7.839000 0.000000
-7.811500 0.000000
-7.784100 0.000000
-7.756700 0.000000
-7.729200 0.000000
-7.701800 0.000000
-7.674300 0.000000
-7.646900 0.000000
-7.619500 0.000000
-7.592000 0.000000
-7.564600 0.000000
-7.537100 0.000000
-7.509700 0.000000
-7.482300 0.000000
-7.454800 0.000000
-7.427400 0.000000
-7.399900 0.000000
-7.372500 0.000000
-7.345100 0.000000
-7.317600 0.000000
-7.290200 0.000000
-7.262800 0.000000
-7.235300 0.000000
-7.207900 0.000000
-7.180400 0.000000
-7.153000 0.000000
-7.125600 0.000000
-7.098100 0.000000
-7.070700 0.000000
-7.043200 0.000000
-7.015800 0.000000
-6.988400 0.000000
-6.960900 0.000000
-6.933500 0.000000
-6.906000 0.000000
-6.878600 0.000000
-6.851200 0.000000
-6.823700 0.000000
-6.796300 0.000000
-6.768900 0.000000
-6.741400 0.000000
-6.714000 0.000000
-6.686500 0.000000
-6.659100 0.000000
-6.631700 0.000000
-6.604200 0.000000
-6.576800 0.000000
-6.549300 0.000000
-6.521900 0.000000
-6.494500 0.000000
-6.467000 0.000000
-6.439600 0.000000
-6.412100 0.000000
-6.384700 0.000000
-6.357300 0.000000
-6.329800 0.000000
-6.302400 0.000000
-6.275000 0.000000
-6.247500 0.000000
-6.220100 0.000000
-6.192600 0.000000
-6.165200 0.000000
-6.137800 0.000000
-6.110300 0.000000
-6.082900 0.000000
-6.055400 0.000000
-6.028000 0.000000
-6.000600 0.000000
-5.973100 0.000000
-5.945700 0.000000
-5.918200 0.014100
-5.890800 0.070500
-5.863400 0.152700
-5.835900 0.195800
-5.808500 0.220200
-5.781100 0.255700
-5.753600 0.299200
-5.726200 0.347500
-5.698700 0.403700
-5.671300 0.455800
-5.643900 0.493000
-5.616400 0.546800
-5.589000 0.612700
-5.561500 0.680500
-5.534100 0.753700
-5.506700 0.850700
-5.479200 0.991800
-5.451800 1.193600
-5.424300 1.251800
-5.396900 1.358000
-5.369500 1.465700
-5.342000 1.583900
-5.314600 1.816100
-5.287200 2.090600
-5.259700 2.474500
-5.232300 3.133500
-5.204800 3.343400
-5.177400 3.815100
-5.150000 4.359800
-5.122500 5.352000
-5.095100 7.782100
-5.067600 8.464500
-5.040200 9.224800
-5.012800 10.855600
-4.985300 13.431000
-4.957900 8.308100
-4.930400 7.494600
-4.903000 7.927400
-4.875600 10.078700
-4.848100 12.310600
-4.820700 10.213000
-4.793300 9.272900
-4.765800 7.158800
-4.738400 8.131500
-4.710900 13.079300
-4.683500 13.399500
-4.656100 16.385000
-4.628600 17.645400
-4.601200 15.241100
-4.573700 12.739700
-4.546300 13.063600
-4.518900 19.603400
-4.491400 10.996500
-4.464000 12.106900
-4.436500 13.672500
-4.409100 15.366300
-4.381700 13.118100
-4.354200 15.692200
-4.326800 20.212400
-4.299400 23.115500
-4.271900 17.560600
-4.244500 17.609600
-4.217000 15.865200
-4.189600 23.963400
-4.162200 17.625800
-4.134700 19.561700
-4.107300 20.360200
-4.079800 23.708300
-4.052400 21.626400
-4.025000 17.279500
-3.997500 16.030600
-3.970100 17.295600
-3.942600 20.829000
-3.915200 22.523600
-3.887800 22.886800
-3.860300 20.204000
-3.832900 13.482000
-3.805500 13.244900
-3.778000 13.577500
-3.750600 14.891300
-3.723100 22.197900
-3.695700 22.032200
-3.668300 20.941100
-3.640800 23.536000
-3.613400 26.088400
-3.585900 39.241400
-3.558500 26.540400
-3.531100 15.028700
-3.503600 12.926500
-3.476200 9.257200
-3.448700 27.514400
-3.421300 18.979000
-3.393900 24.061700
-3.366400 4.057000
-3.339000 4.257700
-3.311600 2.243400
-3.284100 1.193700
-3.256700 0.699900
-3.229200 0.714900
-3.201800 0.717800
-3.174400 0.735300
-3.146900 0.761600
-3.119500 0.812600
-3.092000 0.874800
-3.064600 0.949800
-3.037200 1.038300
-3.009700 1.133000
-2.982300 1.227200
-2.954800 1.508500
-2.927400 1.930500
-2.900000 3.771200
-2.872500 3.864600
-2.845100 4.630200
-2.817700 4.547900
-2.790200 4.049100
-2.762800 3.598700
-2.735300 3.295300
-2.707900 2.871800
-2.680500 2.456200
-2.653000 1.920400
-2.625600 1.615400
-2.598100 1.393300
-2.570700 1.223100
-2.543300 1.078800
-2.515800 0.970000
-2.488400 0.905500
-2.460900 0.866500
-2.433500 0.818800
-2.406100 0.770000
-2.378600 0.726300
-2.351200 0.690000
-2.323800 0.673200
-2.296300 0.661100
-2.268900 0.650000
-2.241400 0.641000
-2.214000 0.635900
-2.186600 0.632900
-2.159100 0.631500
-2.131700 0.632500
-2.104200 0.633100
-2.076800 0.636300
-2.049400 0.641400
-2.021900 0.643900
-1.994500 0.649300
-1.967000 0.656400
-1.939600 0.663900
-1.912200 0.656800
-1.884700 0.657500
-1.857300 0.657600
-1.829900 0.660200
-1.802400 0.664100
-1.775000 0.666000
-1.747500 0.673600
-1.720100 0.683200
-1.692700 0.699000
-1.665200 0.721500
-1.637800 0.741200
-1.610300 0.759400
-1.582900 0.774700
-1.555500 0.787800
-1.528000 0.797400
-1.500600 0.802100
-1.473100 0.806900
-1.445700 0.812200
-1.418300 0.907600
-1.390800 0.863800
-1.363400 0.864500
-1.336000 0.858700
-1.308500 0.844300
-1.281100 0.839700
-1.253600 0.837600
-1.226200 0.842700
-1.198800 0.850900
-1.171300 0.867600
-1.143900 0.896000
-1.116400 0.918900
-1.089000 0.932200
-1.061600 1.014000
-1.034100 1.115600
-1.006700 1.266000
-0.979200 1.325800
-0.951800 1.366500
-0.924400 1.418400
-0.896900 1.396000
-0.869500 1.379800
-0.842100 1.341900
-0.814600 1.336400
-0.787200 1.314100
-0.759700 1.338100
-0.732300 1.344200
-0.704900 1.335800
-0.677400 1.313800
-0.650000 1.295400
-0.622500 1.270900
-0.595100 1.239300
-0.567700 1.177600
-0.540200 1.165000
-0.512800 1.143700
-0.485300 1.122200
-0.457900 1.129700
-0.430500 1.333900
-0.403000 1.190500
-0.375600 1.176800
-0.348200 1.181200
-0.320700 1.149200
-0.293300 1.181800
-0.265800 1.204700
-0.238400 1.233100
-0.211000 1.268500
-0.183500 1.302200
-0.156100 1.349600
-0.128600 1.521700
-0.101200 1.577500
-0.073800 1.588300
-0.046300 1.553000
-0.018900 1.422900
0.008600 1.323800
0.036000 1.278200
0.063400 1.255200
0.090900 1.220800
0.118300 1.208200
0.145700 1.200500
0.173200 1.187900
0.200600 1.187400
0.228100 1.195100
0.255500 1.219200
0.282900 1.279900
0.310400 1.354600
0.337800 1.529700
0.365300 1.788100
0.392700 2.034700
0.420100 2.026100
0.447600 1.915500
0.475000 1.885000
0.502500 1.887000
0.529900 1.703100
0.557300 1.584300
0.584800 1.409700
0.612200 1.354700
0.639600 1.369000
0.667100 1.511600
0.694500 1.512700
0.722000 1.317000
0.749400 1.253500
0.776800 1.212800
0.804300 1.178400
0.831700 1.150900
0.859200 1.173300
0.886600 1.184700
0.914000 1.212700
0.941500 1.286400
0.968900 1.415200
0.996400 1.565400
1.023800 1.686300
1.051200 1.725800
1.078700 1.740200
1.106100 1.770500
1.133500 1.763600
1.161000 1.704000
1.188400 1.633600
1.215900 1.605900
1.243300 1.590200
1.270700 1.571700
1.298200 1.544400
1.325600 1.509000
1.353100 1.474600
1.380500 1.454700
1.407900 1.432800
1.435400 1.420700
1.462800 1.402000
1.490300 1.395200
1.517700 1.394600
1.545100 1.390200
1.572600 1.376200
1.600000 1.347900
1.627400 1.310300
1.654900 1.280500
1.682300 1.276600
1.709800 1.287800
1.737200 1.290100
1.764600 1.300900
1.792100 1.372300
1.819500 1.506400
1.847000 1.670200
1.874400 1.751500
1.901800 1.858500
1.929300 2.040500
1.956700 2.288600
1.984200 2.530000
2.011600 2.206700
2.039000 1.984700
2.066500 1.903500
2.093900 1.808800
2.121300 1.614500
2.148800 1.489200
2.176200 1.395100
2.203700 1.345900
2.231100 1.345600
2.258500 1.339200
2.286000 1.270600
2.313400 1.181800
2.340900 1.137000
2.368300 1.145900
2.395700 1.187400
2.423200 1.141900
2.450600 1.092900
2.478100 1.028000
2.505500 0.934600
2.532900 0.830200
2.560400 0.820400
2.587800 0.851600
2.615300 0.889900
2.642700 0.930700
2.670100 0.944700
2.697600 0.937600
2.725000 0.935700
2.752400 0.993600
2.779900 0.979100
2.807300 0.977200
2.834800 0.991800
2.862200 1.021700
2.889600 1.090000
2.917100 1.175700
2.944500 1.292600
2.972000 1.524400
2.999400 1.726100
3.026800 1.623300
3.054300 1.501800
3.081700 1.392500
3.109200 1.301200
3.136600 1.247000
3.164000 1.195900
3.191500 1.172900
3.218900 1.152100
3.246300 1.136400
3.273800 1.123400
3.301200 1.130700
3.328700 1.146000
3.356100 1.110100
3.383500 1.118700
3.411000 1.129100
3.438400 1.144100
3.465900 1.158000
3.493300 1.169200
3.520700 1.178700
3.548200 1.188300
3.575600 1.175400
3.603100 1.181700
3.630500 1.192300
3.657900 1.207100
3.685400 1.232200
3.712800 1.250300
3.740200 1.258800
3.767700 1.266800
3.795100 1.613100
3.822600 1.330200
3.850000 1.371900
3.877400 1.451500
3.904900 1.595900
3.932300 1.845300
3.959800 2.016300
3.987200 2.250400
4.014600 2.208300
4.042100 2.236900
4.069500 2.239600
4.097000 2.264400
4.124400 2.181900
4.151800 2.050300
4.179300 1.934500
4.206700 1.897000
4.234100 1.731600
4.261600 1.562600
4.289000 1.433700
4.316500 1.248000
4.343900 1.096100
4.371300 0.980400
4.398800 0.878300
4.426200 0.768100
4.453700 0.596600
4.481100 0.562200
4.508500 0.570200
4.536000 0.590000
4.563400 0.639700
4.590900 0.731900
4.618300 0.818400
4.645700 0.882000
4.673200 0.932400
4.700600 0.982900
4.728000 1.032800
4.755500 1.081500
4.782900 1.138500
4.810400 1.210300
4.837800 1.284700
4.865200 1.379300
4.892700 1.376300
4.920100 1.433000
4.947600 1.499400
4.975000 1.564700
5.002400 1.627500
5.029900 1.701100
5.057300 1.775700
5.084800 1.870600
5.112200 1.903400
5.139600 1.890700
5.167100 1.863400
5.194500 1.788400
5.221900 1.724600
5.249400 1.758000
5.276800 1.631700
5.304300 1.488900
5.331700 1.415500
5.359100 1.351100
5.386600 1.306800
5.414000 1.293300
5.441500 1.258400
5.468900 1.228300
5.496300 1.182400
5.523800 1.161900
5.551200 1.117500
5.578700 1.078100
5.606100 1.048300
5.633500 1.021900
5.661000 1.007200
5.688400 1.058200
5.715800 1.127100
5.743300 1.132000
5.770700 1.083600
5.798200 1.065100
5.825600 1.043900
5.853000 1.018500
5.880500 0.989300
5.907900 0.955600
5.935400 0.919100
5.962800 0.891800
5.990200 0.875000
6.017700 0.862300
6.045100 0.854100
6.072600 0.846100
6.100000 0.848300
6.127400 0.854900
6.154900 0.870600
6.182300 0.912900
6.209700 0.935600
6.237200 0.937900
6.264600 0.965400
6.292100 1.005700
6.319500 1.053800
6.346900 1.103200
6.374400 1.156100
6.401800 1.183500
6.429300 1.216700
6.456700 1.256100
6.484100 1.271200
6.511600 1.295500
6.539000 1.331800
6.566500 1.373500
6.593900 1.415800
6.621300 1.432500
6.648800 1.395500
6.676200 1.402800
6.703600 1.417700
6.731100 1.443300
6.758500 1.480100
6.786000 1.486600
6.813400 1.536300
6.840800 1.492500
6.868300 1.530100
6.895700 1.575200
6.923200 1.396700
6.950600 1.332700
6.978000 1.285600
7.005500 1.253600
7.032900 1.213900
7.060400 1.165000
7.087800 1.139400
7.115200 1.127600
7.142700 1.118000
7.170100 1.109900
7.197500 1.104500
7.225000 1.103100
7.252400 1.101600
7.279900 1.103400
7.307300 1.102800
7.334700 1.113200
7.362200 1.134800
7.389600 1.190600
7.417100 1.197900
7.444500 1.199400
7.471900 1.205200
7.499400 1.194800
7.526800 1.188400
7.554300 1.178600
7.581700 1.168100
7.609100 1.169700
7.636600 1.191300
7.664000 1.205300
7.691400 1.211100
7.718900 1.228500
7.746300 1.252100
7.773800 1.284500
7.801200 1.341700
7.828600 1.381000
7.856100 1.413900
7.883500 1.446300
7.911000 1.477600
7.938400 1.511300
7.965800 1.568900
7.993300 1.656000
8.020700 1.675400
8.048200 1.572800
8.075600 1.532300
8.103000 1.492600
8.130500 1.454600
8.157900 1.412000
8.185300 1.362300
8.212800 1.306200
8.240200 1.263100
8.267700 1.253700
8.295100 1.244800
8.322500 1.254400
8.350000 1.259400
8.377400 1.250800
8.404900 1.239900
8.432300 1.234500
8.459700 1.221800
8.487200 1.186100
8.514600 1.255600
8.542100 1.277600
8.569500 1.261700
8.596900 1.278300
8.624400 1.289200
8.651800 1.515400
8.679200 1.596800
8.706700 1.565800
8.734100 1.656000
8.761600 1.700800
8.789000 1.768300
8.816400 1.992700
8.843900 1.931100
8.871300 1.897900
8.898800 1.979200
8.926200 2.009800
8.953600 1.838600
8.981100 1.851500
9.008500 1.914000
9.036000 2.000100
9.063400 2.043700
9.090800 2.150200
9.118300 2.071400
9.145700 1.911900
9.173100 2.122800
9.200600 2.383600
9.228000 2.844800
9.255500 3.247900
9.282900 3.908700
9.310300 3.827800
9.337800 4.488500
9.365200 3.475400
9.392700 2.968200
9.420100 2.586300
9.447500 2.342700
9.475000 2.126200
9.502400 2.021500
9.529900 1.952600
9.557300 1.880800
9.584700 1.817200
9.612200 1.778300
9.639600 1.741100
9.667000 1.677200
9.694500 1.641000
9.721900 1.607800
9.749400 1.577600
9.776800 1.547300
9.804200 1.516700
9.831700 1.488100
9.859100 1.459000
9.886600 1.428000
9.914000 1.394100
9.941400 1.369700
9.968900 1.341300
9.996300 1.294000
10.023800 1.257900
10.051200 1.234000
10.078600 1.213300
10.106100 1.193800
10.133500 1.174300
10.160900 1.155800
10.188400 1.139500
10.215800 1.126500
10.243300 1.112700
10.270700 1.102600
10.298100 1.096400
10.325600 1.089200
10.353000 1.082100
10.380500 1.074700
10.407900 1.067300
10.435300 1.060300
10.462800 1.053700
10.490200 1.047800
10.517700 1.042900
10.545100 1.050600
10.572500 1.071800
10.600000 1.087700
10.627400 1.102000
10.654800 1.108300
10.682300 1.094500
10.709700 1.080500
10.737200 1.070800
10.764600 1.052100
10.792000 1.032200
10.819500 0.998000
10.846900 0.962600
10.874400 0.931800
10.901800 0.890900
10.929200 0.849000
10.956700 0.803000
10.984100 0.783300
11.011600 0.780100
11.039000 0.783800
11.066400 0.771900
11.093900 0.739100
11.121300 0.709300
11.148700 0.682500
11.176200 0.659100
11.203600 0.639500
11.231100 0.623200
11.258500 0.604200
11.285900 0.582000
11.313400 0.556400
11.340800 0.530200
11.368300 0.507000
11.395700 0.483400
11.423100 0.462400
11.450600 0.445600
11.478000 0.431600
11.505500 0.417100
11.532900 0.404300
11.560300 0.396600
11.587800 0.397700
11.615200 0.432500
11.642600 0.497200
11.670100 0.550300
11.697500 0.562600
11.725000 0.595500
11.752400 0.629300
11.779800 0.644400
11.807300 0.647400
11.834700 0.639000
11.862200 0.640400
11.889600 0.654400
11.917000 0.655100
11.944500 0.689300
11.971900 0.781900
11.999400 0.852500
12.026800 0.882300
12.054200 0.922900
12.081700 0.947900
12.109100 0.975600
12.136500 1.026500
12.164000 1.091000
12.191400 1.181700
12.218900 1.290800
12.246300 1.417400
12.273700 1.557200
12.301200 1.763700
12.328600 2.025400
12.356100 2.166800
12.383500 1.829700
12.410900 1.786400
12.438400 1.782200
12.465800 1.786700
12.493300 1.780200
12.520700 1.776700
12.548100 1.763100
12.575600 1.773000
12.603000 1.710900
12.630400 1.675600
12.657900 1.645300
12.685300 1.613600
12.712800 1.582300
12.740200 1.557200
12.767600 1.541600
12.795100 1.550700
12.822500 1.577800
12.850000 1.596500
12.877400 1.600300
12.904800 1.605900
12.932300 1.605600
12.959700 1.672300
12.987200 1.566600
13.014600 1.485500
13.042000 1.441700
13.069500 1.419500
13.096900 1.407200
13.124300 1.411300
13.151800 1.444000
13.179200 1.397100
13.206700 1.566200
13.234100 1.593700
13.261500 1.522300
13.289000 1.482600
13.316400 1.469300
13.343900 1.481100
13.371300 1.505100
13.398700 1.493600
13.426200 1.410200
13.453600 1.383900
13.481100 1.383600
13.508500 1.368400
13.535900 1.382800
13.563400 1.458200
13.590800 1.508800
13.618200 1.609900
13.645700 1.677100
13.673100 1.773800
13.700600 1.806500
13.728000 1.802700
13.755400 1.794800
13.782900 1.797200
13.810300 1.799700
13.837800 1.784500
13.865200 1.767800
13.892600 1.735400
13.920100 1.693700
13.947500 1.687700
13.975000 1.702300
14.002400 1.800000
14.029800 1.846100
14.057300 1.723800
14.084700 1.705500
14.112100 1.718400
14.139600 1.724500
14.167000 1.745800
14.194500 1.762300
14.221900 1.779500
14.249300 1.802300
14.276800 1.815200
14.304200 1.814400
14.331700 1.790600
14.359100 1.754700
14.386500 1.720400
14.414000 1.690600
14.441400 1.664200
14.468900 1.568000
14.496300 1.507300
14.523700 1.488700
14.551200 1.482200
14.578600 1.469700
14.606000 1.463900
14.633500 1.460500
14.660900 1.456500
14.688400 1.449000
14.715800 1.436600
14.743200 1.431900
14.770700 1.435200
14.798100 1.403800
14.825600 1.426300
14.853000 1.447600
14.880400 1.462200
14.907900 1.477500
14.935300 1.494400
14.962800 1.512500
14.990200 1.513600
15.017600 1.510400
15.045100 1.505300
15.072500 1.502300
15.099900 1.501700
15.127400 1.491000
15.154800 1.476800
15.182300 1.462300
15.209700 1.448300
15.237100 1.441300
15.264600 1.445800
15.292000 1.468100
15.319500 1.484100
15.346900 1.523100
15.374300 1.537500
15.401800 1.558100
15.429200 1.564100
