set title 'mp-1080657 - Density of States'
set xlabel 'Energy (eV)'
set ylabel 'DOS (states/eV)'
set grid
set xrange [-10:10]
set yrange [0:14.397]
set xzeroaxis lt -1
set terminal png size 800,600
set output 'mp-1080657_dos_gnuplot.png'
plot '-' using 1:2 with lines title 'DOS'
-14.643200 0.000000
-14.625300 0.000000
-14.607400 0.000000
-14.589500 0.000000
-14.571700 0.000000
-14.553800 0.000000
-14.535900 0.000000
-14.518100 0.000000
-14.500200 0.000000
-14.482300 0.000000
-14.464400 0.000000
-14.446600 0.000000
-14.428700 0.000000
-14.410800 0.000000
-14.393000 0.000000
-14.375100 0.000000
-14.357200 0.000000
-14.339400 0.000000
-14.321500 0.000000
-14.303600 0.000000
-14.285700 0.000000
-14.267900 0.000000
-14.250000 0.000000
-14.232100 0.000000
-14.214300 0.000000
-14.196400 0.000000
-14.178500 0.000000
-14.160600 0.000000
-14.142800 0.000000
-14.124900 0.000000
-14.107000 0.000000
-14.089200 0.000000
-14.071300 0.000000
-14.053400 0.000000
-14.035600 0.000000
-14.017700 0.000000
-13.999800 0.000000
-13.981900 0.000000
-13.964100 0.000000
-13.946200 0.000000
-13.928300 0.000000
-13.910500 0.000000
-13.892600 0.000000
-13.874700 0.000000
-13.856800 0.000000
-13.839000 0.000000
-13.821100 0.000000
-13.803200 0.000000
-13.785400 0.000000
-13.767500 0.000000
-13.749600 0.000000
-13.731800 0.000000
-13.713900 0.000000
-13.696000 0.000000
-13.678100 0.000000
-13.660300 0.000000
-13.642400 0.000000
-13.624500 0.000000
-13.606700 0.000000
-13.588800 0.000000
-13.570900 0.000000
-13.553000 0.000000
-13.535200 0.000000
-13.517300 0.000000
-13.499400 0.000000
-13.481600 0.000000
-13.463700 0.000000
-13.445800 0.000000
-13.428000 0.000000
-13.410100 0.000000
-13.392200 0.000000
-13.374300 0.000000
-13.356500 0.000000
-13.338600 0.000000
-13.320700 0.000000
-13.302900 0.000000
-13.285000 0.000000
-13.267100 0.000000
-13.249200 0.000000
-13.231400 0.000000
-13.213500 0.000000
-13.195600 0.000000
-13.177800 0.000000
-13.159900 0.000000
-13.142000 0.000000
-13.124200 0.000000
-13.106300 0.000000
-13.088400 0.000000
-13.070500 0.000000
-13.052700 0.000000
-13.034800 0.000000
-13.016900 0.001800
-12.999100 0.254900
-12.981200 0.946200
-12.963300 2.390300
-12.945400 3.611800
-12.927600 4.213900
-12.909700 4.214000
-12.891800 4.214200
-12.874000 4.214300
-12.856100 4.207300
-12.838200 3.999500
-12.820400 3.495200
-12.802500 2.485300
-12.784600 1.729200
-12.766700 1.423100
-12.748900 1.423100
-12.731000 1.423100
-12.713100 1.423200
-12.695300 1.423200
-12.677400 4.221600
-12.659500 5.548900
-12.641600 5.669200
-12.623800 5.669200
-12.605900 5.669300
-12.588000 5.669300
-12.570200 5.669400
-12.552300 5.669400
-12.534400 5.174600
-12.516600 3.586000
-12.498700 2.909000
-12.480800 2.890800
-12.462900 2.890800
-12.445100 2.890800
-12.427200 2.890800
-12.409300 2.890800
-12.391500 2.890800
-12.373600 2.864900
-12.355700 2.781900
-12.337800 2.605400
-12.320000 2.447500
-12.302100 2.368400
-12.284200 2.368400
-12.266400 2.368400
-12.248500 2.368400
-12.230600 2.368400
-12.212700 2.368400
-12.194900 2.368400
-12.177000 2.368500
-12.159100 2.368500
-12.141300 2.368500
-12.123400 2.368500
-12.105500 2.368500
-12.087700 3.036000
-12.069800 4.617800
-12.051900 6.375200
-12.034000 7.004900
-12.016200 7.004900
-11.998300 7.004800
-11.980400 7.004700
-11.962600 7.004600
-11.944700 6.563900
-11.926800 5.537300
-11.908900 4.445800
-11.891100 4.080400
-11.873200 4.080300
-11.855300 4.080300
-11.837500 4.080200
-11.819600 4.080200
-11.801700 4.803900
-11.783900 7.984400
-11.766000 8.440400
-11.748100 8.440500
-11.730200 8.440500
-11.712400 8.440500
-11.694500 8.440500
-11.676600 8.440500
-11.658800 8.440500
-11.640900 7.035500
-11.623000 5.320800
-11.605100 4.708300
-11.587300 3.734100
-11.569400 3.600100
-11.551500 4.937400
-11.533700 6.859600
-11.515800 7.794700
-11.497900 7.829400
-11.480100 7.843700
-11.462200 7.855400
-11.444300 5.885500
-11.426400 4.478100
-11.408600 4.111600
-11.390700 4.112200
-11.372800 4.112800
-11.355000 4.113400
-11.337100 4.114000
-11.319200 4.114700
-11.301300 4.115400
-11.283500 4.116100
-11.265600 4.116800
-11.247700 4.117500
-11.229900 4.118200
-11.212000 4.119000
-11.194100 2.954900
-11.176300 0.000000
-11.158400 0.000000
-11.140500 0.000000
-11.122600 0.000000
-11.104800 0.000000
-11.086900 0.000000
-11.069000 0.000000
-11.051200 0.000000
-11.033300 0.000000
-11.015400 0.000000
-10.997500 0.000000
-10.979700 0.000000
-10.961800 0.000000
-10.943900 0.000000
-10.926100 0.000000
-10.908200 0.000000
-10.890300 0.000000
-10.872500 0.000000
-10.854600 0.000000
-10.836700 0.000000
-10.818800 0.000000
-10.801000 0.000000
-10.783100 0.000000
-10.765200 0.000000
-10.747400 0.000000
-10.729500 0.000000
-10.711600 0.000000
-10.693700 0.000000
-10.675900 0.000000
-10.658000 0.000000
-10.640100 0.000000
-10.622300 0.060000
-10.604400 0.747000
-10.586500 2.710700
-10.568700 4.979100
-10.550800 6.176600
-10.532900 6.204700
-10.515000 6.233600
-10.497200 6.263500
-10.479300 6.294200
-10.461400 3.063300
-10.443600 1.705200
-10.425700 1.705200
-10.407800 1.705200
-10.389900 1.705200
-10.372100 1.705200
-10.354200 1.705200
-10.336300 1.705200
-10.318500 1.705100
-10.300600 1.705100
-10.282700 1.768700
-10.264900 2.520500
-10.247000 3.358200
-10.229100 3.433200
-10.211200 3.433100
-10.193400 3.433100
-10.175500 3.433100
-10.157600 3.433100
-10.139800 3.433100
-10.121900 3.433100
-10.104000 3.433100
-10.086100 3.433100
-10.068300 3.433100
-10.050400 3.433100
-10.032500 3.433100
-10.014700 3.433100
-9.996800 3.433100
-9.978900 3.433100
-9.961100 3.433100
-9.943200 3.433000
-9.925300 3.433000
-9.907400 3.433000
-9.889600 3.433000
-9.871700 3.433000
-9.853800 3.433000
-9.836000 3.102300
-9.818100 2.915500
-9.800200 2.907800
-9.782300 2.907800
-9.764500 2.907800
-9.746600 2.907800
-9.728700 2.907800
-9.710900 2.907800
-9.693000 2.907800
-9.675100 2.907800
-9.657300 2.907800
-9.639400 2.907800
-9.621500 2.907800
-9.603600 2.907800
-9.585800 2.907900
-9.567900 2.928400
-9.550000 3.100100
-9.532200 3.328400
-9.514300 3.282900
-9.496400 3.282900
-9.478500 3.282900
-9.460700 3.222500
-9.442800 3.120300
-9.424900 3.059500
-9.407100 3.059500
-9.389200 3.059500
-9.371300 3.059500
-9.353500 3.059600
-9.335600 3.059600
-9.317700 3.059600
-9.299800 3.059600
-9.282000 3.059600
-9.264100 3.059700
-9.246200 3.059700
-9.228400 3.059700
-9.210500 3.059700
-9.192600 3.059800
-9.174700 3.059800
-9.156900 3.059800
-9.139000 3.059800
-9.121100 3.059900
-9.103300 3.059900
-9.085400 3.059900
-9.067500 3.059900
-9.049700 3.060000
-9.031800 3.060000
-9.013900 2.840400
-8.996000 1.967100
-8.978200 1.823900
-8.960300 1.823900
-8.942400 1.823900
-8.924600 1.823900
-8.906700 1.823900
-8.888800 1.823900
-8.870900 1.823900
-8.853100 1.823900
-8.835200 1.823900
-8.817300 1.823900
-8.799500 1.823900
-8.781600 1.823900
-8.763700 1.823900
-8.745900 1.823900
-8.728000 1.823900
-8.710100 1.823900
-8.692200 1.823900
-8.674400 1.823900
-8.656500 1.823900
-8.638600 1.823900
-8.620800 1.823900
-8.602900 2.143500
-8.585000 2.539900
-8.567100 2.581900
-8.549300 2.593400
-8.531400 2.594100
-8.513500 2.594100
-8.495700 2.594100
-8.477800 2.594200
-8.459900 2.594200
-8.442100 2.594200
-8.424200 2.594300
-8.406300 2.594300
-8.388400 2.594400
-8.370600 2.594400
-8.352700 2.594400
-8.334800 2.737200
-8.317000 2.860700
-8.299100 2.860800
-8.281200 2.860800
-8.263300 2.860900
-8.245500 2.860900
-8.227600 2.861000
-8.209700 2.861000
-8.191900 2.861100
-8.174000 2.861100
-8.156100 2.861200
-8.138300 2.861300
-8.120400 2.861300
-8.102500 2.861400
-8.084600 1.563200
-8.066800 1.563200
-8.048900 1.563200
-8.031000 1.563200
-8.013200 1.563200
-7.995300 1.563200
-7.977400 1.563200
-7.959500 1.563200
-7.941700 1.563200
-7.923800 1.563200
-7.905900 1.563200
-7.888100 1.563200
-7.870200 1.563200
-7.852300 1.563300
-7.834500 1.563300
-7.816600 1.563300
-7.798700 1.563300
-7.780800 1.563300
-7.763000 1.563300
-7.745100 1.563300
-7.727200 1.563300
-7.709400 1.563300
-7.691500 1.563300
-7.673600 1.563300
-7.655700 1.563300
-7.637900 1.563300
-7.620000 1.548700
-7.602100 1.036000
-7.584300 0.863700
-7.566400 0.586300
-7.548500 0.000000
-7.530700 0.000000
-7.512800 0.000000
-7.494900 0.000000
-7.477000 0.000000
-7.459200 0.000000
-7.441300 0.000000
-7.423400 0.000000
-7.405600 0.000000
-7.387700 0.000000
-7.369800 0.000000
-7.351900 0.000000
-7.334100 0.000000
-7.316200 0.000000
-7.298300 0.000000
-7.280500 0.000000
-7.262600 0.000000
-7.244700 0.000000
-7.226900 0.000000
-7.209000 0.000000
-7.191100 0.000000
-7.173200 0.000000
-7.155400 0.000000
-7.137500 0.000000
-7.119600 0.000000
-7.101800 0.000000
-7.083900 0.000000
-7.066000 0.000000
-7.048100 0.000000
-7.030300 0.000000
-7.012400 0.000000
-6.994500 0.000000
-6.976700 0.000000
-6.958800 0.000000
-6.940900 0.000000
-6.923100 0.000000
-6.905200 0.000000
-6.887300 0.000000
-6.869400 0.000000
-6.851600 0.000000
-6.833700 0.000000
-6.815800 0.000000
-6.798000 0.000000
-6.780100 0.000000
-6.762200 0.000000
-6.744300 0.000000
-6.726500 0.000000
-6.708600 0.000000
-6.690700 0.000000
-6.672900 0.000000
-6.655000 0.000000
-6.637100 0.000000
-6.619300 0.000000
-6.601400 0.000000
-6.583500 0.000000
-6.565600 0.000000
-6.547800 0.000000
-6.529900 0.000000
-6.512000 0.000000
-6.494200 0.000000
-6.476300 0.000000
-6.458400 0.000000
-6.440500 0.000000
-6.422700 0.000000
-6.404800 0.000000
-6.386900 0.000000
-6.369100 0.000000
-6.351200 0.000000
-6.333300 0.000000
-6.315500 0.000000
-6.297600 0.000000
-6.279700 0.000000
-6.261800 0.000000
-6.244000 0.000000
-6.226100 0.000000
-6.208200 0.000000
-6.190400 0.000700
-6.172500 0.146100
-6.154600 0.616000
-6.136700 0.745600
-6.118900 0.745600
-6.101000 0.745500
-6.083100 0.745500
-6.065300 0.745500
-6.047400 0.745500
-6.029500 0.745500
-6.011600 0.745500
-5.993800 0.745500
-5.975900 0.745400
-5.958000 0.745400
-5.940200 0.745400
-5.922300 0.745400
-5.904400 0.745400
-5.886600 0.745400
-5.868700 0.745400
-5.850800 0.745300
-5.832900 0.745300
-5.815100 0.745300
-5.797200 0.745300
-5.779300 0.745300
-5.761500 0.745300
-5.743600 0.957900
-5.725700 1.459300
-5.707800 1.790700
-5.690000 1.790700
-5.672100 1.790600
-5.654200 1.790600
-5.636400 1.790600
-5.618500 1.790600
-5.600600 1.790500
-5.582800 1.790500
-5.564900 1.790500
-5.547000 1.790500
-5.529100 1.790400
-5.511300 1.790400
-5.493400 1.790400
-5.475500 1.790400
-5.457700 1.790400
-5.439800 1.790300
-5.421900 1.790300
-5.404000 1.790300
-5.386200 1.790300
-5.368300 1.790200
-5.350400 1.790200
-5.332600 1.790200
-5.314700 1.793100
-5.296800 1.805000
-5.279000 1.832300
-5.261100 1.871500
-5.243200 1.901600
-5.225300 1.915200
-5.207500 1.915100
-5.189600 1.915100
-5.171700 1.915000
-5.153900 1.914900
-5.136000 1.914900
-5.118100 1.913500
-5.100200 1.886700
-5.082400 1.818400
-5.064500 1.814300
-5.046600 1.814200
-5.028800 1.814100
-5.010900 1.814100
-4.993000 1.814000
-4.975200 1.813900
-4.957300 1.813800
-4.939400 1.813800
-4.921500 1.813700
-4.903700 1.813600
-4.885800 1.813500
-4.867900 1.813400
-4.850100 1.813400
-4.832200 1.813300
-4.814300 1.813200
-4.796400 1.813100
-4.778600 1.813100
-4.760700 1.813000
-4.742800 1.812900
-4.725000 1.812800
-4.707100 1.812700
-4.689200 1.812700
-4.671400 1.812600
-4.653500 1.812500
-4.635600 1.812400
-4.617700 1.812300
-4.599900 1.812300
-4.582000 1.815500
-4.564100 1.846400
-4.546300 1.910300
-4.528400 2.011300
-4.510500 2.199100
-4.492600 2.393400
-4.474800 2.559600
-4.456900 2.696000
-4.439000 2.793500
-4.421200 2.832800
-4.403300 3.227900
-4.385400 3.717900
-4.367600 4.403300
-4.349700 4.580700
-4.331800 4.579500
-4.313900 4.578300
-4.296100 4.577100
-4.278200 4.576000
-4.260300 4.575000
-4.242500 4.573900
-4.224600 4.573000
-4.206700 4.572000
-4.188800 4.444700
-4.171000 3.918200
-4.153100 2.967500
-4.135200 1.723400
-4.117400 0.773100
-4.099500 0.127600
-4.081600 0.000000
-4.063800 0.000000
-4.045900 0.020500
-4.028000 0.327300
-4.010100 0.751700
-3.992300 1.182000
-3.974400 1.477100
-3.956500 1.564500
-3.938700 1.564700
-3.920800 1.564900
-3.902900 1.565100
-3.885000 1.565300
-3.867200 1.565400
-3.849300 1.565600
-3.831400 2.233900
-3.813600 2.654000
-3.795700 2.654200
-3.777800 2.654400
-3.760000 2.654500
-3.742100 2.654700
-3.724200 2.654900
-3.706300 2.655100
-3.688500 2.655300
-3.670600 2.655500
-3.652700 2.655700
-3.634900 2.655900
-3.617000 2.656100
-3.599100 2.566400
-3.581200 2.181600
-3.563400 1.721000
-3.545500 1.721000
-3.527600 1.721000
-3.509800 1.721000
-3.491900 1.721000
-3.474000 1.721000
-3.456200 1.721000
-3.438300 1.777300
-3.420400 2.900900
-3.402500 3.459600
-3.384700 3.459400
-3.366800 3.459200
-3.348900 3.459100
-3.331100 3.458900
-3.313200 3.458700
-3.295300 3.458600
-3.277400 3.458400
-3.259600 3.458200
-3.241700 3.458100
-3.223800 3.384900
-3.206000 3.208500
-3.188100 3.208300
-3.170200 3.208100
-3.152400 3.207900
-3.134500 3.207700
-3.116600 3.207500
-3.098700 3.207400
-3.080900 3.207200
-3.063000 3.148400
-3.045100 2.904600
-3.027300 2.536800
-3.009400 2.687700
-2.991500 2.942800
-2.973600 3.218200
-2.955800 3.460500
-2.937900 3.609900
-2.920000 3.610100
-2.902200 3.610300
-2.884300 3.610400
-2.866400 3.610600
-2.848600 3.610800
-2.830700 3.610900
-2.812800 3.611100
-2.794900 3.611300
-2.777100 3.611500
-2.759200 3.611700
-2.741300 3.611800
-2.723500 3.612000
-2.705600 3.612200
-2.687700 3.612400
-2.669800 3.612600
-2.652000 3.612800
-2.634100 3.613000
-2.616200 3.613200
-2.598400 3.613400
-2.580500 3.636900
-2.562600 3.749500
-2.544800 3.955100
-2.526900 5.112900
-2.509000 5.958600
-2.491100 6.177800
-2.473300 6.097000
-2.455400 5.981800
-2.437500 7.114600
-2.419700 10.392700
-2.401800 11.177600
-2.383900 11.294000
-2.366000 10.308200
-2.348200 8.948400
-2.330300 7.587800
-2.312400 6.281300
-2.294600 4.610000
-2.276700 2.320400
-2.258800 2.658700
-2.241000 2.883400
-2.223100 3.067600
-2.205200 3.067400
-2.187300 3.065700
-2.169500 3.064100
-2.151600 3.062300
-2.133700 3.070900
-2.115900 3.897700
-2.098000 4.686500
-2.080100 5.009600
-2.062200 5.293600
-2.044400 5.540500
-2.026500 5.721100
-2.008600 5.873500
-1.990800 6.088100
-1.972900 6.336100
-1.955000 6.602200
-1.937200 6.847100
-1.919300 7.044500
-1.901400 7.238600
-1.883500 7.403700
-1.865700 7.146300
-1.847800 6.771700
-1.829900 6.411700
-1.812100 6.058100
-1.794200 5.711000
-1.776300 5.370300
-1.758400 5.068000
-1.740600 4.824400
-1.722700 4.720600
-1.704800 4.279700
-1.687000 3.895700
-1.669100 3.571500
-1.651200 3.499900
-1.633400 3.526300
-1.615500 3.644700
-1.597600 3.807300
-1.579700 4.005900
-1.561900 4.233300
-1.544000 4.489400
-1.526100 4.746100
-1.508300 5.024200
-1.490400 5.309600
-1.472500 5.580200
-1.454600 5.855000
-1.436800 6.124000
-1.418900 6.295800
-1.401000 6.363100
-1.383200 6.375800
-1.365300 6.431400
-1.347400 6.485800
-1.329600 6.121000
-1.311700 5.900400
-1.293800 5.630400
-1.275900 5.369300
-1.258100 5.144900
-1.240200 4.913100
-1.222300 4.727500
-1.204500 4.629900
-1.186600 4.589600
-1.168700 4.614500
-1.150800 4.628200
-1.133000 4.644800
-1.115100 4.638700
-1.097200 4.633000
-1.079400 4.627500
-1.061500 4.622200
-1.043600 4.617200
-1.025800 4.612500
-1.007900 4.760300
-0.990000 5.260200
-0.972100 5.802400
-0.954300 6.378100
-0.936400 6.882800
-0.918500 7.585200
-0.900700 9.671700
-0.882800 10.886900
-0.864900 9.735500
-0.847000 8.370200
-0.829200 6.234300
-0.811300 4.896700
-0.793400 4.318800
-0.775600 3.917300
-0.757700 3.779900
-0.739800 4.083700
-0.722000 4.552300
-0.704100 5.145700
-0.686200 5.790400
-0.668300 6.207700
-0.650500 6.380800
-0.632600 6.325300
-0.614700 6.153100
-0.596900 6.169100
-0.579000 6.327700
-0.561100 6.506000
-0.543200 6.709900
-0.525400 6.947300
-0.507500 7.182600
-0.489600 7.161400
-0.471800 7.045700
-0.453900 6.841600
-0.436000 7.004900
-0.418200 7.227400
-0.400300 7.356500
-0.382400 7.436700
-0.364500 7.693100
-0.346700 7.374800
-0.328800 6.514800
-0.310900 5.851400
-0.293100 6.075700
-0.275200 7.095500
-0.257300 9.450000
-0.239400 10.352400
-0.221600 10.148400
-0.203700 10.006700
-0.185800 9.753500
-0.168000 9.631200
-0.150100 9.561800
-0.132200 8.928800
-0.114400 8.403700
-0.096500 8.652300
-0.078600 9.394600
-0.060700 9.940000
-0.042900 8.763000
-0.025000 6.351400
-0.007100 6.206200
0.010700 8.305900
0.028600 9.351000
0.046500 9.819400
0.064400 9.886100
0.082200 9.551300
0.100100 8.787200
0.118000 7.641700
0.135800 6.492900
0.153700 5.313800
0.171600 5.207500
0.189500 5.255900
0.207300 5.694800
0.225200 6.722500
0.243100 7.933900
0.260900 8.803900
0.278800 9.581800
0.296700 9.655900
0.314500 9.527200
0.332400 9.475600
0.350300 8.024100
0.368200 7.779700
0.386000 7.871500
0.403900 7.885400
0.421800 7.787700
0.439600 7.775700
0.457500 7.410700
0.475400 6.603300
0.493300 5.537200
0.511100 4.552600
0.529000 3.590600
0.546900 3.740200
0.564700 4.815900
0.582600 5.008400
0.600500 5.560300
0.618300 6.611000
0.636200 9.213600
0.654100 11.149200
0.672000 11.309200
0.689800 11.199700
0.707700 9.808900
0.725600 8.608200
0.743400 8.670900
0.761300 8.783000
0.779200 8.908600
0.797100 8.563100
0.814900 7.460900
0.832800 6.365800
0.850700 6.514700
0.868500 5.634000
0.886400 5.770200
0.904300 6.141300
0.922100 6.687100
0.940000 7.942600
0.957900 9.212700
0.975800 10.294900
0.993600 10.924500
1.011500 11.112900
1.029400 11.093700
1.047200 12.814000
1.065100 10.664500
1.083000 8.913500
1.100900 7.474200
1.118700 6.367300
1.136600 5.730100
1.154500 5.772000
1.172300 5.727900
1.190200 5.723200
1.208100 5.789900
1.225900 5.966700
1.243800 6.172500
1.261700 5.999200
1.279600 5.642300
1.297400 5.458900
1.315300 6.274000
1.333200 7.725200
1.351000 8.030500
1.368900 7.505200
1.386800 6.978900
1.404700 6.457300
1.422500 5.948300
1.440400 5.320000
1.458300 4.770600
1.476100 4.262400
1.494000 3.795100
1.511900 3.423100
1.529700 3.145800
1.547600 2.924300
1.565500 2.746100
1.583400 2.619400
1.601200 2.614800
1.619100 2.664000
1.637000 2.832400
1.654800 3.033100
1.672700 3.206500
1.690600 3.477400
1.708500 3.817900
1.726300 4.045800
1.744200 4.169400
1.762100 4.197900
1.779900 3.923100
1.797800 3.581400
1.815700 3.232600
1.833500 2.808400
1.851400 2.370400
1.869300 1.989800
1.887200 1.928900
1.905000 2.014900
1.922900 2.091600
1.940800 2.267000
1.958600 2.465500
1.976500 2.687000
1.994400 2.962600
2.012300 3.328800
2.030100 3.691700
2.048000 4.150000
2.065900 4.573200
2.083700 4.576400
2.101600 4.579500
2.119500 4.582800
2.137300 4.586000
2.155200 4.589300
2.173100 4.592600
2.191000 4.596000
2.208800 4.599400
2.226700 4.602800
2.244600 4.606300
2.262400 4.609800
2.280300 4.613300
2.298200 4.616900
2.316100 4.620500
2.333900 4.624200
2.351800 4.627900
2.369700 4.783000
2.387500 4.946100
2.405400 5.135200
2.423300 2.732200
2.441100 2.697300
2.459000 2.825700
2.476900 2.954700
2.494800 3.084400
2.512600 3.212100
2.530500 3.245900
2.548400 3.262500
2.566200 3.278900
2.584100 3.295100
2.602000 3.311100
2.619900 3.326900
2.637700 3.342500
2.655600 3.266300
2.673500 3.061800
2.691300 2.761200
2.709200 2.459600
2.727100 2.048800
2.744900 1.908700
2.762800 2.533000
2.780700 2.967800
2.798600 2.968200
2.816400 2.968700
2.834300 2.983400
2.852200 3.224900
2.870000 3.671200
2.887900 3.735100
2.905800 3.735600
2.923700 3.736000
2.941500 3.736500
2.959400 3.736900
2.977300 3.737400
2.995100 3.737800
3.013000 3.640900
3.030900 3.191000
3.048700 2.481800
3.066600 2.019100
3.084500 1.711000
3.102400 1.636800
3.120200 1.636800
3.138100 1.636800
3.156000 1.636800
3.173800 1.636800
3.191700 1.636800
3.209600 1.636800
3.227500 1.636800
3.245300 1.636700
3.263200 1.636700
3.281100 1.636700
3.298900 1.636700
3.316800 1.636700
3.334700 1.636700
3.352500 1.636700
3.370400 1.636700
3.388300 1.636700
3.406200 1.636700
3.424000 1.636700
3.441900 1.636700
3.459800 1.636700
3.477600 1.636700
3.495500 1.636700
3.513400 1.636700
3.531300 1.636600
3.549100 1.636600
3.567000 1.636600
3.584900 1.636600
3.602700 1.636600
3.620600 1.636600
3.638500 1.636600
3.656300 1.636600
3.674200 1.636600
3.692100 1.636600
3.710000 1.636600
3.727800 1.636600
3.745700 1.636600
3.763600 1.636600
3.781400 1.636600
3.799300 1.636600
3.817200 1.636600
