set title 'mp-632401 - Density of States'
set xlabel 'Energy (eV)'
set ylabel 'DOS (states/eV)'
set grid
set xrange [-10:10]
set yrange [0:5.586]
set xzeroaxis lt -1
set terminal png size 800,600
set output 'mp-632401_dos_gnuplot.png'
plot '-' using 1:2 with lines title 'DOS'
-12.214800 0.000000
-12.196100 0.000000
-12.177400 0.000000
-12.158700 0.000000
-12.140000 0.000000
-12.121300 0.000000
-12.102600 0.000000
-12.083900 0.000000
-12.065200 0.000000
-12.046400 0.000000
-12.027700 0.000000
-12.009000 0.000000
-11.990300 0.000000
-11.971600 0.000000
-11.952900 0.000000
-11.934200 0.000000
-11.915500 0.000000
-11.896800 0.000000
-11.878100 0.000000
-11.859400 0.000000
-11.840700 0.000000
-11.822000 0.000000
-11.803300 0.000000
-11.784600 0.000000
-11.765900 0.000000
-11.747200 0.000000
-11.728500 0.000000
-11.709700 0.000000
-11.691000 0.000000
-11.672300 0.000000
-11.653600 0.000000
-11.634900 0.000000
-11.616200 0.000000
-11.597500 0.000000
-11.578800 0.000000
-11.560100 0.000000
-11.541400 0.000000
-11.522700 0.000000
-11.504000 0.000000
-11.485300 0.000000
-11.466600 0.000000
-11.447900 0.000000
-11.429200 0.000000
-11.410500 0.000000
-11.391800 0.000000
-11.373000 0.000000
-11.354300 0.000000
-11.335600 0.000000
-11.316900 0.000000
-11.298200 0.000000
-11.279500 0.000000
-11.260800 0.000000
-11.242100 0.000000
-11.223400 0.000000
-11.204700 0.000000
-11.186000 0.000000
-11.167300 0.000000
-11.148600 0.000000
-11.129900 0.000000
-11.111200 0.000000
-11.092500 0.000000
-11.073800 0.000000
-11.055100 0.000000
-11.036300 0.000000
-11.017600 0.000000
-10.998900 0.000000
-10.980200 0.000000
-10.961500 0.000000
-10.942800 0.000000
-10.924100 0.000000
-10.905400 0.000000
-10.886700 0.000000
-10.868000 0.000000
-10.849300 0.000000
-10.830600 0.000000
-10.811900 0.000000
-10.793200 0.000000
-10.774500 0.000000
-10.755800 0.000000
-10.737100 0.000000
-10.718400 0.000000
-10.699600 0.000000
-10.680900 0.000000
-10.662200 0.000000
-10.643500 0.000000
-10.624800 0.000000
-10.606100 0.000000
-10.587400 0.000000
-10.568700 0.000000
-10.550000 0.000000
-10.531300 0.000000
-10.512600 0.000500
-10.493900 0.067800
-10.475200 0.224700
-10.456500 0.364400
-10.437800 0.427800
-10.419100 0.474900
-10.400400 0.537400
-10.381700 0.607700
-10.362900 0.684800
-10.344200 0.762200
-10.325500 0.847400
-10.306800 0.957500
-10.288100 1.078400
-10.269400 1.157100
-10.250700 1.151600
-10.232000 1.132000
-10.213300 1.146900
-10.194600 1.190600
-10.175900 1.244500
-10.157200 1.301000
-10.138500 1.351900
-10.119800 1.396900
-10.101100 1.391500
-10.082400 1.369000
-10.063700 1.350600
-10.045000 1.336400
-10.026200 1.324100
-10.007500 1.320800
-9.988800 1.318100
-9.970100 1.296400
-9.951400 1.245000
-9.932700 1.171300
-9.914000 1.090100
-9.895300 1.021600
-9.876600 0.980200
-9.857900 0.948600
-9.839200 0.920100
-9.820500 0.892900
-9.801800 0.866400
-9.783100 0.843500
-9.764400 0.823500
-9.745700 0.806200
-9.727000 0.792000
-9.708300 0.776300
-9.689500 0.761100
-9.670800 0.747700
-9.652100 0.734900
-9.633400 0.722400
-9.614700 0.709900
-9.596000 0.697200
-9.577300 0.683600
-9.558600 0.669800
-9.539900 0.656100
-9.521200 0.644300
-9.502500 0.636900
-9.483800 0.631300
-9.465100 0.625800
-9.446400 0.620200
-9.427700 0.614400
-9.409000 0.608500
-9.390300 0.602500
-9.371600 0.596300
-9.352800 0.590600
-9.334100 0.585800
-9.315400 0.580100
-9.296700 0.573200
-9.278000 0.566400
-9.259300 0.559800
-9.240600 0.552900
-9.221900 0.546600
-9.203200 0.540800
-9.184500 0.535900
-9.165800 0.532100
-9.147100 0.528000
-9.128400 0.522900
-9.109700 0.517500
-9.091000 0.521200
-9.072300 0.566200
-9.053600 0.636000
-9.034900 0.714000
-9.016100 0.808700
-8.997400 0.907000
-8.978700 0.985800
-8.960000 1.036700
-8.941300 1.062200
-8.922600 1.068200
-8.903900 1.073700
-8.885200 1.081600
-8.866500 1.085800
-8.847800 1.084500
-8.829100 1.072000
-8.810400 1.058800
-8.791700 1.051400
-8.773000 1.051000
-8.754300 1.055200
-8.735600 1.062000
-8.716900 1.070300
-8.698200 1.079500
-8.679400 1.089200
-8.660700 1.096900
-8.642000 1.104600
-8.623300 1.113000
-8.604600 1.120200
-8.585900 1.125800
-8.567200 1.131100
-8.548500 1.136000
-8.529800 1.142200
-8.511100 1.149500
-8.492400 1.157000
-8.473700 1.164300
-8.455000 1.171400
-8.436300 1.178500
-8.417600 1.186500
-8.398900 1.211400
-8.380200 1.266400
-8.361500 1.306700
-8.342700 1.342100
-8.324000 1.355900
-8.305300 1.357500
-8.286600 1.353200
-8.267900 1.332300
-8.249200 1.322200
-8.230500 1.321200
-8.211800 1.318600
-8.193100 1.313600
-8.174400 1.306500
-8.155700 1.299500
-8.137000 1.296500
-8.118300 1.294700
-8.099600 1.291900
-8.080900 1.289000
-8.062200 1.288800
-8.043500 1.292100
-8.024800 1.293100
-8.006000 1.289500
-7.987300 1.283900
-7.968600 1.276600
-7.949900 1.267500
-7.931200 1.256600
-7.912500 1.244400
-7.893800 1.231400
-7.875100 1.214900
-7.856400 1.194700
-7.837700 1.172600
-7.819000 1.148800
-7.800300 1.122200
-7.781600 1.102900
-7.762900 1.089600
-7.744200 1.077000
-7.725500 1.065000
-7.706800 1.053900
-7.688100 1.043700
-7.669300 1.033900
-7.650600 1.022800
-7.631900 1.048300
-7.613200 1.119600
-7.594500 1.246200
-7.575800 1.381200
-7.557100 1.573500
-7.538400 1.712300
-7.519700 1.696500
-7.501000 1.624600
-7.482300 1.556700
-7.463600 1.495100
-7.444900 1.461800
-7.426200 1.439500
-7.407500 1.414500
-7.388800 1.392600
-7.370100 1.379600
-7.351400 1.374100
-7.332600 1.376300
-7.313900 1.383000
-7.295200 1.392300
-7.276500 1.405000
-7.257800 1.420900
-7.239100 1.442100
-7.220400 1.470000
-7.201700 1.483300
-7.183000 1.478600
-7.164300 1.463000
-7.145600 1.416400
-7.126900 1.339600
-7.108200 1.286400
-7.089500 1.262500
-7.070800 1.258000
-7.052100 1.275500
-7.033400 1.299800
-7.014700 1.325900
-6.995900 1.353900
-6.977200 1.372700
-6.958500 1.378200
-6.939800 1.378200
-6.921100 1.379300
-6.902400 1.397500
-6.883700 1.483300
-6.865000 1.551000
-6.846300 1.557800
-6.827600 1.536100
-6.808900 1.526800
-6.790200 1.530100
-6.771500 1.532100
-6.752800 1.532100
-6.734100 1.528500
-6.715400 1.519800
-6.696700 1.521200
-6.678000 1.518600
-6.659200 1.516900
-6.640500 1.516100
-6.621800 1.516500
-6.603100 1.518000
-6.584400 1.517700
-6.565700 1.513600
-6.547000 1.506400
-6.528300 1.502800
-6.509600 1.626100
-6.490900 2.123400
-6.472200 2.331100
-6.453500 2.500300
-6.434800 2.702300
-6.416100 2.533400
-6.397400 2.265200
-6.378700 2.124900
-6.360000 2.010800
-6.341300 1.760500
-6.322500 1.434800
-6.303800 1.327400
-6.285100 1.271700
-6.266400 1.248600
-6.247700 1.225400
-6.229000 1.199100
-6.210300 1.167100
-6.191600 1.135300
-6.172900 1.301500
-6.154200 1.508500
-6.135500 1.396500
-6.116800 1.449100
-6.098100 1.508000
-6.079400 1.414400
-6.060700 1.366600
-6.042000 1.343400
-6.023300 1.330800
-6.004600 1.329200
-5.985800 1.337200
-5.967100 1.348500
-5.948400 1.364800
-5.929700 1.384800
-5.911000 1.407600
-5.892300 1.425400
-5.873600 1.451300
-5.854900 1.483100
-5.836200 1.514900
-5.817500 1.558400
-5.798800 1.681000
-5.780100 1.811600
-5.761400 1.903900
-5.742700 1.914000
-5.724000 1.940400
-5.705300 1.961300
-5.686600 1.982400
-5.667900 2.013100
-5.649100 2.025800
-5.630400 1.963000
-5.611700 1.964300
-5.593000 1.949900
-5.574300 1.898700
-5.555600 1.840000
-5.536900 1.798600
-5.518200 1.769700
-5.499500 1.740400
-5.480800 1.744200
-5.462100 1.651900
-5.443400 1.535600
-5.424700 1.474600
-5.406000 1.465200
-5.387300 1.477100
-5.368600 1.515500
-5.349900 1.580900
-5.331200 1.609800
-5.312400 1.575800
-5.293700 1.564000
-5.275000 1.588500
-5.256300 1.634100
-5.237600 1.677600
-5.218900 1.721300
-5.200200 1.744700
-5.181500 1.750800
-5.162800 1.753000
-5.144100 1.749800
-5.125400 1.754800
-5.106700 1.762000
-5.088000 1.775800
-5.069300 1.795500
-5.050600 1.819900
-5.031900 1.842800
-5.013200 1.844900
-4.994500 1.866900
-4.975700 1.895900
-4.957000 1.933500
-4.938300 1.980900
-4.919600 2.026100
-4.900900 2.080900
-4.882200 2.198200
-4.863500 2.287100
-4.844800 2.311100
-4.826100 2.321500
-4.807400 2.343700
-4.788700 2.383600
-4.770000 2.411100
-4.751300 2.383000
-4.732600 2.267400
-4.713900 2.240300
-4.695200 2.245000
-4.676500 2.263800
-4.657800 2.274200
-4.639000 2.283200
-4.620300 2.318500
-4.601600 2.390100
-4.582900 2.387700
-4.564200 2.227100
-4.545500 2.169300
-4.526800 2.148300
-4.508100 2.168300
-4.489400 2.079300
-4.470700 2.062600
-4.452000 2.175200
-4.433300 2.103900
-4.414600 2.040200
-4.395900 2.075100
-4.377200 2.094300
-4.358500 2.101900
-4.339800 2.091200
-4.321100 2.116500
-4.302300 2.162500
-4.283600 2.227600
-4.264900 2.362700
-4.246200 2.410300
-4.227500 2.458000
-4.208800 2.532400
-4.190100 2.618100
-4.171400 2.786100
-4.152700 3.379700
-4.134000 3.454300
-4.115300 2.997900
-4.096600 2.691100
-4.077900 2.523300
-4.059200 2.458700
-4.040500 2.425600
-4.021800 2.377000
-4.003100 2.323200
-3.984300 2.455100
-3.965600 2.520400
-3.946900 2.461500
-3.928200 2.424200
-3.909500 2.330100
-3.890800 2.076000
-3.872100 1.857700
-3.853400 1.682600
-3.834700 1.516400
-3.816000 1.376100
-3.797300 1.243600
-3.778600 1.147100
-3.759900 1.077700
-3.741200 1.026800
-3.722500 0.995300
-3.703800 1.007000
-3.685100 0.950100
-3.666400 0.971900
-3.647600 0.975700
-3.628900 0.983000
-3.610200 0.992600
-3.591500 1.031500
-3.572800 1.123200
-3.554100 1.258900
-3.535400 1.300500
-3.516700 1.236400
-3.498000 1.245000
-3.479300 1.230700
-3.460600 1.290200
-3.441900 1.333400
-3.423200 1.365100
-3.404500 1.420600
-3.385800 1.474800
-3.367100 1.738600
-3.348400 1.960800
-3.329700 2.106600
-3.310900 2.249400
-3.292200 2.543400
-3.273500 2.897200
-3.254800 2.367000
-3.236100 2.271100
-3.217400 1.988000
-3.198700 1.830000
-3.180000 1.801600
-3.161300 1.780800
-3.142600 1.740600
-3.123900 1.769800
-3.105200 1.853800
-3.086500 1.989200
-3.067800 2.126200
-3.049100 2.186200
-3.030400 2.298600
-3.011700 2.370500
-2.993000 2.523000
-2.974200 2.662800
-2.955500 2.871700
-2.936800 3.103700
-2.918100 3.271900
-2.899400 3.457600
-2.880700 3.516800
-2.862000 3.622000
-2.843300 3.792800
-2.824600 3.890600
-2.805900 3.848500
-2.787200 3.797500
-2.768500 3.832100
-2.749800 3.726100
-2.731100 3.498400
-2.712400 3.302600
-2.693700 3.114100
-2.675000 2.902400
-2.656300 2.692800
-2.637500 2.495100
-2.618800 2.298300
-2.600100 2.151700
-2.581400 2.020000
-2.562700 1.928800
-2.544000 1.885500
-2.525300 1.893500
-2.506600 1.932700
-2.487900 2.005900
-2.469200 2.011900
-2.450500 2.086900
-2.431800 2.138700
-2.413100 2.156000
-2.394400 2.207000
-2.375700 2.272900
-2.357000 2.341500
-2.338300 2.384400
-2.319600 2.451500
-2.300800 2.566500
-2.282100 2.755600
-2.263400 2.964400
-2.244700 3.145900
-2.226000 3.391500
-2.207300 3.684000
-2.188600 3.113200
-2.169900 2.889500
-2.151200 2.652500
-2.132500 2.486800
-2.113800 2.476100
-2.095100 2.415200
-2.076400 2.361100
-2.057700 2.334100
-2.039000 2.339500
-2.020300 2.421100
-2.001600 2.352500
-1.982900 2.290200
-1.964100 2.258000
-1.945400 2.240700
-1.926700 2.188000
-1.908000 2.118000
-1.889300 2.073900
-1.870600 2.052000
-1.851900 1.993800
-1.833200 1.967200
-1.814500 1.785500
-1.795800 1.740900
-1.777100 1.800500
-1.758400 1.839200
-1.739700 1.917200
-1.721000 1.981100
-1.702300 2.094500
-1.683600 2.274300
-1.664900 2.548200
-1.646200 2.838600
-1.627400 2.875000
-1.608700 2.760500
-1.590000 2.731500
-1.571300 2.647900
-1.552600 2.617200
-1.533900 2.593900
-1.515200 2.577400
-1.496500 2.584100
-1.477800 2.332300
-1.459100 2.151100
-1.440400 1.917100
-1.421700 1.849400
-1.403000 1.814000
-1.384300 1.779800
-1.365600 1.762500
-1.346900 1.780800
-1.328200 1.814900
-1.309500 1.859200
-1.290700 1.891900
-1.272000 2.048100
-1.253300 2.239900
-1.234600 2.420400
-1.215900 2.561900
-1.197200 2.692500
-1.178500 2.773600
-1.159800 2.855500
-1.141100 3.018100
-1.122400 3.109200
-1.103700 3.189800
-1.085000 3.168200
-1.066300 3.150600
-1.047600 3.172200
-1.028900 3.223800
-1.010200 2.962600
-0.991500 2.793500
-0.972800 2.621100
-0.954000 2.343400
-0.935300 2.098300
-0.916600 1.940600
-0.897900 1.866000
-0.879200 1.862700
-0.860500 1.924700
-0.841800 2.037800
-0.823100 2.229200
-0.804400 2.505900
-0.785700 2.755100
-0.767000 3.003800
-0.748300 3.210000
-0.729600 3.402700
-0.710900 3.585600
-0.692200 3.773200
-0.673500 4.020700
-0.654800 4.229600
-0.636100 4.217000
-0.617300 4.150000
-0.598600 4.120800
-0.579900 3.667400
-0.561200 3.255200
-0.542500 3.100100
-0.523800 2.997600
-0.505100 2.941100
-0.486400 2.902800
-0.467700 2.938600
-0.449000 2.842200
-0.430300 2.775800
-0.411600 2.722200
-0.392900 2.693300
-0.374200 2.711700
-0.355500 2.814800
-0.336800 2.702700
-0.318100 2.579500
-0.299400 2.551200
-0.280600 2.607000
-0.261900 2.643100
-0.243200 2.918800
-0.224500 3.121900
-0.205800 3.254500
-0.187100 3.320500
-0.168400 3.359300
-0.149700 3.418400
-0.131000 3.469200
-0.112300 3.533900
-0.093600 3.641200
-0.074900 3.622400
-0.056200 3.668100
-0.037500 3.653600
-0.018800 3.564000
-0.000100 3.475500
0.018600 3.379300
0.037300 3.298300
0.056100 3.217000
0.074800 3.121400
0.093500 3.016500
0.112200 3.068300
0.130900 3.036700
0.149600 2.964100
0.168300 2.929300
0.187000 2.959000
0.205700 3.004700
0.224400 3.216100
0.243100 3.231200
0.261800 3.266900
0.280500 3.212700
0.299200 3.181700
0.317900 3.179000
0.336600 3.263000
0.355300 3.414200
0.374000 3.554000
0.392800 3.568800
0.411500 3.734000
0.430200 3.727900
0.448900 3.740800
0.467600 3.965600
0.486300 3.820300
0.505000 3.827100
0.523700 3.813600
0.542400 3.855200
0.561100 3.946500
0.579800 3.974300
0.598500 3.982400
0.617200 3.917500
0.635900 3.774000
0.654600 3.631600
0.673300 3.572500
0.692000 3.592400
0.710700 3.424100
0.729500 3.302500
0.748200 3.138900
0.766900 3.015700
0.785600 2.983400
0.804300 3.089200
0.823000 3.001800
0.841700 2.941600
0.860400 3.057900
0.879100 3.324900
0.897800 3.419700
0.916500 3.444200
0.935200 3.560200
0.953900 3.768800
0.972600 3.892700
0.991300 4.072500
1.010000 4.151000
1.028700 4.297800
1.047400 4.624100
1.066200 4.741000
1.084900 4.693900
1.103600 4.501300
1.122300 4.178800
1.141000 3.856600
1.159700 3.562300
1.178400 3.336800
1.197100 3.290300
1.215800 3.227000
1.234500 3.114000
1.253200 2.999100
1.271900 2.827800
1.290600 2.766200
1.309300 2.739000
1.328000 2.734300
1.346700 2.828900
1.365400 3.035100
1.384100 3.027100
1.402900 3.062600
1.421600 3.068700
1.440300 3.141200
1.459000 3.319500
1.477700 3.625800
1.496400 4.100500
1.515100 4.542500
1.533800 4.755600
1.552500 4.845600
1.571200 4.910300
1.589900 5.049700
1.608600 4.919200
1.627300 4.668300
1.646000 4.410900
1.664700 4.156500
1.683400 3.929500
1.702100 3.731800
1.720800 3.574800
1.739600 3.445400
1.758300 3.389400
1.777000 3.383800
1.795700 3.297300
1.814400 3.204600
1.833100 3.210600
1.851800 3.201600
1.870500 3.180300
1.889200 3.250300
1.907900 3.275600
1.926600 3.315100
1.945300 3.421900
1.964000 3.575400
1.982700 3.683800
2.001400 3.951700
2.020100 4.156900
2.038800 4.351200
2.057500 4.780600
2.076300 4.629400
2.095000 4.521100
2.113700 4.438500
2.132400 4.143200
2.151100 3.843900
2.169800 3.678000
2.188500 3.467900
2.207200 3.232300
2.225900 3.139100
2.244600 3.167900
2.263300 3.117400
2.282000 3.224300
2.300700 3.384800
2.319400 3.519200
2.338100 3.718600
2.356800 3.645800
2.375500 3.740000
2.394200 3.636800
2.413000 3.604100
2.431700 3.485200
2.450400 3.450500
2.469100 3.601900
2.487800 3.794900
2.506500 3.936100
2.525200 4.058700
2.543900 4.151300
2.562600 4.211200
2.581300 4.213600
2.600000 4.261700
2.618700 4.399100
2.637400 4.533300
2.656100 4.879400
2.674800 5.078400
2.693500 4.957900
2.712200 4.596700
2.730900 4.516100
2.749700 4.398500
2.768400 4.415300
2.787100 4.140700
2.805800 4.062100
2.824500 4.000700
2.843200 4.024100
2.861900 4.402700
2.880600 4.451600
2.899300 4.637400
2.918000 4.785400
2.936700 4.939100
2.955400 5.042300
2.974100 4.856800
2.992800 4.667600
3.011500 4.339900
3.030200 4.172600
3.048900 4.009900
3.067600 3.864600
3.086400 3.731600
3.105100 3.622600
3.123800 3.556900
3.142500 3.542100
3.161200 3.550100
3.179900 3.392600
3.198600 3.260700
3.217300 3.128200
3.236000 3.033300
3.254700 2.935700
3.273400 2.754300
3.292100 2.653900
3.310800 2.654000
3.329500 2.650100
3.348200 2.630200
3.366900 2.615300
3.385600 2.640600
3.404300 2.666000
3.423100 2.684800
3.441800 2.688800
3.460500 2.773600
3.479200 2.863700
3.497900 2.974100
3.516600 3.079400
3.535300 3.244100
3.554000 3.213600
3.572700 3.232900
3.591400 3.349900
3.610100 3.361900
3.628800 3.308400
3.647500 3.222900
3.666200 3.081800
3.684900 2.967000
3.703600 2.889200
3.722300 2.873200
3.741000 2.847300
3.759800 2.814600
3.778500 2.742100
3.797200 2.659600
3.815900 2.601900
3.834600 2.553400
3.853300 2.511400
3.872000 2.471800
3.890700 2.455100
3.909400 2.435300
3.928100 2.409300
3.946800 2.330300
3.965500 2.301900
3.984200 2.291700
4.002900 2.281700
4.021600 2.286000
4.040300 2.315000
4.059000 2.351200
4.077700 2.376500
4.096500 2.368800
4.115200 2.367800
4.133900 2.437500
4.152600 2.449000
4.171300 2.440900
4.190000 2.410500
4.208700 2.337000
4.227400 2.352900
4.246100 2.330600
4.264800 2.343400
4.283500 2.366200
4.302200 2.391900
4.320900 2.413900
4.339600 2.474900
4.358300 2.544700
4.377000 2.587100
4.395700 2.587000
4.414400 2.619600
4.433200 2.665800
4.451900 2.697800
4.470600 2.726300
4.489300 2.707600
4.508000 2.726000
4.526700 2.681700
4.545400 2.647600
4.564100 2.652600
4.582800 2.526000
4.601500 2.489500
4.620200 2.320800
4.638900 2.289900
4.657600 2.252600
4.676300 2.218100
4.695000 2.189300
4.713700 2.157500
4.732400 2.125200
4.751100 2.090700
4.769900 2.007300
4.788600 1.957100
4.807300 1.917700
4.826000 1.886600
4.844700 1.866000
4.863400 1.850900
4.882100 1.839200
4.900800 1.828200
4.919500 1.838600
4.938200 1.840800
4.956900 1.843900
4.975600 1.840300
4.994300 1.836600
5.013000 1.828700
5.031700 1.834400
5.050400 1.832100
5.069100 1.821800
5.087800 1.808600
5.106600 1.791100
5.125300 1.781500
5.144000 1.806400
5.162700 1.721700
5.181400 1.638600
5.200100 1.543100
5.218800 1.485600
5.237500 1.427800
5.256200 1.380700
5.274900 1.341100
5.293600 1.300800
5.312300 1.262900
5.331000 1.226600
5.349700 1.196900
5.368400 1.174100
5.387100 1.156900
5.405800 1.148300
5.424600 1.149200
5.443300 1.148500
5.462000 1.151400
5.480700 1.153000
5.499400 1.158600
5.518100 1.188800
5.536800 1.253600
5.555500 1.399800
5.574200 1.574600
5.592900 1.500500
5.611600 1.398500
5.630300 1.351100
5.649000 1.325800
5.667700 1.305000
5.686400 1.287500
5.705100 1.273700
5.723800 1.264500
5.742500 1.259900
5.761300 1.255500
5.780000 1.250300
5.798700 1.244000
5.817400 1.236900
5.836100 1.235500
5.854800 1.230200
5.873500 1.221200
5.892200 1.221900
5.910900 1.245000
5.929600 1.271900
5.948300 1.284400
5.967000 1.236700
5.985700 1.198700
6.004400 1.190100
6.023100 1.183800
6.041800 1.175700
6.060500 1.170100
6.079200 1.163500
6.098000 1.158000
6.116700 1.153600
6.135400 1.150800
6.154100 1.149400
6.172800 1.149700
6.191500 1.147600
6.210200 1.143900
6.228900 1.142000
6.247600 1.146600
6.266300 1.156500
6.285000 1.167800
6.303700 1.181800
6.322400 1.196600
6.341100 1.215200
6.359800 1.239500
6.378500 1.263900
6.397200 1.289000
6.415900 1.307500
6.434700 1.327400
6.453400 1.398600
6.472100 1.454400
6.490800 1.492200
6.509500 1.479600
6.528200 1.502400
6.546900 1.559200
6.565600 1.611000
6.584300 1.636100
6.603000 1.672000
6.621700 1.687800
6.640400 1.696700
6.659100 1.704400
6.677800 1.704700
6.696500 1.701300
6.715200 1.690500
6.733900 1.682700
6.752600 1.659800
6.771400 1.615700
6.790100 1.547400
6.808800 1.490400
6.827500 1.437000
6.846200 1.401900
6.864900 1.380600
6.883600 1.371400
6.902300 1.369200
6.921000 1.366500
6.939700 1.362100
6.958400 1.356500
6.977100 1.352800
6.995800 1.351800
7.014500 1.352200
7.033200 1.351500
7.051900 1.348800
7.070600 1.345900
7.089300 1.342600
7.108100 1.338800
7.126800 1.332200
7.145500 1.320400
7.164200 1.305100
7.182900 1.292200
7.201600 1.276000
7.220300 1.257500
7.239000 1.239600
7.257700 1.221000
7.276400 1.200800
7.295100 1.177600
7.313800 1.156100
7.332500 1.145300
7.351200 1.135100
7.369900 1.125400
7.388600 1.115700
7.407300 1.105600
7.426000 1.096800
7.444800 1.090100
