set title 'mp-11684 - Density of States'
set xlabel 'Energy (eV)'
set ylabel 'DOS (states/eV)'
set grid
set xrange [-10:10]
set yrange [0:50.628]
set xzeroaxis lt -1
set terminal png size 800,600
set output 'mp-11684_dos_gnuplot.png'
plot '-' using 1:2 with lines title 'DOS'
-20.123800 0.000000
-20.095800 0.000000
-20.067900 0.000000
-20.039900 0.000000
-20.011900 0.000000
-19.983900 0.000000
-19.955900 0.000000
-19.928000 0.000000
-19.900000 0.000000
-19.872000 0.000000
-19.844000 0.000000
-19.816100 0.000000
-19.788100 0.000000
-19.760100 0.000000
-19.732100 0.000000
-19.704100 0.000000
-19.676200 0.000000
-19.648200 0.000000
-19.620200 0.000000
-19.592200 0.000000
-19.564200 0.000000
-19.536300 0.000000
-19.508300 0.000000
-19.480300 0.000000
-19.452300 0.000000
-19.424300 0.000000
-19.396400 0.000000
-19.368400 0.000000
-19.340400 0.000000
-19.312400 0.000000
-19.284500 0.000000
-19.256500 0.000000
-19.228500 0.000000
-19.200500 0.000000
-19.172500 0.000000
-19.144600 0.000000
-19.116600 0.000000
-19.088600 0.000000
-19.060600 0.000000
-19.032600 0.000000
-19.004700 0.000000
-18.976700 0.000000
-18.948700 0.000000
-18.920700 0.000000
-18.892800 0.000000
-18.864800 0.000000
-18.836800 0.000000
-18.808800 0.000000
-18.780800 0.000000
-18.752900 0.000000
-18.724900 0.000000
-18.696900 0.000000
-18.668900 0.000000
-18.640900 0.000000
-18.613000 0.000000
-18.585000 0.000000
-18.557000 0.000000
-18.529000 0.000000
-18.501100 0.000000
-18.473100 0.000000
-18.445100 0.000000
-18.417100 0.000000
-18.389100 0.000000
-18.361200 0.000000
-18.333200 0.000000
-18.305200 0.000000
-18.277200 0.000000
-18.249200 0.000000
-18.221300 0.000000
-18.193300 0.000000
-18.165300 0.000000
-18.137300 0.000000
-18.109300 0.000000
-18.081400 0.000000
-18.053400 0.000000
-18.025400 0.000000
-17.997400 0.000000
-17.969500 0.000000
-17.941500 0.000000
-17.913500 0.000000
-17.885500 0.000000
-17.857500 0.000000
-17.829600 0.000000
-17.801600 0.000000
-17.773600 0.000000
-17.745600 0.000000
-17.717600 0.000000
-17.689700 0.000000
-17.661700 0.000000
-17.633700 0.000000
-17.605700 0.000000
-17.577800 1.526600
-17.549800 1.613800
-17.521800 2.357700
-17.493800 2.943700
-17.465800 3.692500
-17.437900 5.021000
-17.409900 6.810000
-17.381900 7.614600
-17.353900 9.250700
-17.325900 10.921300
-17.298000 10.690000
-17.270000 5.703100
-17.242000 2.183800
-17.214000 2.305100
-17.186100 5.234800
-17.158100 6.115100
-17.130100 9.207900
-17.102100 9.389200
-17.074100 14.793400
-17.046200 13.607500
-17.018200 5.768400
-16.990200 5.100800
-16.962200 7.726600
-16.934200 10.066300
-16.906300 11.005200
-16.878300 11.161100
-16.850300 14.106000
-16.822300 13.677200
-16.794300 9.991600
-16.766400 9.775500
-16.738400 14.495000
-16.710400 19.883400
-16.682400 12.899500
-16.654500 9.413100
-16.626500 6.571700
-16.598500 4.453500
-16.570500 6.202700
-16.542500 8.853500
-16.514600 11.786600
-16.486600 13.974100
-16.458600 12.730600
-16.430600 9.109500
-16.402600 5.875500
-16.374700 9.564500
-16.346700 11.471700
-16.318700 16.061100
-16.290700 13.457700
-16.262800 6.871700
-16.234800 4.504600
-16.206800 4.962300
-16.178800 7.115400
-16.150800 9.007900
-16.122900 11.163900
-16.094900 10.301500
-16.066900 8.350200
-16.038900 5.885300
-16.010900 4.760000
-15.983000 4.952800
-15.955000 6.062800
-15.927000 5.352100
-15.899000 7.225300
-15.871100 8.240500
-15.843100 10.934700
-15.815100 8.646500
-15.787100 7.775000
-15.759100 7.083200
-15.731200 6.582400
-15.703200 5.168900
-15.675200 3.448100
-15.647200 1.505200
-15.619200 0.325800
-15.591300 58.358000
-15.563300 74.026400
-15.535300 104.995900
-15.507300 40.510800
-15.479400 43.024000
-15.451400 111.895400
-15.423400 193.095000
-15.395400 0.000000
-15.367400 0.000000
-15.339500 0.000000
-15.311500 0.000000
-15.283500 0.000000
-15.255500 0.000000
-15.227500 0.000000
-15.199600 0.000000
-15.171600 0.000000
-15.143600 0.000000
-15.115600 0.000000
-15.087600 0.000000
-15.059700 0.000000
-15.031700 0.000000
-15.003700 0.000000
-14.975700 0.000000
-14.947800 0.000000
-14.919800 0.000000
-14.891800 0.000000
-14.863800 0.000000
-14.835800 0.000000
-14.807900 0.000000
-14.779900 0.000000
-14.751900 0.000000
-14.723900 0.000000
-14.695900 0.000000
-14.668000 0.000000
-14.640000 0.000000
-14.612000 0.000000
-14.584000 0.000000
-14.556100 0.000000
-14.528100 0.000000
-14.500100 0.000000
-14.472100 0.000000
-14.444100 0.000000
-14.416200 0.000000
-14.388200 0.000000
-14.360200 0.000000
-14.332200 0.000000
-14.304200 0.000000
-14.276300 0.000000
-14.248300 0.000000
-14.220300 0.000000
-14.192300 0.000000
-14.164400 0.000000
-14.136400 0.000000
-14.108400 0.000000
-14.080400 0.000000
-14.052400 0.000000
-14.024500 0.000000
-13.996500 0.000000
-13.968500 0.000000
-13.940500 0.000000
-13.912500 0.000000
-13.884600 0.000000
-13.856600 0.000000
-13.828600 0.000000
-13.800600 0.000000
-13.772600 0.000000
-13.744700 0.000000
-13.716700 0.000000
-13.688700 0.000000
-13.660700 0.000000
-13.632800 0.000000
-13.604800 0.000000
-13.576800 0.000000
-13.548800 0.000000
-13.520800 0.000000
-13.492900 0.000000
-13.464900 0.000000
-13.436900 0.000000
-13.408900 0.000000
-13.380900 0.000000
-13.353000 0.000000
-13.325000 0.000000
-13.297000 0.000000
-13.269000 0.000000
-13.241100 0.000000
-13.213100 0.000000
-13.185100 0.000000
-13.157100 0.000000
-13.129100 0.000000
-13.101200 0.000000
-13.073200 0.000000
-13.045200 0.000000
-13.017200 0.000000
-12.989200 0.000000
-12.961300 0.000000
-12.933300 0.000000
-12.905300 0.000000
-12.877300 0.000000
-12.849400 0.000000
-12.821400 0.000000
-12.793400 0.000000
-12.765400 0.000000
-12.737400 0.000000
-12.709500 0.000000
-12.681500 0.000000
-12.653500 0.000000
-12.625500 0.000000
-12.597500 0.000000
-12.569600 0.000000
-12.541600 0.000000
-12.513600 0.000000
-12.485600 0.000000
-12.457700 0.000000
-12.429700 0.000000
-12.401700 0.000000
-12.373700 0.000000
-12.345700 0.000000
-12.317800 0.000000
-12.289800 0.000000
-12.261800 0.000000
-12.233800 0.000000
-12.205800 0.000000
-12.177900 0.000000
-12.149900 0.000000
-12.121900 0.000000
-12.093900 0.000000
-12.065900 0.000000
-12.038000 0.000000
-12.010000 0.000000
-11.982000 0.000000
-11.954000 0.000000
-11.926100 0.000000
-11.898100 0.000000
-11.870100 0.000000
-11.842100 0.000000
-11.814100 0.000000
-11.786200 0.000000
-11.758200 0.000000
-11.730200 0.000000
-11.702200 0.000000
-11.674200 0.000000
-11.646300 0.000000
-11.618300 0.000000
-11.590300 0.000000
-11.562300 0.000000
-11.534400 0.000000
-11.506400 0.000000
-11.478400 0.000000
-11.450400 0.000000
-11.422400 0.000000
-11.394500 0.000000
-11.366500 0.000000
-11.338500 0.000000
-11.310500 0.000000
-11.282500 0.000000
-11.254600 0.000000
-11.226600 0.000000
-11.198600 0.000000
-11.170600 0.000000
-11.142700 0.000000
-11.114700 0.000000
-11.086700 0.000000
-11.058700 0.000000
-11.030700 0.000000
-11.002800 0.000000
-10.974800 0.000000
-10.946800 0.000000
-10.918800 0.000000
-10.890800 0.000000
-10.862900 0.000000
-10.834900 0.000000
-10.806900 0.000000
-10.778900 0.000000
-10.750900 0.000000
-10.723000 0.000000
-10.695000 0.000000
-10.667000 0.000000
-10.639000 0.000000
-10.611100 0.000000
-10.583100 0.000000
-10.555100 0.000000
-10.527100 0.000000
-10.499100 0.000000
-10.471200 0.000000
-10.443200 0.000000
-10.415200 0.000000
-10.387200 0.000000
-10.359200 0.000000
-10.331300 0.000000
-10.303300 0.000000
-10.275300 0.000000
-10.247300 0.000000
-10.219400 0.000000
-10.191400 0.000000
-10.163400 0.000000
-10.135400 0.000000
-10.107400 0.000000
-10.079500 0.000000
-10.051500 0.000000
-10.023500 0.000000
-9.995500 0.000000
-9.967500 0.000000
-9.939600 0.000000
-9.911600 0.000000
-9.883600 0.000000
-9.855600 0.000000
-9.827700 0.000000
-9.799700 0.000000
-9.771700 0.000000
-9.743700 0.000000
-9.715700 0.000000
-9.687800 0.000000
-9.659800 0.000000
-9.631800 0.000000
-9.603800 0.000000
-9.575800 0.000000
-9.547900 0.000000
-9.519900 0.000000
-9.491900 0.000000
-9.463900 0.000000
-9.436000 0.000000
-9.408000 0.000000
-9.380000 0.000000
-9.352000 0.000000
-9.324000 0.000000
-9.296100 0.000000
-9.268100 0.000000
-9.240100 0.000000
-9.212100 0.000000
-9.184100 0.000000
-9.156200 0.000000
-9.128200 0.000000
-9.100200 0.000000
-9.072200 0.000000
-9.044200 0.000000
-9.016300 0.000000
-8.988300 0.000000
-8.960300 0.000000
-8.932300 0.000000
-8.904400 0.000000
-8.876400 0.000000
-8.848400 0.000000
-8.820400 0.000000
-8.792400 0.000000
-8.764500 0.000000
-8.736500 0.000000
-8.708500 0.000000
-8.680500 0.000000
-8.652500 0.000000
-8.624600 0.000000
-8.596600 0.000000
-8.568600 0.000000
-8.540600 0.000000
-8.512700 0.000000
-8.484700 0.000000
-8.456700 0.000000
-8.428700 0.000000
-8.400700 0.000000
-8.372800 0.000000
-8.344800 0.000000
-8.316800 0.000000
-8.288800 0.000000
-8.260800 0.000000
-8.232900 0.000000
-8.204900 0.000000
-8.176900 0.000000
-8.148900 0.000000
-8.121000 0.000000
-8.093000 0.000000
-8.065000 0.000000
-8.037000 0.000000
-8.009000 0.000000
-7.981100 0.000000
-7.953100 0.000000
-7.925100 0.000000
-7.897100 0.000000
-7.869100 0.000000
-7.841200 0.000000
-7.813200 0.000000
-7.785200 0.000000
-7.757200 0.000000
-7.729200 0.000000
-7.701300 0.000000
-7.673300 0.000000
-7.645300 0.000000
-7.617300 0.000000
-7.589400 0.005800
-7.561400 0.222300
-7.533400 0.689100
-7.505400 1.186400
-7.477400 1.807600
-7.449500 2.385200
-7.421500 2.911400
-7.393500 3.356800
-7.365500 3.699800
-7.337500 3.785600
-7.309600 3.998800
-7.281600 4.339500
-7.253600 4.065000
-7.225600 4.154000
-7.197700 4.158100
-7.169700 4.076700
-7.141700 4.263200
-7.113700 4.286400
-7.085700 4.757800
-7.057800 4.824800
-7.029800 4.423300
-7.001800 3.340200
-6.973800 2.838100
-6.945800 2.539700
-6.917900 3.216100
-6.889900 2.824400
-6.861900 2.917300
-6.833900 3.117600
-6.806000 3.422200
-6.778000 3.821300
-6.750000 4.277900
-6.722000 5.537100
-6.694000 6.489000
-6.666100 7.299200
-6.638100 8.126900
-6.610100 8.109600
-6.582100 3.743800
-6.554100 1.625400
-6.526200 0.941000
-6.498200 0.411400
-6.470200 0.028600
-6.442200 1.350500
-6.414200 2.399000
-6.386300 3.300300
-6.358300 4.188600
-6.330300 5.063800
-6.302300 5.939400
-6.274400 6.840900
-6.246400 9.730300
-6.218400 8.854600
-6.190400 6.550900
-6.162400 4.810800
-6.134500 3.892600
-6.106500 2.738100
-6.078500 2.692000
-6.050500 2.917400
-6.022500 3.222200
-5.994600 3.605700
-5.966600 4.260400
-5.938600 5.762300
-5.910600 5.791000
-5.882700 5.675000
-5.854700 5.810600
-5.826700 5.574200
-5.798700 6.813500
-5.770700 4.045800
-5.742800 3.570800
-5.714800 3.268500
-5.686800 2.962300
-5.658800 2.808100
-5.630800 3.111000
-5.602900 3.227700
-5.574900 3.343100
-5.546900 3.457500
-5.518900 3.666500
-5.491000 4.062900
-5.463000 4.657900
-5.435000 5.644200
-5.407000 5.510600
-5.379000 5.520400
-5.351100 6.150200
-5.323100 5.549900
-5.295100 5.533900
-5.267100 5.372800
-5.239100 5.232300
-5.211200 5.838900
-5.183200 4.410700
-5.155200 4.568000
-5.127200 4.816100
-5.099300 5.621600
-5.071300 6.607800
-5.043300 7.774600
-5.015300 8.977800
-4.987300 8.257400
-4.959400 8.259800
-4.931400 6.861100
-4.903400 3.781800
-4.875400 2.583500
-4.847400 1.579800
-4.819500 0.774200
-4.791500 0.431500
-4.763500 0.216200
-4.735500 0.074600
-4.707500 0.006600
-4.679600 3.498600
-4.651600 4.362300
-4.623600 5.616600
-4.595600 6.828500
-4.567700 9.191700
-4.539700 9.076900
-4.511700 6.182200
-4.483700 5.413400
-4.455700 5.187100
-4.427800 4.375500
-4.399800 3.300100
-4.371800 2.919000
-4.343800 2.444600
-4.315800 1.857100
-4.287900 1.340500
-4.259900 0.894800
-4.231900 0.379400
-4.203900 0.425200
-4.176000 0.571500
-4.148000 1.491700
-4.120000 1.449700
-4.092000 1.823500
-4.064000 2.192300
-4.036100 3.136900
-4.008100 5.280000
-3.980100 7.382300
-3.952100 7.289000
-3.924100 7.249600
-3.896200 7.552000
-3.868200 7.325100
-3.840200 6.695800
-3.812200 5.158000
-3.784300 3.336600
-3.756300 4.278100
-3.728300 19.528500
-3.700300 31.466100
-3.672300 16.414100
-3.644400 39.415800
-3.616400 25.631500
-3.588400 20.222200
-3.560400 30.103100
-3.532400 30.914700
-3.504500 40.639500
-3.476500 30.720600
-3.448500 16.323400
-3.420500 39.377900
-3.392500 21.796300
-3.364600 15.951300
-3.336600 24.531900
-3.308600 15.816500
-3.280600 11.153200
-3.252700 12.245100
-3.224700 9.434700
-3.196700 18.355600
-3.168700 16.926800
-3.140700 21.489300
-3.112800 24.201400
-3.084800 15.643600
-3.056800 15.028600
-3.028800 15.597900
-3.000800 2.751600
-2.972900 0.150300
-2.944900 0.000000
-2.916900 0.000000
-2.888900 0.000000
-2.861000 0.000000
-2.833000 0.000000
-2.805000 0.000000
-2.777000 0.000000
-2.749000 0.000000
-2.721100 0.000000
-2.693100 0.000000
-2.665100 0.000000
-2.637100 0.000000
-2.609100 0.000000
-2.581200 0.000000
-2.553200 0.000000
-2.525200 0.000000
-2.497200 0.000000
-2.469300 0.000000
-2.441300 0.000000
-2.413300 0.000000
-2.385300 0.000000
-2.357300 0.000000
-2.329400 0.000000
-2.301400 0.000000
-2.273400 0.000000
-2.245400 0.000000
-2.217400 0.000000
-2.189500 0.000000
-2.161500 0.000000
-2.133500 0.000000
-2.105500 0.000000
-2.077600 0.000000
-2.049600 0.000000
-2.021600 0.000000
-1.993600 0.639700
-1.965600 1.330300
-1.937700 2.260600
-1.909700 4.102400
-1.881700 5.212500
-1.853700 6.115700
-1.825700 6.151000
-1.797800 6.381000
-1.769800 11.239500
-1.741800 13.666400
-1.713800 16.648000
-1.685800 22.339200
-1.657900 11.826100
-1.629900 12.303700
-1.601900 12.716700
-1.573900 17.451300
-1.546000 17.099600
-1.518000 13.460600
-1.490000 12.551300
-1.462000 9.538700
-1.434000 9.865500
-1.406100 11.744300
-1.378100 11.993600
-1.350100 13.241800
-1.322100 13.532900
-1.294100 13.834900
-1.266200 15.630600
-1.238200 8.741900
-1.210200 8.881700
-1.182200 12.011500
-1.154300 13.297800
-1.126300 13.377000
-1.098300 4.212100
-1.070300 2.296200
-1.042300 2.955500
-1.014400 5.510600
-0.986400 9.914900
-0.958400 15.279800
-0.930400 14.845800
-0.902400 19.641300
-0.874500 13.566200
-0.846500 16.486400
-0.818500 14.996800
-0.790500 16.366500
-0.762600 15.135800
-0.734600 33.251600
-0.706600 16.218800
-0.678600 17.489000
-0.650600 17.989900
-0.622700 15.402000
-0.594700 22.557500
-0.566700 21.237000
-0.538700 8.489900
-0.510700 9.248100
-0.482800 14.003800
-0.454800 13.958100
-0.426800 16.453700
-0.398800 17.436800
-0.370800 15.844400
-0.342900 16.240100
-0.314900 13.425700
-0.286900 8.791000
-0.258900 11.605500
-0.231000 9.945700
-0.203000 8.954300
-0.175000 10.945600
-0.147000 11.730000
-0.119000 13.570300
-0.091100 10.014200
-0.063100 10.831400
-0.035100 11.631800
-0.007100 11.853600
0.020900 15.012100
0.048800 24.912500
0.076800 20.657500
0.104800 23.215000
0.132800 22.948200
0.160700 15.703100
0.188700 39.518000
0.216700 15.793800
0.244700 25.174300
0.272700 24.193700
0.300600 22.755500
0.328600 29.187700
0.356600 31.477500
0.384600 40.254100
0.412600 46.025400
0.440500 25.606800
0.468500 44.620900
0.496500 25.526700
0.524500 26.591300
0.552400 32.611200
0.580400 28.722300
0.608400 24.444800
0.636400 25.290100
0.664400 28.778000
0.692300 26.902200
0.720300 37.517300
0.748300 23.696800
0.776300 30.209700
0.804300 16.806500
0.832200 11.755800
0.860200 13.039300
0.888200 11.235300
0.916200 21.097500
0.944100 21.650400
0.972100 9.745200
1.000100 8.929300
1.028100 12.547300
1.056100 12.717300
1.084000 14.200500
1.112000 10.278200
1.140000 14.936900
1.168000 12.558400
1.196000 11.053600
1.223900 15.146500
1.251900 16.080900
1.279900 14.047100
1.307900 11.279000
1.335900 14.392900
1.363800 18.035200
1.391800 23.251800
1.419800 23.417500
1.447800 17.925200
1.475700 14.058700
1.503700 19.151900
1.531700 17.353800
1.559700 20.721800
1.587700 33.062900
1.615600 19.039100
1.643600 23.760800
1.671600 24.579300
1.699600 25.719400
1.727600 23.875000
1.755500 9.766900
1.783500 4.607100
1.811500 3.171000
1.839500 0.000000
1.867400 0.000000
1.895400 0.000000
1.923400 0.000000
1.951400 0.000000
1.979400 0.000000
2.007300 0.000000
2.035300 0.000000
2.063300 0.000000
2.091300 0.000000
2.119300 0.000000
2.147200 0.000000
2.175200 0.000000
2.203200 0.000000
2.231200 0.000000
2.259100 0.000000
2.287100 0.000000
2.315100 0.000000
2.343100 0.000000
2.371100 0.000000
2.399000 0.000000
2.427000 0.000000
2.455000 0.000000
2.483000 0.000000
2.511000 0.000000
2.538900 0.000000
2.566900 0.000000
2.594900 0.000000
2.622900 0.000000
2.650900 0.000000
2.678800 0.000000
2.706800 0.000000
2.734800 0.000000
2.762800 0.000000
2.790700 0.000000
2.818700 0.000000
2.846700 0.000000
2.874700 0.000000
2.902700 0.000000
2.930600 0.000000
2.958600 0.000000
2.986600 0.000000
3.014600 0.000000
3.042600 0.000000
3.070500 0.000000
3.098500 0.000000
3.126500 0.000000
3.154500 0.000000
3.182400 0.000000
3.210400 0.000000
3.238400 0.000000
3.266400 0.000000
3.294400 0.000000
3.322300 0.000000
3.350300 0.000000
3.378300 0.000000
3.406300 0.000000
3.434300 0.000000
3.462200 0.000000
3.490200 0.000000
3.518200 0.000000
3.546200 0.000000
3.574100 0.000000
3.602100 0.000000
3.630100 0.000000
3.658100 0.000000
3.686100 0.000000
3.714000 0.000000
3.742000 0.000000
3.770000 0.000000
3.798000 0.000000
3.826000 0.000000
3.853900 0.000000
3.881900 0.000000
3.909900 0.000000
3.937900 0.000000
3.965900 0.000000
3.993800 0.000000
4.021800 0.000000
4.049800 0.000000
4.077800 0.000000
4.105700 0.000000
4.133700 0.000000
4.161700 0.000000
4.189700 0.000000
4.217700 0.000000
4.245600 0.000000
4.273600 0.000000
4.301600 0.000000
4.329600 0.000000
4.357600 0.000000
4.385500 0.000000
4.413500 0.000000
4.441500 0.000000
4.469500 0.000000
4.497400 0.000000
4.525400 0.000000
4.553400 0.000000
4.581400 0.000000
4.609400 0.000000
4.637300 0.000000
4.665300 0.000000
4.693300 0.000000
4.721300 0.000000
4.749300 0.000000
4.777200 0.000000
4.805200 0.000000
4.833200 0.000000
4.861200 0.000000
4.889100 0.000000
4.917100 0.000000
4.945100 0.000000
4.973100 0.000000
5.001100 0.000000
5.029000 0.000000
5.057000 0.000000
5.085000 0.000000
5.113000 0.000000
5.141000 0.000000
5.168900 0.000000
5.196900 0.000000
5.224900 0.000000
5.252900 0.000000
5.280800 0.000000
5.308800 0.000000
5.336800 0.000000
5.364800 0.000000
5.392800 0.000000
5.420700 0.000000
5.448700 0.000000
5.476700 0.000000
5.504700 0.000000
5.532700 0.000000
5.560600 0.000000
5.588600 0.000000
5.616600 0.000000
5.644600 0.000000
5.672600 0.000000
5.700500 0.000000
5.728500 0.000000
5.756500 0.000000
5.784500 0.000000
5.812400 0.000000
5.840400 0.000000
5.868400 0.000000
5.896400 0.000000
5.924400 0.000000
5.952300 0.000000
5.980300 0.000000
6.008300 0.000000
6.036300 0.000000
6.064300 0.000000
6.092200 0.000000
6.120200 0.000000
6.148200 0.000000
6.176200 0.000000
6.204100 0.000000
6.232100 0.000000
6.260100 0.000000
6.288100 0.000000
6.316100 0.000000
6.344000 0.000000
6.372000 0.000000
6.400000 0.000000
6.428000 0.000000
6.456000 0.000000
6.483900 0.000000
6.511900 0.000000
6.539900 0.000000
6.567900 0.000000
6.595800 0.000000
6.623800 0.000000
6.651800 0.000000
6.679800 0.000000
6.707800 0.000000
6.735700 0.000000
6.763700 0.000000
6.791700 0.000000
6.819700 0.000000
6.847700 0.000000
6.875600 0.000000
6.903600 0.000000
6.931600 0.000000
6.959600 0.000000
6.987600 0.000000
7.015500 0.000000
7.043500 0.000000
7.071500 0.000000
7.099500 0.000000
7.127400 0.000000
7.155400 0.000000
7.183400 0.000000
7.211400 0.000000
7.239400 0.000000
7.267300 0.000000
7.295300 0.000000
7.323300 0.000000
7.351300 0.000000
7.379300 0.000000
7.407200 0.000000
7.435200 0.000000
7.463200 0.000000
7.491200 0.000000
7.519100 0.000000
7.547100 0.000000
7.575100 0.000000
7.603100 0.000000
7.631100 0.000000
7.659000 0.309400
7.687000 0.270400
7.715000 0.257000
7.743000 0.269200
7.771000 0.300900
7.798900 0.333100
7.826900 0.364500
7.854900 0.395000
7.882900 0.424700
7.910800 0.453500
7.938800 0.481500
7.966800 0.508600
7.994800 0.534900
8.022800 0.560400
8.050700 0.585000
8.078700 0.608700
8.106700 0.631600
8.134700 0.653600
8.162700 0.674900
8.190600 0.719400
8.218600 0.769100
8.246600 0.821200
8.274600 0.875600
8.302500 0.932400
8.330500 0.991600
8.358500 1.053100
8.386500 1.117000
8.414500 1.183300
8.442400 1.348900
8.470400 1.359400
8.498400 1.419700
8.526400 1.453500
8.554400 1.481300
