set title 'mp-672673 - Density of States'
set xlabel 'Energy (eV)'
set ylabel 'DOS (states/eV)'
set grid
set xrange [-10:10]
set yrange [0:64.493]
set xzeroaxis lt -1
set terminal png size 800,600
set output 'mp-672673_dos_gnuplot.png'
plot '-' using 1:2 with lines title 'DOS'
-15.135400 0.000000
-15.121800 0.000000
-15.108200 0.000000
-15.094700 0.000000
-15.081100 0.000000
-15.067600 0.000000
-15.054000 0.000000
-15.040500 0.000000
-15.026900 0.000000
-15.013400 0.000000
-14.999800 0.000000
-14.986200 0.000000
-14.972700 0.000000
-14.959100 0.000000
-14.945600 0.000000
-14.932000 0.000000
-14.918500 0.000000
-14.904900 0.000000
-14.891300 0.000000
-14.877800 0.000000
-14.864200 0.000000
-14.850700 0.000000
-14.837100 0.000000
-14.823600 0.000000
-14.810000 0.000000
-14.796500 0.000000
-14.782900 0.000000
-14.769300 0.000000
-14.755800 0.000000
-14.742200 0.000000
-14.728700 0.000000
-14.715100 0.000000
-14.701600 0.000000
-14.688000 0.000000
-14.674500 0.000000
-14.660900 0.000000
-14.647300 0.000000
-14.633800 0.000000
-14.620200 0.000000
-14.606700 0.000000
-14.593100 0.000000
-14.579600 0.000000
-14.566000 0.000000
-14.552500 0.000000
-14.538900 0.000000
-14.525300 0.000000
-14.511800 0.000000
-14.498200 0.000000
-14.484700 0.000000
-14.471100 0.000000
-14.457600 0.000000
-14.444000 0.000000
-14.430400 0.000000
-14.416900 0.000000
-14.403300 0.000000
-14.389800 0.000000
-14.376200 0.000000
-14.362700 0.000000
-14.349100 0.000000
-14.335600 0.000000
-14.322000 0.000000
-14.308400 0.000000
-14.294900 0.000000
-14.281300 0.000000
-14.267800 0.000000
-14.254200 0.000000
-14.240700 0.000000
-14.227100 0.000000
-14.213600 0.000000
-14.200000 0.000000
-14.186400 0.000000
-14.172900 0.000000
-14.159300 0.000000
-14.145800 0.000000
-14.132200 0.000000
-14.118700 0.000000
-14.105100 0.000000
-14.091500 0.000000
-14.078000 0.000000
-14.064400 0.000200
-14.050900 0.001300
-14.037300 0.007000
-14.023800 0.031900
-14.010200 0.126300
-13.996700 0.435800
-13.983100 1.312400
-13.969500 3.454000
-13.956000 7.958600
-13.942400 16.098600
-13.928900 28.695500
-13.915300 45.319300
-13.901800 63.904900
-13.888200 81.277900
-13.874700 94.356900
-13.861100 101.138100
-13.847500 100.847900
-13.834000 93.614100
-13.820400 80.401500
-13.806900 63.284200
-13.793300 45.409100
-13.779800 30.328000
-13.766200 21.213400
-13.752600 20.576000
-13.739100 30.232400
-13.725500 50.592300
-13.712000 78.999500
-13.698400 108.545100
-13.684900 129.538700
-13.671300 134.033100
-13.657800 120.643400
-13.644200 95.878200
-13.630600 70.968500
-13.617100 56.879100
-13.603500 60.878800
-13.590000 85.640100
-13.576400 129.605500
-13.562900 187.327100
-13.549300 249.621800
-13.535800 304.189300
-13.522200 337.630300
-13.508600 339.448200
-13.495100 306.942300
-13.481500 247.776100
-13.468000 177.357900
-13.454400 111.947200
-13.440900 62.039400
-13.427300 30.088400
-13.413700 12.739600
-13.400200 4.700600
-13.386600 1.509400
-13.373100 0.421400
-13.359500 0.102200
-13.346000 0.021500
-13.332400 0.003900
-13.318900 0.000600
-13.305300 0.000100
-13.291700 0.000000
-13.278200 0.000000
-13.264600 0.000000
-13.251100 0.000000
-13.237500 0.000000
-13.224000 0.000000
-13.210400 0.000000
-13.196900 0.000000
-13.183300 0.000000
-13.169700 0.000000
-13.156200 0.000000
-13.142600 0.000000
-13.129100 0.000000
-13.115500 0.000000
-13.102000 0.000000
-13.088400 0.000000
-13.074900 0.000000
-13.061300 0.000000
-13.047700 0.000200
-13.034200 0.001000
-13.020600 0.005000
-13.007100 0.022600
-12.993500 0.087800
-12.980000 0.297300
-12.966400 0.878700
-12.952800 2.274700
-12.939300 5.182600
-12.925700 10.458100
-12.912200 18.839400
-12.898600 30.586600
-12.885100 45.241300
-12.871500 61.666900
-12.858000 78.353500
-12.844400 93.887300
-12.830800 107.599600
-12.817300 120.485300
-12.803700 136.081300
-12.790200 160.218300
-12.776600 198.481400
-12.763100 251.895900
-12.749500 313.805900
-12.736000 371.222900
-12.722400 410.667600
-12.708800 424.453700
-12.695300 412.805500
-12.681700 381.015800
-12.668200 335.112100
-12.654600 279.909600
-12.641100 219.978000
-12.627500 161.024200
-12.613900 109.501700
-12.600400 70.693200
-12.586800 46.953100
-12.573300 37.193800
-12.559700 37.536400
-12.546200 42.662100
-12.532600 47.550700
-12.519100 49.120200
-12.505500 46.919900
-12.491900 42.360300
-12.478400 37.077600
-12.464800 31.768100
-12.451300 26.261700
-12.437700 20.357700
-12.424200 14.397500
-12.410600 9.112700
-12.397100 5.104000
-12.383500 2.515000
-12.369900 1.087100
-12.356400 0.411800
-12.342800 0.136600
-12.329300 0.039700
-12.315700 0.010100
-12.302200 0.002200
-12.288600 0.000400
-12.275000 0.000100
-12.261500 0.000000
-12.247900 0.000000
-12.234400 0.000000
-12.220800 0.000000
-12.207300 0.000000
-12.193700 0.000000
-12.180200 0.000000
-12.166600 0.000000
-12.153000 0.000000
-12.139500 0.000000
-12.125900 0.000000
-12.112400 0.000000
-12.098800 0.000000
-12.085300 0.000000
-12.071700 0.000000
-12.058200 0.000000
-12.044600 0.000000
-12.031000 0.000000
-12.017500 0.000000
-12.003900 0.000000
-11.990400 0.000000
-11.976800 0.000000
-11.963300 0.000000
-11.949700 0.000000
-11.936100 0.000000
-11.922600 0.000000
-11.909000 0.000000
-11.895500 0.000000
-11.881900 0.000000
-11.868400 0.000000
-11.854800 0.000000
-11.841300 0.000000
-11.827700 0.000000
-11.814100 0.000000
-11.800600 0.000000
-11.787000 0.000000
-11.773500 0.000000
-11.759900 0.000000
-11.746400 0.000000
-11.732800 0.000000
-11.719300 0.000000
-11.705700 0.000000
-11.692100 0.000000
-11.678600 0.000000
-11.665000 0.000000
-11.651500 0.000000
-11.637900 0.000000
-11.624400 0.000000
-11.610800 0.000000
-11.597200 0.000000
-11.583700 0.000000
-11.570100 0.000000
-11.556600 0.000000
-11.543000 0.000000
-11.529500 0.000000
-11.515900 0.000000
-11.502400 0.000000
-11.488800 0.000000
-11.475200 0.000000
-11.461700 0.000000
-11.448100 0.000000
-11.434600 0.000000
-11.421000 0.000000
-11.407500 0.000000
-11.393900 0.000000
-11.380400 0.000000
-11.366800 0.000000
-11.353200 0.000000
-11.339700 0.000000
-11.326100 0.000000
-11.312600 0.000000
-11.299000 0.000000
-11.285500 0.000000
-11.271900 0.000000
-11.258400 0.000000
-11.244800 0.000000
-11.231200 0.000000
-11.217700 0.000000
-11.204100 0.000000
-11.190600 0.000000
-11.177000 0.000000
-11.163500 0.000000
-11.149900 0.000000
-11.136300 0.000000
-11.122800 0.000000
-11.109200 0.000000
-11.095700 0.000000
-11.082100 0.000000
-11.068600 0.000000
-11.055000 0.000000
-11.041500 0.000000
-11.027900 0.000000
-11.014300 0.000000
-11.000800 0.000000
-10.987200 0.000000
-10.973700 0.000000
-10.960100 0.000100
-10.946600 0.000400
-10.933000 0.001800
-10.919500 0.008100
-10.905900 0.031900
-10.892300 0.109600
-10.878800 0.332300
-10.865200 0.891500
-10.851700 2.125800
-10.838100 4.522700
-10.824600 8.614500
-10.811000 14.728600
-10.797400 22.646500
-10.783900 31.372000
-10.770300 39.278900
-10.756800 44.750400
-10.743200 47.020400
-10.729700 46.625700
-10.716100 45.071900
-10.702600 43.955600
-10.689000 44.213600
-10.675400 45.941600
-10.661900 48.662000
-10.648300 51.657200
-10.634800 54.132500
-10.621200 55.228500
-10.607700 54.053300
-10.594100 49.915800
-10.580600 42.750900
-10.567000 33.421800
-10.553400 23.534500
-10.539900 14.772800
-10.526300 8.202300
-10.512800 4.005400
-10.499200 1.713200
-10.485700 0.639800
-10.472100 0.208200
-10.458500 0.058900
-10.445000 0.014500
-10.431400 0.003200
-10.417900 0.001400
-10.404300 0.004200
-10.390800 0.018700
-10.377200 0.073600
-10.363700 0.252000
-10.350100 0.750800
-10.336500 1.949500
-10.323000 4.424500
-10.309400 8.811800
-10.295900 15.481600
-10.282300 24.164700
-10.268800 33.817500
-10.255200 42.918600
-10.241700 50.063500
-10.228100 54.479200
-10.214500 56.200800
-10.201000 55.954300
-10.187400 54.910700
-10.173900 54.331700
-10.160300 55.062800
-10.146800 57.002200
-10.133200 58.907100
-10.119600 58.835800
-10.106100 55.135100
-10.092500 47.418800
-10.079000 36.877300
-10.065400 25.682700
-10.051900 15.915400
-10.038300 8.737600
-10.024800 4.236500
-10.011200 1.809700
-9.997600 0.679800
-9.984100 0.224100
-9.970500 0.064800
-9.957000 0.016400
-9.943400 0.003600
-9.929900 0.000700
-9.916300 0.000100
-9.902800 0.000000
-9.889200 0.000000
-9.875600 0.000000
-9.862100 0.000000
-9.848500 0.000000
-9.835000 0.000000
-9.821400 0.000000
-9.807900 0.000000
-9.794300 0.000000
-9.780800 0.000000
-9.767200 0.000000
-9.753600 0.000000
-9.740100 0.000000
-9.726500 0.000000
-9.713000 0.000000
-9.699400 0.000000
-9.685900 0.000000
-9.672300 0.000000
-9.658700 0.000000
-9.645200 0.000000
-9.631600 0.000000
-9.618100 0.000000
-9.604500 0.000000
-9.591000 0.000000
-9.577400 0.000000
-9.563900 0.000000
-9.550300 0.000000
-9.536700 0.000000
-9.523200 0.000000
-9.509600 0.000000
-9.496100 0.000000
-9.482500 0.000000
-9.469000 0.000000
-9.455400 0.000000
-9.441900 0.000000
-9.428300 0.000000
-9.414700 0.000000
-9.401200 0.000000
-9.387600 0.000000
-9.374100 0.000000
-9.360500 0.000000
-9.347000 0.000000
-9.333400 0.000000
-9.319800 0.000000
-9.306300 0.000000
-9.292700 0.000000
-9.279200 0.000000
-9.265600 0.000000
-9.252100 0.000000
-9.238500 0.000000
-9.225000 0.000000
-9.211400 0.000000
-9.197800 0.000000
-9.184300 0.000000
-9.170700 0.000000
-9.157200 0.000000
-9.143600 0.000000
-9.130100 0.000000
-9.116500 0.000000
-9.103000 0.000000
-9.089400 0.000000
-9.075800 0.000000
-9.062300 0.000000
-9.048700 0.000000
-9.035200 0.000000
-9.021600 0.000000
-9.008100 0.000000
-8.994500 0.000000
-8.980900 0.000000
-8.967400 0.000000
-8.953800 0.000000
-8.940300 0.000000
-8.926700 0.000000
-8.913200 0.000000
-8.899600 0.000000
-8.886100 0.000000
-8.872500 0.000000
-8.858900 0.000000
-8.845400 0.000000
-8.831800 0.000000
-8.818300 0.000000
-8.804700 0.000000
-8.791200 0.000000
-8.777600 0.000000
-8.764100 0.000000
-8.750500 0.000000
-8.736900 0.000000
-8.723400 0.000000
-8.709800 0.000000
-8.696300 0.000000
-8.682700 0.000000
-8.669200 0.000000
-8.655600 0.000000
-8.642000 0.000000
-8.628500 0.000000
-8.614900 0.000000
-8.601400 0.000000
-8.587800 0.000000
-8.574300 0.000000
-8.560700 0.000000
-8.547200 0.000000
-8.533600 0.000000
-8.520000 0.000000
-8.506500 0.000000
-8.492900 0.000000
-8.479400 0.000000
-8.465800 0.000000
-8.452300 0.000000
-8.438700 0.000000
-8.425200 0.000000
-8.411600 0.000000
-8.398000 0.000000
-8.384500 0.000000
-8.370900 0.000000
-8.357400 0.000000
-8.343800 0.000000
-8.330300 0.000000
-8.316700 0.000000
-8.303100 0.000000
-8.289600 0.000000
-8.276000 0.000000
-8.262500 0.000000
-8.248900 0.000000
-8.235400 0.000000
-8.221800 0.000000
-8.208300 0.000000
-8.194700 0.000000
-8.181100 0.000000
-8.167600 0.000000
-8.154000 0.000000
-8.140500 0.000000
-8.126900 0.000000
-8.113400 0.000000
-8.099800 0.000000
-8.086300 0.000000
-8.072700 0.000000
-8.059100 0.000000
-8.045600 0.000000
-8.032000 0.000000
-8.018500 0.000000
-8.004900 0.000000
-7.991400 0.000000
-7.977800 0.000000
-7.964300 0.000000
-7.950700 0.000000
-7.937100 0.000000
-7.923600 0.000000
-7.910000 0.000000
-7.896500 0.000000
-7.882900 0.000000
-7.869400 0.000000
-7.855800 0.000000
-7.842200 0.000000
-7.828700 0.000000
-7.815100 0.000000
-7.801600 0.000000
-7.788000 0.000000
-7.774500 0.000000
-7.760900 0.000000
-7.747400 0.000000
-7.733800 0.000000
-7.720200 0.000000
-7.706700 0.000000
-7.693100 0.000000
-7.679600 0.000000
-7.666000 0.000000
-7.652500 0.000000
-7.638900 0.000000
-7.625400 0.000000
-7.611800 0.000000
-7.598200 0.000000
-7.584700 0.000000
-7.571100 0.000000
-7.557600 0.000000
-7.544000 0.000000
-7.530500 0.000000
-7.516900 0.000000
-7.503300 0.000000
-7.489800 0.000000
-7.476200 0.000000
-7.462700 0.000000
-7.449100 0.000000
-7.435600 0.000000
-7.422000 0.000000
-7.408500 0.000000
-7.394900 0.000000
-7.381300 0.000000
-7.367800 0.000000
-7.354200 0.000000
-7.340700 0.000000
-7.327100 0.000000
-7.313600 0.000000
-7.300000 0.000000
-7.286500 0.000000
-7.272900 0.000000
-7.259300 0.000000
-7.245800 0.000000
-7.232200 0.000000
-7.218700 0.000000
-7.205100 0.000000
-7.191600 0.000000
-7.178000 0.000000
-7.164400 0.000000
-7.150900 0.000000
-7.137300 0.000000
-7.123800 0.000000
-7.110200 0.000000
-7.096700 0.000000
-7.083100 0.000000
-7.069600 0.000000
-7.056000 0.000000
-7.042400 0.000000
-7.028900 0.000000
-7.015300 0.000000
-7.001800 0.000000
-6.988200 0.000000
-6.974700 0.000000
-6.961100 0.000000
-6.947600 0.000000
-6.934000 0.000000
-6.920400 0.000000
-6.906900 0.000000
-6.893300 0.000000
-6.879800 0.000000
-6.866200 0.000000
-6.852700 0.000000
-6.839100 0.000000
-6.825500 0.000000
-6.812000 0.000000
-6.798400 0.000000
-6.784900 0.000000
-6.771300 0.000000
-6.757800 0.000000
-6.744200 0.000000
-6.730700 0.000000
-6.717100 0.000000
-6.703500 0.000000
-6.690000 0.000000
-6.676400 0.000000
-6.662900 0.000000
-6.649300 0.000000
-6.635800 0.000000
-6.622200 0.000000
-6.608700 0.000000
-6.595100 0.000000
-6.581500 0.000000
-6.568000 0.000000
-6.554400 0.000000
-6.540900 0.000000
-6.527300 0.000000
-6.513800 0.000000
-6.500200 0.000000
-6.486700 0.000000
-6.473100 0.000000
-6.459500 0.000000
-6.446000 0.000000
-6.432400 0.000000
-6.418900 0.000000
-6.405300 0.000000
-6.391800 0.000000
-6.378200 0.000000
-6.364600 0.000000
-6.351100 0.000000
-6.337500 0.000000
-6.324000 0.000000
-6.310400 0.000000
-6.296900 0.000000
-6.283300 0.000000
-6.269800 0.000000
-6.256200 0.000000
-6.242600 0.000000
-6.229100 0.000000
-6.215500 0.000000
-6.202000 0.000000
-6.188400 0.000000
-6.174900 0.000000
-6.161300 0.000000
-6.147800 0.000000
-6.134200 0.000000
-6.120600 0.000000
-6.107100 0.000000
-6.093500 0.000000
-6.080000 0.000000
-6.066400 0.000000
-6.052900 0.000000
-6.039300 0.000000
-6.025700 0.000000
-6.012200 0.000000
-5.998600 0.000000
-5.985100 0.000000
-5.971500 0.000000
-5.958000 0.000000
-5.944400 0.000000
-5.930900 0.000000
-5.917300 0.000000
-5.903700 0.000000
-5.890200 0.000000
-5.876600 0.000000
-5.863100 0.000000
-5.849500 0.000000
-5.836000 0.000000
-5.822400 0.000000
-5.808900 0.000000
-5.795300 0.000000
-5.781700 0.000000
-5.768200 0.000000
-5.754600 0.000000
-5.741100 0.000000
-5.727500 0.000000
-5.714000 0.000000
-5.700400 0.000000
-5.686800 0.000000
-5.673300 0.000000
-5.659700 0.000000
-5.646200 0.000000
-5.632600 0.000000
-5.619100 0.000000
-5.605500 0.000000
-5.592000 0.000000
-5.578400 0.000000
-5.564800 0.000000
-5.551300 0.000000
-5.537700 0.000000
-5.524200 0.000000
-5.510600 0.000000
-5.497100 0.000000
-5.483500 0.000000
-5.470000 0.000000
-5.456400 0.000000
-5.442800 0.000000
-5.429300 0.000000
-5.415700 0.000000
-5.402200 0.000000
-5.388600 0.000000
-5.375100 0.000000
-5.361500 0.000000
-5.347900 0.000000
-5.334400 0.000000
-5.320800 0.000000
-5.307300 0.000000
-5.293700 0.000000
-5.280200 0.000000
-5.266600 0.000000
-5.253100 0.000000
-5.239500 0.000000
-5.225900 0.000000
-5.212400 0.000000
-5.198800 0.000000
-5.185300 0.000000
-5.171700 0.000000
-5.158200 0.000000
-5.144600 0.000000
-5.131100 0.000000
-5.117500 0.000000
-5.103900 0.000000
-5.090400 0.000000
-5.076800 0.000000
-5.063300 0.000000
-5.049700 0.000000
-5.036200 0.000000
-5.022600 0.000000
-5.009000 0.000200
-4.995500 0.001000
-4.981900 0.004200
-4.968400 0.015200
-4.954800 0.047700
-4.941300 0.129600
-4.927700 0.304800
-4.914200 0.620500
-4.900600 1.096000
-4.887000 1.688600
-4.873500 2.300900
-4.859900 2.864600
-4.846400 3.478100
-4.832800 4.490600
-4.819300 6.413700
-4.805700 9.641700
-4.792200 14.129000
-4.778600 19.254900
-4.765000 23.995700
-4.751500 27.295300
-4.737900 28.411000
-4.724400 27.108400
-4.710800 23.723400
-4.697300 19.101400
-4.683700 14.360800
-4.670200 10.495700
-4.656600 8.002400
-4.643000 6.767200
-4.629500 6.307000
-4.615900 6.207900
-4.602400 6.464900
-4.588800 7.471000
-4.575300 9.641300
-4.561700 12.937300
-4.548100 16.686500
-4.534600 19.906800
-4.521000 21.911600
-4.507500 22.670000
-4.493900 22.614300
-4.480400 22.167800
-4.466800 21.521900
-4.453300 20.788400
-4.439700 20.135000
-4.426100 19.606200
-4.412600 18.875900
-4.399000 17.381500
-4.385500 14.837200
-4.371900 11.640100
-4.358400 8.782200
-4.344800 7.374400
-4.331300 8.154200
-4.317700 11.192400
-4.304100 15.809100
-4.290600 20.724800
-4.277000 24.520600
-4.263500 26.292300
-4.249900 26.077400
-4.236400 24.660600
-4.222800 22.866800
-4.209200 20.963000
-4.195700 18.705100
-4.182100 15.893700
-4.168600 12.801900
-4.155000 10.040200
-4.141500 8.059400
-4.127900 6.821400
-4.114400 5.915300
-4.100800 4.936700
-4.087200 3.762800
-4.073700 2.542600
-4.060100 1.501700
-4.046600 0.770400
-4.033000 0.342400
-4.019500 0.131700
-4.005900 0.043800
-3.992400 0.012600
-3.978800 0.003100
-3.965200 0.000700
-3.951700 0.000100
-3.938100 0.000000
-3.924600 0.000000
-3.911000 0.000000
-3.897500 0.000000
-3.883900 0.000000
-3.870300 0.000000
-3.856800 0.000000
-3.843200 0.000000
-3.829700 0.000000
-3.816100 0.000000
-3.802600 0.000000
-3.789000 0.000000
-3.775500 0.000000
-3.761900 0.000000
-3.748300 0.000000
-3.734800 0.000000
-3.721200 0.000000
-3.707700 0.000000
-3.694100 0.000000
-3.680600 0.000000
-3.667000 0.000000
-3.653500 0.000200
-3.639900 0.001100
-3.626300 0.005600
-3.612800 0.023700
-3.599200 0.087400
-3.585700 0.279200
-3.572100 0.772900
-3.558600 1.857100
-3.545000 3.878500
-3.531400 7.053100
-3.517900 11.197800
-3.504300 15.580300
-3.490800 19.112700
-3.477200 20.889700
-3.463700 20.758700
-3.450100 19.507600
-3.436600 18.489100
-3.423000 18.860200
-3.409400 20.860300
-3.395900 23.586500
-3.382300 25.498800
-3.368800 25.419300
-3.355200 23.347200
-3.341700 20.460100
-3.328100 18.271500
-3.314600 17.593600
-3.301000 18.078000
-3.287400 18.607700
-3.273900 18.135800
-3.260300 16.313900
-3.246800 13.565100
-3.233200 10.762500
-3.219700 8.865300
-3.206100 8.664800
-3.192600 10.554200
-3.179000 14.271100
-3.165400 18.775000
-3.151900 22.517600
-3.138300 24.137200
-3.124800 23.224900
-3.111200 20.639100
-3.097700 18.110500
-3.084100 17.368400
-3.070500 19.326700
-3.057000 23.770900
-3.043400 29.609700
-3.029900 35.410800
-3.016300 39.878900
-3.002800 42.140200
-2.989200 41.932200
-2.975700 39.781700
-2.962100 37.028200
-2.948500 35.422900
-2.935000 36.297100
-2.921400 39.804600
-2.907900 44.902100
-2.894300 50.135200
-2.880800 54.481100
-2.867200 57.459200
-2.853700 58.629600
-2.840100 57.346100
-2.826500 53.253900
-2.813000 46.990800
-2.799400 40.164600
-2.785900 34.420000
-2.772300 30.423800
-2.758800 27.721100
-2.745200 25.515100
-2.731600 23.493500
-2.718100 21.881100
-2.704500 20.825500
-2.691000 19.921700
-2.677400 18.419600
-2.663900 15.844600
-2.650300 12.376300
-2.636800 8.680100
-2.623200 5.448200
-2.609600 3.060900
-2.596100 1.540300
-2.582500 0.694000
-2.569000 0.279300
-2.555400 0.100100
-2.541900 0.032000
-2.528300 0.010100
-2.514800 0.007600
-2.501200 0.021000
-2.487600 0.067800
-2.474100 0.192700
-2.460500 0.474400
-2.447000 1.012300
-2.433400 1.876300
-2.419900 3.037100
-2.406300 4.343300
-2.392700 5.615400
-2.379200 6.826900
-2.365600 8.197000
-2.352100 10.019400
-2.338500 12.281200
-2.325000 14.412800
-2.311400 15.498700
-2.297900 14.884900
-2.284300 12.720200
-2.270700 9.996900
-2.257200 8.097400
-2.243600 8.189300
-2.230100 10.756200
-2.216500 15.343700
-2.203000 20.595400
-2.189400 24.739700
-2.175900 26.474400
-2.162300 25.743800
-2.148700 23.759700
-2.135200 22.162500
-2.121600 21.952600
-2.108100 22.998900
-2.094500 24.391200
-2.081000 25.225500
-2.067400 25.199000
-2.053800 24.702800
-2.040300 24.519500
-2.026700 25.372200
-2.013200 27.496600
-1.999600 30.396000
-1.986100 32.986400
-1.972500 34.136900
-1.959000 33.238000
-1.945400 30.373800
-1.931800 26.098300
-1.918300 21.166000
-1.904700 16.420900
-1.891200 12.717100
-1.877600 10.726300
-1.864100 10.691700
-1.850500 12.286800
-1.837000 14.684500
-1.823400 16.877200
-1.809800 18.165900
-1.796300 18.512800
-1.782700 18.409600
-1.769200 18.297300
-1.755600 18.070000
-1.742100 17.181700
-1.728500 15.277300
-1.714900 12.735500
-1.701400 10.622700
-1.687800 10.113900
-1.674300 11.829600
-1.660700 15.504600
-1.647200 20.152300
-1.633600 24.609600
-1.620100 28.098500
-1.606500 30.375400
-1.592900 31.384900
-1.579400 30.861100
