set title 'mp-1187450 - Density of States'
set xlabel 'Energy (eV)'
set ylabel 'DOS (states/eV)'
set grid
set xrange [-10:10]
set yrange [0:6.137]
set xzeroaxis lt -1
set terminal png size 800,600
set output 'mp-1187450_dos_gnuplot.png'
plot '-' using 1:2 with lines title 'DOS'
-12.432400 0.000000
-12.413900 0.000000
-12.395300 0.000000
-12.376800 0.000000
-12.358200 0.000000
-12.339600 0.000000
-12.321100 0.000000
-12.302500 0.000000
-12.284000 0.000000
-12.265400 0.000000
-12.246800 0.000000
-12.228300 0.000000
-12.209700 0.000000
-12.191200 0.000000
-12.172600 0.000000
-12.154000 0.000000
-12.135500 0.000000
-12.116900 0.000000
-12.098400 0.000000
-12.079800 0.000000
-12.061200 0.000000
-12.042700 0.000000
-12.024100 0.000000
-12.005600 0.000000
-11.987000 0.000000
-11.968400 0.000000
-11.949900 0.000000
-11.931300 0.000000
-11.912800 0.000000
-11.894200 0.000000
-11.875600 0.000000
-11.857100 0.000000
-11.838500 0.000000
-11.820000 0.000000
-11.801400 0.000000
-11.782800 0.000000
-11.764300 0.000000
-11.745700 0.000000
-11.727200 0.000000
-11.708600 0.000000
-11.690000 0.000000
-11.671500 0.000000
-11.652900 0.000000
-11.634400 0.000000
-11.615800 0.000000
-11.597200 0.000000
-11.578700 0.000000
-11.560100 0.000000
-11.541600 0.000000
-11.523000 0.000000
-11.504400 0.000000
-11.485900 0.000000
-11.467300 0.000000
-11.448800 0.000000
-11.430200 0.000000
-11.411600 0.000000
-11.393100 0.000000
-11.374500 0.000000
-11.356000 0.000000
-11.337400 0.000000
-11.318800 0.000000
-11.300300 0.000000
-11.281700 0.000000
-11.263200 0.000000
-11.244600 0.000000
-11.226000 0.000000
-11.207500 0.000000
-11.188900 0.000000
-11.170400 0.000000
-11.151800 0.000000
-11.133200 0.000000
-11.114700 0.000000
-11.096100 0.000000
-11.077600 0.000000
-11.059000 0.000000
-11.040400 0.000000
-11.021900 0.000000
-11.003300 0.000000
-10.984800 0.000000
-10.966200 0.000000
-10.947600 0.000000
-10.929100 0.000000
-10.910500 0.000000
-10.892000 0.000000
-10.873400 0.000000
-10.854800 0.000000
-10.836300 0.000000
-10.817700 0.000000
-10.799200 0.000000
-10.780600 0.000000
-10.762000 0.000000
-10.743500 0.336400
-10.724900 7.841500
-10.706400 11.915100
-10.687800 40.849500
-10.669200 48.839600
-10.650700 95.332900
-10.632100 111.106900
-10.613600 99.645800
-10.595000 52.284700
-10.576400 75.376200
-10.557900 146.188900
-10.539300 159.856100
-10.520800 38.478500
-10.502200 325.943800
-10.483600 101.603900
-10.465100 142.286800
-10.446500 120.421800
-10.428000 91.557000
-10.409400 58.600200
-10.390800 21.961900
-10.372300 10.514100
-10.353700 8.311900
-10.335200 7.375500
-10.316600 5.626400
-10.298000 7.143500
-10.279500 0.000000
-10.260900 0.000000
-10.242400 0.000000
-10.223800 0.000000
-10.205200 0.000000
-10.186700 0.000000
-10.168100 0.000000
-10.149600 0.000000
-10.131000 0.000000
-10.112400 0.000000
-10.093900 0.000000
-10.075300 0.000000
-10.056800 0.000000
-10.038200 0.000000
-10.019600 0.000000
-10.001100 0.000000
-9.982500 0.000000
-9.964000 0.000000
-9.945400 0.000000
-9.926800 0.000000
-9.908300 0.000000
-9.889700 0.000000
-9.871200 0.000000
-9.852600 0.000000
-9.834000 0.000000
-9.815500 0.000000
-9.796900 0.000000
-9.778400 0.000000
-9.759800 0.000000
-9.741200 0.000000
-9.722700 0.000000
-9.704100 0.000000
-9.685600 0.000000
-9.667000 0.000000
-9.648400 0.000000
-9.629900 0.000000
-9.611300 0.000000
-9.592800 0.000000
-9.574200 0.000000
-9.555600 0.000000
-9.537100 0.000000
-9.518500 0.000000
-9.500000 0.000000
-9.481400 0.000000
-9.462800 0.000000
-9.444300 0.000000
-9.425700 0.000000
-9.407200 0.000000
-9.388600 0.000000
-9.370000 0.000000
-9.351500 0.000000
-9.332900 0.000000
-9.314400 0.000000
-9.295800 0.000000
-9.277200 0.000000
-9.258700 0.000000
-9.240100 0.000000
-9.221600 0.000000
-9.203000 0.000000
-9.184400 0.000000
-9.165900 0.000000
-9.147300 0.000000
-9.128800 0.000000
-9.110200 0.000000
-9.091600 0.000000
-9.073100 0.000000
-9.054500 0.000000
-9.036000 0.000000
-9.017400 0.000000
-8.998800 0.000000
-8.980300 0.000000
-8.961700 0.000000
-8.943200 0.000000
-8.924600 0.000000
-8.906000 0.000000
-8.887500 0.000000
-8.868900 0.000000
-8.850400 0.000000
-8.831800 0.000000
-8.813200 0.000000
-8.794700 0.000000
-8.776100 0.000000
-8.757600 0.000000
-8.739000 0.000000
-8.720400 0.000000
-8.701900 0.000000
-8.683300 0.000000
-8.664800 0.000000
-8.646200 0.000000
-8.627600 0.000000
-8.609100 0.000000
-8.590500 0.000000
-8.572000 0.000000
-8.553400 0.000000
-8.534800 0.000000
-8.516300 0.000000
-8.497700 0.000000
-8.479200 0.000000
-8.460600 0.000000
-8.442000 0.000000
-8.423500 0.000000
-8.404900 0.000000
-8.386400 0.000000
-8.367800 0.000000
-8.349200 0.000000
-8.330700 0.000000
-8.312100 0.000000
-8.293600 0.000000
-8.275000 0.000000
-8.256400 0.000000
-8.237900 0.000000
-8.219300 0.000000
-8.200800 0.000000
-8.182200 0.000000
-8.163600 0.000000
-8.145100 0.000000
-8.126500 0.000000
-8.108000 0.000000
-8.089400 0.000000
-8.070800 0.000000
-8.052300 0.000000
-8.033700 0.000000
-8.015200 0.000000
-7.996600 0.000000
-7.978000 0.000000
-7.959500 0.000000
-7.940900 0.000000
-7.922400 0.000000
-7.903800 0.000000
-7.885200 0.000000
-7.866700 0.000000
-7.848100 0.000000
-7.829600 0.000000
-7.811000 0.000000
-7.792400 0.000000
-7.773900 0.000000
-7.755300 0.000000
-7.736800 0.000000
-7.718200 0.000000
-7.699600 0.000000
-7.681100 0.000000
-7.662500 0.000000
-7.644000 0.000000
-7.625400 0.000000
-7.606800 0.000000
-7.588300 0.000000
-7.569700 0.000000
-7.551200 0.000000
-7.532600 0.000000
-7.514000 0.000000
-7.495500 0.000000
-7.476900 0.000000
-7.458400 0.000000
-7.439800 0.000000
-7.421200 0.000000
-7.402700 0.000000
-7.384100 0.000000
-7.365600 0.000000
-7.347000 0.000000
-7.328400 0.000000
-7.309900 0.000000
-7.291300 0.000000
-7.272800 0.000000
-7.254200 0.000000
-7.235600 0.000000
-7.217100 0.000000
-7.198500 0.000000
-7.180000 0.000000
-7.161400 0.000000
-7.142800 0.000000
-7.124300 0.000000
-7.105700 0.000000
-7.087200 0.000000
-7.068600 0.000000
-7.050000 0.000000
-7.031500 0.000000
-7.012900 0.000000
-6.994400 0.000000
-6.975800 0.000000
-6.957200 0.000000
-6.938700 0.000000
-6.920100 0.000000
-6.901600 0.000000
-6.883000 0.000000
-6.864400 0.000000
-6.845900 0.000000
-6.827300 0.000000
-6.808800 0.000000
-6.790200 0.000000
-6.771600 0.000000
-6.753100 0.000000
-6.734500 0.000000
-6.716000 0.000000
-6.697400 0.000000
-6.678800 0.000000
-6.660300 0.000000
-6.641700 0.000000
-6.623200 0.000000
-6.604600 0.000000
-6.586000 0.000000
-6.567500 0.000000
-6.548900 0.000000
-6.530400 0.000000
-6.511800 0.000000
-6.493200 0.000000
-6.474700 0.000000
-6.456100 0.000000
-6.437600 0.000000
-6.419000 0.000000
-6.400400 0.000000
-6.381900 0.000000
-6.363300 0.000000
-6.344800 0.000000
-6.326200 0.000000
-6.307600 0.000000
-6.289100 0.000000
-6.270500 0.000000
-6.252000 0.000000
-6.233400 0.000000
-6.214800 0.000000
-6.196300 0.000000
-6.177700 0.000000
-6.159200 0.000000
-6.140600 0.000000
-6.122000 0.000000
-6.103500 0.000000
-6.084900 0.000000
-6.066400 0.000000
-6.047800 0.000000
-6.029200 0.000000
-6.010700 0.000000
-5.992100 0.000000
-5.973600 0.000000
-5.955000 0.000000
-5.936400 0.000000
-5.917900 0.000000
-5.899300 0.000000
-5.880800 0.000000
-5.862200 0.000000
-5.843600 0.000000
-5.825100 0.000000
-5.806500 0.000000
-5.788000 0.000000
-5.769400 0.000000
-5.750800 0.000000
-5.732300 0.000000
-5.713700 0.000000
-5.695200 0.000000
-5.676600 0.000000
-5.658000 0.000000
-5.639500 0.000000
-5.620900 0.000000
-5.602400 0.000000
-5.583800 0.000000
-5.565200 0.000000
-5.546700 0.000000
-5.528100 0.000000
-5.509600 0.000000
-5.491000 0.000000
-5.472400 0.018400
-5.453900 0.081600
-5.435300 0.183900
-5.416800 0.274400
-5.398200 0.347900
-5.379600 0.380700
-5.361100 0.413100
-5.342500 0.448000
-5.324000 0.487200
-5.305400 0.506700
-5.286800 0.548900
-5.268300 0.592700
-5.249700 0.638100
-5.231200 0.684100
-5.212600 0.721700
-5.194100 0.748500
-5.175500 0.771300
-5.156900 0.803800
-5.138400 0.839400
-5.119800 0.875000
-5.101300 0.911100
-5.082700 0.948200
-5.064100 0.987600
-5.045600 1.028700
-5.027000 1.071300
-5.008500 1.115300
-4.989900 1.165000
-4.971300 1.225900
-4.952800 1.324200
-4.934200 1.434700
-4.915700 1.519500
-4.897100 1.573200
-4.878500 1.596200
-4.860000 1.650500
-4.841400 1.639300
-4.822900 1.681600
-4.804300 1.726400
-4.785700 1.773700
-4.767200 1.819700
-4.748600 1.852200
-4.730100 1.896000
-4.711500 1.945300
-4.692900 2.002400
-4.674400 2.068500
-4.655800 2.136000
-4.637300 2.234500
-4.618700 2.417600
-4.600100 2.672200
-4.581600 3.082600
-4.563000 3.517200
-4.544500 3.733400
-4.525900 3.716800
-4.507300 3.364700
-4.488800 2.978000
-4.470200 2.622300
-4.451700 2.501800
-4.433100 2.384900
-4.414500 2.215200
-4.396000 2.065300
-4.377400 1.943900
-4.358900 1.860600
-4.340300 1.802900
-4.321700 1.747200
-4.303200 1.742000
-4.284600 1.743700
-4.266100 1.760900
-4.247500 1.670800
-4.228900 1.501400
-4.210400 1.345400
-4.191800 1.444200
-4.173300 1.043700
-4.154700 0.000000
-4.136100 0.000000
-4.117600 0.000000
-4.099000 0.000000
-4.080500 0.000000
-4.061900 0.000000
-4.043300 0.000000
-4.024800 0.000000
-4.006200 0.000000
-3.987700 0.000000
-3.969100 0.000000
-3.950500 0.000000
-3.932000 0.000000
-3.913400 0.000000
-3.894900 0.000000
-3.876300 0.000000
-3.857700 0.000000
-3.839200 0.000000
-3.820600 0.000000
-3.802100 0.000000
-3.783500 0.000000
-3.764900 0.000000
-3.746400 0.000000
-3.727800 0.000000
-3.709300 0.000000
-3.690700 0.000000
-3.672100 0.000000
-3.653600 0.000000
-3.635000 0.000000
-3.616500 0.000000
-3.597900 0.000000
-3.579300 0.000000
-3.560800 0.000000
-3.542200 0.000000
-3.523700 0.000000
-3.505100 0.018500
-3.486500 0.094600
-3.468000 0.100900
-3.449400 0.131800
-3.430900 0.158900
-3.412300 0.182500
-3.393700 0.202400
-3.375200 0.218600
-3.356600 0.233700
-3.338100 0.251600
-3.319500 0.263000
-3.300900 0.282700
-3.282400 0.304000
-3.263800 0.325900
-3.245300 0.348400
-3.226700 0.371300
-3.208100 0.386100
-3.189600 0.393800
-3.171000 0.407000
-3.152500 0.423900
-3.133900 0.441600
-3.115300 0.460200
-3.096800 0.479600
-3.078200 0.501000
-3.059700 0.525400
-3.041100 0.549900
-3.022500 0.577200
-3.004000 0.607200
-2.985400 0.639500
-2.966900 0.671400
-2.948300 0.704700
-2.929700 0.740000
-2.911200 0.778200
-2.892600 0.818400
-2.874100 0.861400
-2.855500 0.923700
-2.836900 1.279000
-2.818400 2.041000
-2.799800 2.591200
-2.781300 2.974200
-2.762700 3.142800
-2.744100 3.285500
-2.725600 3.435500
-2.707000 3.622600
-2.688500 3.509700
-2.669900 3.421800
-2.651300 3.420000
-2.632800 3.476500
-2.614200 3.594500
-2.595700 3.814800
-2.577100 3.808500
-2.558500 3.827800
-2.540000 3.906300
-2.521400 3.809400
-2.502900 3.703000
-2.484300 3.457200
-2.465700 2.964500
-2.447200 2.482200
-2.428600 2.032900
-2.410100 1.455700
-2.391500 1.174500
-2.372900 1.116200
-2.354400 1.058400
-2.335800 0.930200
-2.317300 0.876800
-2.298700 0.963800
-2.280100 0.958900
-2.261600 0.971900
-2.243000 0.993400
-2.224500 1.022200
-2.205900 1.045700
-2.187300 1.060500
-2.168800 1.065100
-2.150200 1.060200
-2.131700 1.060700
-2.113100 1.068500
-2.094500 1.079400
-2.076000 1.127400
-2.057400 1.180400
-2.038900 1.225600
-2.020300 1.269300
-2.001700 1.320700
-1.983200 1.423100
-1.964600 1.419800
-1.946100 1.425700
-1.927500 1.440700
-1.908900 1.464900
-1.890400 1.497600
-1.871800 1.566400
-1.853300 1.672300
-1.834700 1.767800
-1.816100 1.868900
-1.797600 1.996900
-1.779000 2.097500
-1.760500 2.234000
-1.741900 2.373400
-1.723300 2.487900
-1.704800 2.577000
-1.686200 2.661600
-1.667700 2.788100
-1.649100 3.019800
-1.630500 3.084300
-1.612000 2.930500
-1.593400 2.534300
-1.574900 2.307300
-1.556300 2.172500
-1.537700 2.140300
-1.519200 2.125700
-1.500600 2.115000
-1.482100 2.200700
-1.463500 2.081900
-1.444900 2.232700
-1.426400 2.416100
-1.407800 2.341600
-1.389300 2.296000
-1.370700 2.241100
-1.352100 2.215500
-1.333600 2.178200
-1.315000 2.152700
-1.296500 2.157600
-1.277900 2.173500
-1.259300 2.170600
-1.240800 2.125400
-1.222200 2.161000
-1.203700 2.222900
-1.185100 2.280400
-1.166500 2.333400
-1.148000 2.381000
-1.129400 2.427600
-1.110900 2.501500
-1.092300 2.556200
-1.073700 2.625200
-1.055200 2.721300
-1.036600 2.814200
-1.018100 3.371000
-0.999500 3.625700
-0.980900 4.257800
-0.962400 4.311000
-0.943800 4.151800
-0.925300 4.247600
-0.906700 4.439200
-0.888100 5.578700
-0.869600 3.738800
-0.851000 3.035300
-0.832500 2.781400
-0.813900 2.545700
-0.795300 2.360800
-0.776800 2.218000
-0.758200 2.078000
-0.739700 1.945700
-0.721100 1.821000
-0.702500 1.702400
-0.684000 1.604800
-0.665400 1.534700
-0.646900 1.478600
-0.628300 1.477200
-0.609700 1.358900
-0.591200 1.275700
-0.572600 1.197800
-0.554100 1.129400
-0.535500 1.067200
-0.516900 1.006700
-0.498400 0.964700
-0.479800 0.942300
-0.461300 0.885800
-0.442700 0.863300
-0.424100 0.841000
-0.405600 0.818700
-0.387000 0.796100
-0.368500 0.772900
-0.349900 0.749300
-0.331300 0.725300
-0.312800 0.701400
-0.294200 0.678400
-0.275700 0.660300
-0.257100 0.643700
-0.238500 0.627400
-0.220000 0.611200
-0.201400 0.595200
-0.182900 0.579600
-0.164300 0.564500
-0.145700 0.550400
-0.127200 0.537200
-0.108600 0.525200
-0.090100 0.515100
-0.071500 0.507300
-0.052900 0.504900
-0.034400 0.505500
-0.015800 0.506300
0.002700 0.507300
0.021300 0.510100
0.039900 0.504900
0.058400 0.489300
0.077000 0.461400
0.095500 0.403600
0.114100 0.356900
0.132700 0.310200
0.151200 0.263500
0.169800 0.216700
0.188300 0.169900
0.206900 0.123000
0.225500 0.076200
0.244000 0.040400
0.262600 0.014900
0.281100 0.000500
0.299700 0.000000
0.318300 0.000000
0.336800 0.000000
0.355400 0.000000
0.373900 0.000000
0.392500 0.000000
0.411100 0.000000
0.429600 0.000000
0.448200 0.000000
0.466700 0.000000
0.485300 0.000000
0.503900 0.000000
0.522400 0.000000
0.541000 0.000000
0.559500 0.000000
0.578100 0.000000
0.596700 0.000000
0.615200 0.000000
0.633800 0.000000
0.652300 0.000000
0.670900 0.000000
0.689500 0.000000
0.708000 0.000000
0.726600 0.000000
0.745100 0.000000
0.763700 0.000000
0.782300 0.000000
0.800800 0.000000
0.819400 0.000000
0.837900 0.000000
0.856500 0.000000
0.875100 0.000000
0.893600 0.000000
0.912200 0.000000
0.930700 0.000000
0.949300 0.000000
0.967900 0.000000
0.986400 0.000000
1.005000 0.000000
1.023500 0.000000
1.042100 0.000000
1.060700 0.000000
1.079200 0.000000
1.097800 0.000000
1.116300 0.000000
1.134900 0.000000
1.153500 0.000000
1.172000 0.000000
1.190600 0.000000
1.209100 0.000000
1.227700 0.000000
1.246300 0.000000
1.264800 0.000000
1.283400 0.000000
1.301900 0.000000
1.320500 0.000000
1.339100 0.000000
1.357600 0.000000
1.376200 0.000000
1.394700 0.000000
1.413300 0.000000
1.431900 0.000000
1.450400 0.000000
1.469000 0.000000
1.487500 0.000000
1.506100 0.000000
1.524700 0.000000
1.543200 0.000000
1.561800 0.000000
1.580300 0.000000
1.598900 0.000000
1.617500 0.000000
1.636000 0.000000
1.654600 0.000000
1.673100 0.000000
1.691700 0.000000
1.710300 0.000000
1.728800 0.000000
1.747400 0.000000
1.765900 0.000000
1.784500 0.000000
1.803100 0.000000
1.821600 0.000000
1.840200 0.000000
1.858700 0.000000
1.877300 0.000000
1.895900 0.000000
1.914400 0.000000
1.933000 0.000000
1.951500 0.000000
1.970100 0.000000
1.988700 0.000000
2.007200 0.000000
2.025800 0.006700
2.044300 0.025900
2.062900 0.049700
2.081500 0.078300
2.100000 0.111500
2.118600 0.149400
2.137100 0.191900
2.155700 0.239200
2.174300 0.232100
2.192800 0.254300
2.211400 0.275800
2.229900 0.296700
2.248500 0.316900
2.267100 0.336500
2.285600 0.355400
2.304200 0.373700
2.322700 0.422500
2.341300 0.442800
2.359900 0.464300
2.378400 0.487100
2.397000 0.511100
2.415500 0.536300
2.434100 0.565100
2.452700 0.607700
2.471200 0.644100
2.489800 0.716500
2.508300 0.799100
2.526900 0.891900
2.545500 0.994900
2.564000 1.033000
2.582600 1.046900
2.601100 1.031900
2.619700 0.999000
2.638300 1.000000
2.656800 1.090500
2.675400 1.150500
2.693900 1.211500
2.712500 1.273300
2.731100 1.335900
2.749600 1.417500
2.768200 1.625100
2.786700 1.634100
2.805300 1.705100
2.823900 1.778400
2.842400 1.859500
2.861000 1.935400
2.879500 2.003700
2.898100 1.992200
2.916700 1.886400
2.935200 1.823700
2.953800 1.799800
2.972300 1.798600
2.990900 1.928800
3.009500 1.957900
3.028000 1.991300
3.046600 2.028200
3.065100 2.068300
3.083700 2.111500
3.102300 2.165300
3.120800 2.141100
3.139400 2.172800
3.157900 2.204300
3.176500 2.241600
3.195100 2.297900
3.213600 2.368000
3.232200 2.454000
3.250700 2.562400
3.269300 2.661200
3.287900 2.750200
3.306400 2.841100
3.325000 2.923000
3.343500 3.014400
3.362100 3.101400
3.380700 3.186600
3.399200 3.291000
3.417800 3.370700
3.436300 3.570200
3.454900 3.690800
3.473500 3.784800
3.492000 3.855300
3.510600 3.978100
3.529100 3.950300
3.547700 4.067400
3.566300 4.339900
3.584800 4.360900
3.603400 4.402300
3.621900 4.369300
3.640500 4.116300
3.659000 4.361600
3.677600 4.088000
3.696200 4.012800
3.714700 3.886300
3.733300 3.759900
3.751800 3.675700
3.770400 3.633300
3.789000 3.634500
3.807500 3.362400
3.826100 3.398800
3.844600 3.322600
3.863200 3.143200
3.881800 3.077300
3.900300 3.045800
3.918900 2.943600
3.937400 2.956700
3.956000 2.850800
3.974600 2.820000
3.993100 2.794600
4.011700 2.765900
4.030200 2.733600
4.048800 2.699200
4.067400 2.667200
4.085900 2.646600
4.104500 2.650800
4.123000 2.663100
4.141600 2.685300
4.160200 2.717500
4.178700 2.754100
4.197300 2.787300
4.215800 2.813600
4.234400 2.858000
4.253000 2.895700
4.271500 2.828600
4.290100 2.771700
4.308600 2.726800
4.327200 2.696400
4.345800 2.693300
4.364300 2.687300
4.382900 2.691400
4.401400 2.712300
4.420000 2.813100
4.438600 2.912100
4.457100 2.877500
4.475700 2.791800
4.494200 2.708500
4.512800 2.654900
4.531400 2.587900
4.549900 2.514900
4.568500 2.453200
4.587000 2.396700
4.605600 2.351600
4.624200 2.316300
4.642700 2.299000
4.661300 2.308200
4.679800 2.319400
4.698400 2.329800
4.717000 2.337700
4.735500 2.331500
4.754100 2.425400
4.772600 2.370500
4.791200 2.332400
4.809800 2.326400
4.828300 2.332500
4.846900 2.653600
4.865400 2.722400
4.884000 2.789600
4.902600 2.826300
4.921100 2.837500
4.939700 2.817500
4.958200 2.766000
4.976800 2.668800
4.995400 2.553500
5.013900 2.519400
5.032500 2.535000
5.051000 2.469000
5.069600 2.196400
5.088200 2.039200
5.106700 1.921200
5.125300 1.829900
5.143800 1.760900
5.162400 1.719400
5.181000 1.703300
5.199500 1.676400
5.218100 1.642300
5.236600 1.608800
5.255200 1.610000
5.273800 1.615000
5.292300 1.624500
5.310900 1.639400
5.329400 1.659800
5.348000 1.689500
5.366600 1.728700
5.385100 1.781000
5.403700 1.855600
5.422200 1.955100
5.440800 1.886600
5.459400 1.785100
5.477900 1.678400
5.496500 1.553000
5.515000 1.445600
5.533600 1.378800
5.552200 1.336600
5.570700 1.295500
5.589300 1.255400
5.607800 1.208900
5.626400 1.158300
5.645000 1.134600
5.663500 1.097800
5.682100 1.080700
5.700600 1.069600
5.719200 1.063400
5.737800 1.061800
5.756300 1.063200
5.774900 1.070200
5.793400 1.081000
5.812000 1.092800
5.830600 1.105600
5.849100 1.119600
5.867700 1.134400
5.886200 1.151600
5.904800 1.177500
5.923400 1.206600
5.941900 1.339900
5.960500 1.286600
5.979000 1.342600
5.997600 1.415000
6.016200 1.504400
6.034700 1.612500
6.053300 1.743600
6.071800 1.914800
6.090400 2.121200
6.109000 2.334900
6.127500 2.532100
6.146100 2.710400
6.164600 2.882600
6.183200 3.042900
6.201800 3.189300
6.220300 3.376200
6.238900 3.583600
6.257400 3.810300
6.276000 3.841300
6.294600 3.766900
6.313100 3.590100
6.331700 3.424300
6.350200 3.344100
6.368800 3.252900
6.387400 3.154700
6.405900 3.049900
6.424500 2.921900
6.443000 2.797600
6.461600 2.689100
6.480200 2.614000
6.498700 2.501400
6.517300 2.402900
6.535800 2.347800
6.554400 2.059700
6.573000 1.713800
6.591500 1.511000
6.610100 1.430900
6.628600 1.378400
6.647200 1.240100
6.665800 1.320800
6.684300 1.398000
6.702900 1.492800
6.721400 1.615900
6.740000 1.740300
6.758600 1.866200
6.777100 1.971000
6.795700 1.972400
6.814200 1.997700
6.832800 2.038400
6.851400 2.058500
6.869900 2.088700
6.888500 2.095300
6.907000 2.173600
6.925600 2.272300
6.944200 2.436800
6.962700 2.741800
6.981300 3.033200
6.999800 3.229100
7.018400 3.413900
