set title 'mp-1184296 - Density of States'
set xlabel 'Energy (eV)'
set ylabel 'DOS (states/eV)'
set grid
set xrange [-10:10]
set yrange [0:23.598]
set xzeroaxis lt -1
set terminal png size 800,600
set output 'mp-1184296_dos_gnuplot.png'
plot '-' using 1:2 with lines title 'DOS'
-13.014700 0.000000
-12.992300 0.000000
-12.969900 0.000000
-12.947500 0.000000
-12.925100 0.000000
-12.902700 0.000000
-12.880300 0.000000
-12.857900 0.000000
-12.835500 0.000000
-12.813100 0.000000
-12.790700 0.000000
-12.768300 0.000000
-12.745900 0.000000
-12.723500 0.000000
-12.701100 0.000000
-12.678700 0.000000
-12.656300 0.000000
-12.633900 0.000000
-12.611500 0.000000
-12.589100 0.000000
-12.566700 0.000000
-12.544300 0.000000
-12.521900 0.000000
-12.499500 0.000000
-12.477100 0.000000
-12.454700 0.000000
-12.432300 0.000000
-12.409900 0.000000
-12.387500 0.000000
-12.365100 0.000000
-12.342700 0.000000
-12.320300 0.000000
-12.297900 0.000000
-12.275500 0.000000
-12.253100 0.000000
-12.230700 0.000000
-12.208300 0.000000
-12.185900 0.000000
-12.163500 0.000000
-12.141100 0.000000
-12.118700 0.000000
-12.096300 0.000000
-12.073900 0.000000
-12.051500 0.000000
-12.029100 0.000000
-12.006700 0.000000
-11.984300 0.000000
-11.961900 0.000000
-11.939500 0.000000
-11.917100 0.000000
-11.894700 0.000000
-11.872300 0.000000
-11.849900 0.000000
-11.827500 0.000000
-11.805100 0.000000
-11.782700 0.000000
-11.760300 0.000000
-11.737900 0.000000
-11.715500 0.000000
-11.693100 0.000000
-11.670700 0.000000
-11.648300 0.000000
-11.625900 0.000000
-11.603500 0.000000
-11.581100 0.000000
-11.558700 0.000000
-11.536300 0.000000
-11.513900 0.000000
-11.491500 0.000000
-11.469100 0.000000
-11.446700 0.000000
-11.424300 0.000000
-11.401900 0.000000
-11.379500 0.000000
-11.357100 0.000000
-11.334700 0.000000
-11.312300 0.000000
-11.289900 0.000000
-11.267500 0.000000
-11.245100 0.000000
-11.222700 0.000000
-11.200300 0.000000
-11.177900 0.000000
-11.155500 0.000000
-11.133100 0.000000
-11.110700 0.000000
-11.088300 0.000000
-11.065900 0.000000
-11.043500 0.000000
-11.021100 0.000000
-10.998700 0.000000
-10.976300 0.370900
-10.953900 29.334800
-10.931500 62.653000
-10.909000 56.058300
-10.886600 64.794500
-10.864200 120.715700
-10.841800 93.533000
-10.819400 62.342000
-10.797000 72.835100
-10.774600 99.670500
-10.752200 128.274700
-10.729800 112.110100
-10.707400 65.617800
-10.685000 100.102600
-10.662600 76.035500
-10.640200 27.101000
-10.617800 0.000000
-10.595400 0.000000
-10.573000 0.000000
-10.550600 0.000000
-10.528200 0.000000
-10.505800 0.000000
-10.483400 0.000000
-10.461000 0.000000
-10.438600 0.000000
-10.416200 0.000000
-10.393800 0.000000
-10.371400 0.000000
-10.349000 0.000000
-10.326600 0.000000
-10.304200 0.000000
-10.281800 0.000000
-10.259400 0.000000
-10.237000 0.000000
-10.214600 0.000000
-10.192200 0.000000
-10.169800 0.000000
-10.147400 0.000000
-10.125000 0.000000
-10.102600 0.000000
-10.080200 0.000000
-10.057800 0.000000
-10.035400 0.000000
-10.013000 0.000000
-9.990600 0.000000
-9.968200 0.000000
-9.945800 0.000000
-9.923400 0.000000
-9.901000 0.000000
-9.878600 0.000000
-9.856200 0.000000
-9.833800 0.000000
-9.811400 0.000000
-9.789000 0.000000
-9.766600 0.000000
-9.744200 0.000000
-9.721800 0.000000
-9.699400 0.000000
-9.677000 0.000000
-9.654600 0.000000
-9.632200 0.000000
-9.609800 0.000000
-9.587400 0.000000
-9.565000 0.000000
-9.542600 0.000000
-9.520200 0.000000
-9.497800 0.000000
-9.475400 0.000000
-9.453000 0.000000
-9.430600 0.000000
-9.408200 0.000000
-9.385800 0.000000
-9.363400 0.000000
-9.341000 0.000000
-9.318600 0.000000
-9.296200 0.000000
-9.273800 0.000000
-9.251400 0.000000
-9.229000 0.000000
-9.206600 0.000000
-9.184200 0.000000
-9.161800 0.000000
-9.139400 0.000000
-9.117000 0.000000
-9.094600 0.000000
-9.072200 0.000000
-9.049800 0.000000
-9.027400 0.000000
-9.005000 0.000000
-8.982600 0.000000
-8.960200 0.000000
-8.937800 0.000000
-8.915400 0.000000
-8.893000 0.000000
-8.870600 0.000000
-8.848200 0.000000
-8.825800 0.000000
-8.803400 0.000000
-8.781000 0.000000
-8.758600 0.000000
-8.736100 0.000000
-8.713700 0.000000
-8.691300 0.000000
-8.668900 0.000000
-8.646500 0.000000
-8.624100 0.000000
-8.601700 0.000000
-8.579300 0.000000
-8.556900 0.000000
-8.534500 0.000000
-8.512100 0.000000
-8.489700 0.000000
-8.467300 0.000000
-8.444900 0.000000
-8.422500 0.000000
-8.400100 0.000000
-8.377700 0.000000
-8.355300 0.000000
-8.332900 0.000000
-8.310500 0.000000
-8.288100 0.000000
-8.265700 0.000000
-8.243300 0.000000
-8.220900 0.000000
-8.198500 0.000000
-8.176100 0.000000
-8.153700 0.000000
-8.131300 0.000000
-8.108900 0.000000
-8.086500 0.000000
-8.064100 0.000000
-8.041700 0.000000
-8.019300 0.000000
-7.996900 0.000000
-7.974500 0.000000
-7.952100 0.000000
-7.929700 0.000000
-7.907300 0.000000
-7.884900 0.000000
-7.862500 0.000000
-7.840100 0.000000
-7.817700 0.000000
-7.795300 0.000000
-7.772900 0.000000
-7.750500 0.000000
-7.728100 0.000000
-7.705700 0.000000
-7.683300 0.000000
-7.660900 0.000000
-7.638500 0.000000
-7.616100 0.000000
-7.593700 0.000000
-7.571300 0.000000
-7.548900 0.000000
-7.526500 0.000000
-7.504100 0.000000
-7.481700 0.000000
-7.459300 0.000000
-7.436900 0.000000
-7.414500 0.000000
-7.392100 0.000000
-7.369700 0.000000
-7.347300 0.000000
-7.324900 0.000000
-7.302500 0.000000
-7.280100 0.000000
-7.257700 0.000000
-7.235300 0.000000
-7.212900 0.000000
-7.190500 0.000000
-7.168100 0.000000
-7.145700 0.000000
-7.123300 0.000000
-7.100900 0.000000
-7.078500 0.000000
-7.056100 0.000000
-7.033700 0.000000
-7.011300 0.000000
-6.988900 0.000000
-6.966500 0.000000
-6.944100 0.000000
-6.921700 0.000000
-6.899300 0.000000
-6.876900 0.000000
-6.854500 0.000000
-6.832100 0.000000
-6.809700 0.000000
-6.787300 0.000000
-6.764900 0.001400
-6.742500 0.016200
-6.720100 0.047300
-6.697700 0.094600
-6.675300 0.139600
-6.652900 0.140900
-6.630500 0.148400
-6.608100 0.160300
-6.585700 0.174200
-6.563300 0.189900
-6.540800 0.206300
-6.518400 0.216000
-6.496000 0.230300
-6.473600 0.244900
-6.451200 0.256500
-6.428800 0.263800
-6.406400 0.266800
-6.384000 0.272900
-6.361600 0.282100
-6.339200 0.291500
-6.316800 0.301100
-6.294400 0.310300
-6.272000 0.318400
-6.249600 0.325500
-6.227200 0.331600
-6.204800 0.337700
-6.182400 0.344900
-6.160000 0.353200
-6.137600 0.362200
-6.115200 0.371700
-6.092800 0.381000
-6.070400 0.387000
-6.048000 0.393100
-6.025600 0.399200
-6.003200 0.405100
-5.980800 0.411000
-5.958400 0.416800
-5.936000 0.423200
-5.913600 0.427600
-5.891200 0.432600
-5.868800 0.438000
-5.846400 0.443400
-5.824000 0.448700
-5.801600 0.455200
-5.779200 0.461200
-5.756800 0.467200
-5.734400 0.473500
-5.712000 0.479900
-5.689600 0.486600
-5.667200 0.493600
-5.644800 0.500700
-5.622400 0.507900
-5.600000 0.515100
-5.577600 0.521500
-5.555200 0.526800
-5.532800 0.531200
-5.510400 0.536000
-5.488000 0.541200
-5.465600 0.545500
-5.443200 0.550100
-5.420800 0.554700
-5.398400 0.559500
-5.376000 0.564300
-5.353600 0.569200
-5.331200 0.574400
-5.308800 0.579900
-5.286400 0.585400
-5.264000 0.591000
-5.241600 0.596700
-5.219200 0.602500
-5.196800 0.608200
-5.174400 0.614100
-5.152000 0.620000
-5.129600 0.626000
-5.107200 0.632200
-5.084800 0.638400
-5.062400 0.644600
-5.040000 0.651000
-5.017600 0.657500
-4.995200 0.664100
-4.972800 0.670800
-4.950400 0.678400
-4.928000 0.684200
-4.905600 0.690000
-4.883200 0.696000
-4.860800 0.704000
-4.838400 0.713800
-4.816000 0.723300
-4.793600 0.732600
-4.771200 0.741600
-4.748800 0.750200
-4.726400 0.762700
-4.704000 0.776000
-4.681600 0.787500
-4.659200 0.797300
-4.636800 0.805600
-4.614400 0.812400
-4.592000 0.812500
-4.569600 0.815900
-4.547200 0.823100
-4.524800 0.835100
-4.502400 0.845000
-4.480000 0.854400
-4.457600 0.863200
-4.435200 0.871700
-4.412800 0.879700
-4.390400 0.887300
-4.367900 0.894600
-4.345500 0.935400
-4.323100 0.941800
-4.300700 0.938600
-4.278300 0.941700
-4.255900 0.933100
-4.233500 0.928200
-4.211100 0.926200
-4.188700 0.934700
-4.166300 0.960900
-4.143900 1.003100
-4.121500 1.025300
-4.099100 0.998000
-4.076700 0.969300
-4.054300 0.944600
-4.031900 0.924100
-4.009500 0.904600
-3.987100 0.881200
-3.964700 0.854500
-3.942300 0.836500
-3.919900 0.825000
-3.897500 0.822900
-3.875100 0.820700
-3.852700 0.821800
-3.830300 0.823400
-3.807900 0.826300
-3.785500 0.834700
-3.763100 0.845200
-3.740700 0.865800
-3.718300 0.898700
-3.695900 0.922100
-3.673500 0.933200
-3.651100 0.936300
-3.628700 0.932800
-3.606300 0.943000
-3.583900 0.957800
-3.561500 0.976300
-3.539100 0.999700
-3.516700 1.027700
-3.494300 1.074000
-3.471900 1.122800
-3.449500 1.197800
-3.427100 1.413400
-3.404700 1.424700
-3.382300 1.434400
-3.359900 1.475300
-3.337500 1.519700
-3.315100 1.477000
-3.292700 1.412000
-3.270300 1.384100
-3.247900 1.355000
-3.225500 1.332500
-3.203100 1.304000
-3.180700 1.269500
-3.158300 1.222300
-3.135900 1.098000
-3.113500 1.073200
-3.091100 1.100800
-3.068700 1.121700
-3.046300 1.132800
-3.023900 1.133600
-3.001500 1.132200
-2.979100 1.124800
-2.956700 1.112700
-2.934300 1.098200
-2.911900 1.097300
-2.889500 1.111400
-2.867100 1.141800
-2.844700 1.169900
-2.822300 1.195300
-2.799900 1.218600
-2.777500 1.235500
-2.755100 1.246500
-2.732700 1.239100
-2.710300 1.229700
-2.687900 1.226200
-2.665500 1.230600
-2.643100 1.239800
-2.620700 1.249400
-2.598300 1.259300
-2.575900 1.269600
-2.553500 1.280300
-2.531100 1.291200
-2.508700 1.324800
-2.486300 1.426900
-2.463900 1.527800
-2.441500 1.500700
-2.419100 1.470900
-2.396700 1.662800
-2.374300 1.732700
-2.351900 1.535100
-2.329500 1.581000
-2.307100 1.621200
-2.284700 1.655700
-2.262300 1.803500
-2.239900 1.912000
-2.217500 2.003900
-2.195000 2.021300
-2.172600 2.027400
-2.150200 2.029500
-2.127800 1.952600
-2.105400 1.957200
-2.083000 1.963600
-2.060600 1.970700
-2.038200 1.986500
-2.015800 1.982000
-1.993400 1.955500
-1.971000 1.897500
-1.948600 1.921300
-1.926200 1.926600
-1.903800 1.873200
-1.881400 1.852000
-1.859000 1.887400
-1.836600 1.821300
-1.814200 1.814900
-1.791800 1.813800
-1.769400 1.810700
-1.747000 1.809300
-1.724600 1.786900
-1.702200 1.790100
-1.679800 1.797200
-1.657400 1.933200
-1.635000 1.948100
-1.612600 1.908200
-1.590200 1.906200
-1.567800 1.914000
-1.545400 1.920300
-1.523000 1.925300
-1.500600 1.904400
-1.478200 1.899900
-1.455800 1.889000
-1.433400 1.886600
-1.411000 1.996500
-1.388600 2.097600
-1.366200 2.081700
-1.343800 2.053700
-1.321400 2.173100
-1.299000 2.230200
-1.276600 2.025700
-1.254200 1.642000
-1.231800 1.604800
-1.209400 1.558600
-1.187000 1.533300
-1.164600 1.608600
-1.142200 1.642100
-1.119800 1.647100
-1.097400 1.621600
-1.075000 1.679100
-1.052600 1.814700
-1.030200 2.011800
-1.007800 2.246500
-0.985400 2.603900
-0.963000 2.881800
-0.940600 3.788500
-0.918200 4.465500
-0.895800 4.012600
-0.873400 5.046100
-0.851000 7.988200
-0.828600 8.003200
-0.806200 7.557200
-0.783800 7.302600
-0.761400 8.066200
-0.739000 8.236200
-0.716600 6.434100
-0.694200 4.999200
-0.671800 4.187400
-0.649400 3.883700
-0.627000 4.440200
-0.604600 6.560300
-0.582200 10.579200
-0.559800 10.639700
-0.537400 11.041600
-0.515000 10.654800
-0.492600 10.784100
-0.470200 11.907600
-0.447800 14.219300
-0.425400 16.529900
-0.403000 21.452900
-0.380600 15.910100
-0.358200 10.027700
-0.335800 6.022700
-0.313400 4.678300
-0.291000 3.357400
-0.268600 2.502500
-0.246200 2.648200
-0.223800 2.481400
-0.201400 1.832300
-0.179000 1.628800
-0.156600 1.546800
-0.134200 1.528500
-0.111800 1.618200
-0.089400 1.713300
-0.067000 1.752900
-0.044600 1.924000
-0.022100 2.209500
0.000300 2.664600
0.022700 4.120700
0.045100 5.570900
0.067500 5.615600
0.089900 5.208400
0.112300 4.277500
0.134700 3.401200
0.157100 3.076300
0.179500 2.990300
0.201900 2.791600
0.224300 2.633000
0.246700 2.549800
0.269100 2.499700
0.291500 2.468900
0.313900 2.432700
0.336300 2.412900
0.358700 2.354700
0.381100 2.295000
0.403500 2.232300
0.425900 2.247600
0.448300 2.210400
0.470700 2.202200
0.493100 2.118200
0.515500 2.153400
0.537900 2.173100
0.560300 2.207800
0.582700 2.251600
0.605100 2.280200
0.627500 2.285000
0.649900 2.230300
0.672300 2.191900
0.694700 2.162500
0.717100 2.111400
0.739500 2.055000
0.761900 2.004400
0.784300 1.956100
0.806700 2.014300
0.829100 2.116400
0.851500 2.195800
0.873900 2.235300
0.896300 2.280300
0.918700 2.285500
0.941100 2.261200
0.963500 2.205900
0.985900 2.158500
1.008300 2.125700
1.030700 2.131400
1.053100 2.142800
1.075500 2.158300
1.097900 2.047400
1.120300 2.024000
1.142700 1.998300
1.165100 1.958200
1.187500 1.928300
1.209900 1.903200
1.232300 1.887000
1.254700 1.873200
1.277100 1.862800
1.299500 1.854900
1.321900 1.843900
1.344300 1.830500
1.366700 1.818800
1.389100 1.802500
1.411500 1.776000
1.433900 1.763300
1.456300 1.751300
1.478700 1.750800
1.501100 1.741300
1.523500 1.784300
1.545900 1.758400
1.568300 1.711800
1.590700 1.668800
1.613100 1.622000
1.635500 1.570600
1.657900 1.516500
1.680300 1.448300
1.702700 1.413900
1.725100 1.398200
1.747500 1.395300
1.769900 1.389500
1.792300 1.378400
1.814700 1.356700
1.837100 1.333100
1.859500 1.309200
1.881900 1.291200
1.904300 1.277300
1.926700 1.279600
1.949100 1.224000
1.971500 1.211200
1.993900 1.214600
2.016300 1.247600
2.038700 1.323700
2.061100 1.351600
2.083500 1.488500
2.105900 1.668600
2.128300 1.546000
2.150800 1.483200
2.173200 1.476000
2.195600 1.509200
2.218000 1.478200
2.240400 1.550200
2.262800 1.424500
2.285200 1.417900
2.307600 1.422800
2.330000 1.431400
2.352400 1.443700
2.374800 1.468600
2.397200 1.482300
2.419600 1.482300
2.442000 1.482200
2.464400 1.481500
2.486800 1.526300
2.509200 1.505800
2.531600 1.486400
2.554000 1.469000
2.576400 1.455500
2.598800 1.452000
2.621200 1.451400
2.643600 1.465300
2.666000 1.485000
2.688400 1.511100
2.710800 1.592000
2.733200 1.843000
2.755600 2.163700
2.778000 2.436000
2.800400 2.076100
2.822800 1.965300
2.845200 1.927500
2.867600 2.083300
2.890000 1.922800
2.912400 1.833700
2.934800 1.835100
2.957200 1.626300
2.979600 1.545900
3.002000 1.475600
3.024400 1.406800
3.046800 1.355900
3.069200 1.317100
3.091600 1.286600
3.114000 1.286000
3.136400 1.270700
3.158800 1.254300
3.181200 1.230400
3.203600 1.200300
3.226000 1.169800
3.248400 1.138200
3.270800 1.155200
3.293200 1.334700
3.315600 1.431000
3.338000 1.389400
3.360400 1.357800
3.382800 1.386600
3.405200 1.413400
3.427600 1.421800
3.450000 1.412800
3.472400 1.410300
3.494800 1.425600
3.517200 1.417700
3.539600 1.411300
3.562000 1.402000
3.584400 1.406100
3.606800 1.419600
3.629200 1.440500
3.651600 1.423100
3.674000 1.440900
3.696400 1.458600
3.718800 1.476200
3.741200 1.493800
3.763600 1.511300
3.786000 1.527000
3.808400 1.541000
3.830800 1.553900
3.853200 1.566400
3.875600 1.585200
3.898000 1.608100
3.920400 1.646100
3.942800 1.686000
3.965200 1.718300
3.987600 1.747000
4.010000 1.769000
4.032400 1.780400
4.054800 1.784300
4.077200 1.788100
4.099600 1.789700
4.122000 1.789000
4.144400 1.785000
4.166800 1.778200
4.189200 1.796500
4.211600 1.792700
4.234000 1.752100
4.256400 1.736900
4.278800 1.735500
4.301200 1.771900
4.323700 1.803900
4.346100 1.835900
4.368500 1.861200
4.390900 1.885500
4.413300 1.874100
4.435700 1.845300
4.458100 1.832200
4.480500 1.821500
4.502900 1.813900
4.525300 1.816300
4.547700 1.810400
4.570100 1.795200
4.592500 1.808100
4.614900 1.804200
4.637300 1.790600
4.659700 1.779300
4.682100 1.770200
4.704500 1.757600
4.726900 1.738900
4.749300 1.712500
4.771700 1.655000
4.794100 1.620600
4.816500 1.590100
4.838900 1.563100
4.861300 1.537300
4.883700 1.515000
4.906100 1.498300
4.928500 1.483300
4.950900 1.469600
4.973300 1.508700
4.995700 1.484200
5.018100 1.469300
5.040500 1.459200
5.062900 1.454800
5.085300 1.447000
5.107700 1.518000
5.130100 1.492700
5.152500 1.469700
5.174900 1.448400
5.197300 1.430800
5.219700 1.433900
5.242100 1.420100
5.264500 1.408000
5.286900 1.397100
5.309300 1.386500
5.331700 1.376900
5.354100 1.370900
5.376500 1.370000
5.398900 1.370800
5.421300 1.394600
5.443700 1.389500
5.466100 1.358200
5.488500 1.325800
5.510900 1.257100
5.533300 1.190600
5.555700 1.187300
5.578100 1.188400
5.600500 1.195700
5.622900 1.217900
5.645300 1.249500
5.667700 1.233300
5.690100 1.243300
5.712500 1.257500
5.734900 1.275100
5.757300 1.288200
5.779700 1.306100
5.802100 1.326400
5.824500 1.349300
5.846900 1.372400
5.869300 1.394300
5.891700 1.415200
5.914100 1.438900
5.936500 1.468000
5.958900 1.497800
5.981300 1.528300
6.003700 1.557200
6.026100 1.587400
6.048500 1.611500
6.070900 1.633400
6.093300 1.653500
6.115700 1.682600
6.138100 1.756600
6.160500 1.935300
6.182900 2.009500
6.205300 2.032800
6.227700 2.040900
6.250100 2.020900
6.272500 1.997200
6.294900 1.980700
6.317300 1.961800
6.339700 1.919600
6.362100 1.922300
6.384500 1.992800
6.406900 1.974300
6.429300 1.928600
6.451700 1.879200
6.474100 1.848900
6.496500 1.811700
6.519000 1.767500
6.541400 1.719900
6.563800 1.669200
6.586200 1.622300
6.608600 1.594000
6.631000 1.568700
6.653400 1.543400
6.675800 1.528400
6.698200 1.552700
6.720600 1.569900
6.743000 1.577500
6.765400 1.573800
6.787800 1.535300
6.810200 1.503200
6.832600 1.475600
6.855000 1.489800
6.877400 1.473400
6.899800 1.457900
6.922200 1.442000
6.944600 1.430800
6.967000 1.424300
6.989400 1.414500
7.011800 1.439400
7.034200 1.497100
7.056600 1.545500
7.079000 1.571400
7.101400 1.617600
7.123800 1.623500
7.146200 1.707700
7.168600 1.743000
7.191000 1.738300
7.213400 1.652400
7.235800 1.657000
7.258200 1.665500
7.280600 1.716700
7.303000 1.744800
7.325400 1.755600
7.347800 1.947600
7.370200 1.804100
7.392600 1.773700
7.415000 1.826900
7.437400 1.923900
7.459800 2.058300
7.482200 2.039200
7.504600 2.027200
7.527000 2.012800
7.549400 1.997100
7.571800 1.980600
7.594200 1.960900
7.616600 1.939000
7.639000 1.912900
7.661400 1.891200
7.683800 1.878000
7.706200 1.868100
7.728600 1.860100
7.751000 1.858600
7.773400 1.875200
7.795800 2.021400
7.818200 1.927500
7.840600 1.883200
7.863000 1.852300
7.885400 1.825300
7.907800 1.804000
7.930200 1.785900
7.952600 1.748400
7.975000 1.710700
7.997400 1.698900
8.019800 1.697100
8.042200 1.661100
8.064600 1.620600
8.087000 1.592100
8.109400 1.563900
8.131800 1.553800
8.154200 1.550400
8.176600 1.557000
8.199000 1.587000
8.221400 1.647500
8.243800 1.677700
8.266200 1.707600
8.288600 1.737300
8.311000 1.766000
8.333400 1.792100
8.355800 1.816600
8.378200 1.842300
8.400600 1.872400
8.423000 1.826100
8.445400 1.831000
8.467800 1.841400
8.490200 1.855700
8.512600 1.873100
8.535000 1.951600
8.557400 2.015000
8.579800 2.082200
8.602200 2.157600
8.624600 2.400600
8.647000 2.308700
8.669400 2.277400
8.691900 2.247900
8.714300 2.179100
8.736700 2.132700
8.759100 2.100200
8.781500 2.073100
8.803900 2.084700
8.826300 2.110200
8.848700 2.130500
8.871100 2.097100
8.893500 2.124000
8.915900 2.051600
8.938300 1.954800
8.960700 1.898200
8.983100 1.890100
9.005500 1.928500
9.027900 1.972100
9.050300 2.003400
9.072700 1.993300
9.095100 2.010900
9.117500 2.055900
9.139900 2.114000
9.162300 2.195100
9.184700 2.278100
9.207100 2.335200
9.229500 2.365800
9.251900 2.396100
9.274300 2.428800
9.296700 2.453700
9.319100 2.475900
9.341500 2.496600
9.363900 2.505500
9.386300 2.457500
9.408700 2.428700
9.431100 2.436300
9.453500 2.399500
9.475900 2.318000
9.498300 2.282400
9.520700 2.257100
9.543100 2.226000
9.565500 2.182400
9.587900 2.150800
9.610300 2.135700
9.632700 2.134800
9.655100 2.138300
9.677500 2.151900
9.699900 2.114300
9.722300 2.102900
9.744700 2.059200
9.767100 2.071200
9.789500 2.067300
9.811900 2.067900
9.834300 2.103800
9.856700 2.113500
9.879100 2.111300
9.901500 2.123100
9.923900 2.127800
9.946300 2.116300
9.968700 2.086600
9.991100 2.041900
10.013500 2.011600
10.035900 2.028400
10.058300 2.049500
10.080700 2.109400
10.103100 2.170800
10.125500 2.246500
10.147900 2.321600
10.170300 2.422100
10.192700 2.477100
10.215100 2.471600
10.237500 2.501300
10.259900 2.535800
10.282300 2.443300
10.304700 2.252400
10.327100 2.198600
10.349500 2.044300
10.371900 1.934700
10.394300 1.902600
10.416700 1.940200
10.439100 1.995500
10.461500 2.035600
10.483900 2.006200
10.506300 2.011700
10.528700 2.012100
