set title 'mp-126 - Density of States'
set xlabel 'Energy (eV)'
set ylabel 'DOS (states/eV)'
set grid
set xrange [-10:10]
set yrange [0:3.257]
set xzeroaxis lt -1
set terminal png size 800,600
set output 'mp-126_dos_gnuplot.png'
plot '-' using 1:2 with lines title 'DOS'
-4.774600 0.000000
-4.749400 0.000000
-4.724300 0.000000
-4.699200 0.000000
-4.674100 0.000000
-4.648900 0.000000
-4.623800 0.000000
-4.598700 0.000000
-4.573600 0.000000
-4.548500 0.000000
-4.523300 0.000000
-4.498200 0.000000
-4.473100 0.000000
-4.448000 0.000000
-4.422900 0.000000
-4.397700 0.000000
-4.372600 0.000000
-4.347500 0.000000
-4.322400 0.000000
-4.297300 0.000000
-4.272100 0.000000
-4.247000 0.000000
-4.221900 0.000000
-4.196800 0.000000
-4.171600 0.000000
-4.146500 0.000000
-4.121400 0.000000
-4.096300 0.000000
-4.071200 0.000000
-4.046000 0.000000
-4.020900 0.000000
-3.995800 0.000000
-3.970700 0.000000
-3.945600 0.000000
-3.920400 0.000000
-3.895300 0.000000
-3.870200 0.000000
-3.845100 0.000000
-3.819900 0.000000
-3.794800 0.000000
-3.769700 0.000000
-3.744600 0.000000
-3.719500 0.000000
-3.694300 0.000000
-3.669200 0.000000
-3.644100 0.000000
-3.619000 0.000000
-3.593900 0.000000
-3.568700 0.000000
-3.543600 0.000000
-3.518500 0.000000
-3.493400 0.000000
-3.468200 0.000000
-3.443100 0.000000
-3.418000 0.000000
-3.392900 0.000000
-3.367800 0.000000
-3.342600 0.000000
-3.317500 0.000000
-3.292400 0.000000
-3.267300 0.000000
-3.242200 0.000000
-3.217000 0.000000
-3.191900 0.000000
-3.166800 0.000000
-3.141700 0.000000
-3.116500 0.000000
-3.091400 0.000000
-3.066300 0.000000
-3.041200 0.000000
-3.016100 0.000000
-2.990900 0.000000
-2.965800 0.000000
-2.940700 0.000000
-2.915600 0.000000
-2.890500 0.000000
-2.865300 0.000000
-2.840200 0.000000
-2.815100 0.000000
-2.790000 0.000000
-2.764800 0.000000
-2.739700 0.000000
-2.714600 0.000000
-2.689500 0.000000
-2.664400 0.000000
-2.639200 0.000000
-2.614100 0.000000
-2.589000 0.000000
-2.563900 0.000000
-2.538800 0.000000
-2.513600 0.000000
-2.488500 0.000000
-2.463400 0.003600
-2.438300 0.013200
-2.413100 0.015800
-2.388000 0.018400
-2.362900 0.021600
-2.337800 0.024900
-2.312700 0.028300
-2.287500 0.030400
-2.262400 0.031100
-2.237300 0.032700
-2.212200 0.034700
-2.187100 0.036700
-2.161900 0.038800
-2.136800 0.040900
-2.111700 0.043100
-2.086600 0.044100
-2.061400 0.045500
-2.036300 0.046800
-2.011200 0.048200
-1.986100 0.049500
-1.961000 0.050900
-1.935800 0.052500
-1.910700 0.054100
-1.885600 0.055800
-1.860500 0.057400
-1.835400 0.059100
-1.810200 0.060400
-1.785100 0.061300
-1.760000 0.062500
-1.734900 0.063800
-1.709700 0.065100
-1.684600 0.066400
-1.659500 0.067700
-1.634400 0.069000
-1.609300 0.070400
-1.584100 0.071900
-1.559000 0.073300
-1.533900 0.074800
-1.508800 0.076300
-1.483700 0.077700
-1.458500 0.078900
-1.433400 0.080100
-1.408300 0.081400
-1.383200 0.082600
-1.358100 0.083900
-1.332900 0.085200
-1.307800 0.086600
-1.282700 0.088000
-1.257600 0.089500
-1.232400 0.090900
-1.207300 0.092300
-1.182200 0.093800
-1.157100 0.095300
-1.132000 0.096900
-1.106800 0.098500
-1.081700 0.100000
-1.056600 0.101300
-1.031500 0.102800
-1.006400 0.104200
-0.981200 0.105700
-0.956100 0.107200
-0.931000 0.108800
-0.905900 0.110400
-0.880700 0.112000
-0.855600 0.113700
-0.830500 0.115500
-0.805400 0.117200
-0.780300 0.119000
-0.755100 0.120800
-0.730000 0.122600
-0.704900 0.124500
-0.679800 0.126500
-0.654700 0.128400
-0.629500 0.130300
-0.604400 0.132200
-0.579300 0.134200
-0.554200 0.136200
-0.529000 0.138400
-0.503900 0.140600
-0.478800 0.142800
-0.453700 0.145100
-0.428600 0.147500
-0.403400 0.150000
-0.378300 0.152600
-0.353200 0.155300
-0.328100 0.158000
-0.303000 0.160800
-0.277800 0.163700
-0.252700 0.166600
-0.227600 0.169700
-0.202500 0.172800
-0.177300 0.176000
-0.152200 0.179300
-0.127100 0.182900
-0.102000 0.186700
-0.076900 0.190800
-0.051700 0.195100
-0.026600 0.199800
-0.001500 0.204800
0.023600 0.210000
0.048700 0.215600
0.073900 0.221400
0.099000 0.227500
0.124100 0.234000
0.149200 0.240900
0.174400 0.248000
0.199500 0.255300
0.224600 0.263000
0.249700 0.275300
0.274800 0.293600
0.300000 0.312000
0.325100 0.331600
0.350200 0.353700
0.375300 0.434900
0.400400 0.566200
0.425600 0.529500
0.450700 0.546500
0.475800 0.561300
0.500900 0.574600
0.526100 0.574400
0.551200 0.562300
0.576300 0.562000
0.601400 0.570600
0.626500 0.579200
0.651700 0.641800
0.676800 0.698700
0.701900 0.718800
0.727000 0.741700
0.752100 0.775300
0.777300 0.801900
0.802400 0.833500
0.827500 0.872800
0.852600 0.919600
0.877800 0.990200
0.902900 1.047300
0.928000 1.021700
0.953100 1.036900
0.978200 1.046900
1.003400 1.044900
1.028500 1.053500
1.053600 1.071100
1.078700 1.088100
1.103800 1.163300
1.129000 1.229000
1.154100 1.263000
1.179200 1.306800
1.204300 1.342700
1.229500 1.367900
1.254600 1.395200
1.279700 1.434600
1.304800 1.462500
1.329900 1.486100
1.355100 1.492000
1.380200 1.497000
1.405300 1.501000
1.430400 1.493900
1.455500 1.485200
1.480700 1.478700
1.505800 1.469400
1.530900 1.454600
1.556000 1.440500
1.581100 1.428000
1.606300 1.415800
1.631400 1.404600
1.656500 1.389800
1.681600 1.377500
1.706800 1.370200
1.731900 1.365400
1.757000 1.357200
1.782100 1.348800
1.807200 1.338200
1.832400 1.328900
1.857500 1.327100
1.882600 1.329600
1.907700 1.331500
1.932800 1.343300
1.958000 1.370200
1.983100 1.387100
2.008200 1.352700
2.033300 1.294800
2.058500 1.205800
2.083600 1.183000
2.108700 1.156800
2.133800 1.127100
2.158900 1.110400
2.184100 1.056100
2.209200 0.963800
2.234300 0.924400
2.259400 0.931400
2.284500 0.888700
2.309700 0.818000
2.334800 0.818500
2.359900 0.823400
2.385000 0.841200
2.410200 0.869200
2.435300 0.933800
2.460400 1.170400
2.485500 1.518800
2.510600 1.443200
2.535800 1.396400
2.560900 1.431300
2.586000 1.543300
2.611100 1.508300
2.636200 1.460100
2.661400 1.391700
2.686500 1.337300
2.711600 1.319400
2.736700 1.322100
2.761900 1.320500
2.787000 1.327800
2.812100 1.320000
2.837200 1.332800
2.862300 1.356600
2.887500 1.355800
2.912600 1.468900
2.937700 1.511800
2.962800 1.455800
2.987900 1.464600
3.013100 1.466100
3.038200 1.443100
3.063300 1.394400
3.088400 1.393000
3.113600 1.412000
3.138700 1.430400
3.163800 1.507300
3.188900 1.590800
3.214000 1.599600
3.239200 1.611000
3.264300 1.620600
3.289400 1.632000
3.314500 1.679000
3.339600 1.664700
3.364800 1.623300
3.389900 1.599100
3.415000 1.589600
3.440100 1.593400
3.465300 1.613000
3.490400 1.633900
3.515500 1.656000
3.540600 1.692100
3.565700 1.727800
3.590900 1.805200
3.616000 1.846100
3.641100 1.911200
3.666200 1.852500
3.691300 1.873200
3.716500 1.885600
3.741600 1.894800
3.766700 2.001600
3.791800 2.013600
3.817000 2.045800
3.842100 2.071400
3.867200 2.133500
3.892300 2.202900
3.917400 2.316500
3.942600 2.478500
3.967700 2.336300
3.992800 2.313400
4.017900 2.269100
4.043000 2.451100
4.068200 2.448400
4.093300 2.624800
4.118400 2.961000
4.143500 2.771100
4.168700 2.258500
4.193800 2.061800
4.218900 1.859800
4.244000 1.750300
4.269100 1.671600
4.294300 1.630300
4.319400 1.539200
4.344500 1.591400
4.369600 1.349500
4.394700 1.228700
4.419900 1.182300
4.445000 1.156700
4.470100 1.193300
4.495200 1.364200
4.520400 1.504000
4.545500 1.542200
4.570600 1.494900
4.595700 1.408100
4.620800 1.333000
4.646000 1.288800
4.671100 1.266200
4.696200 1.249300
4.721300 1.227700
4.746400 1.219800
4.771600 1.218500
4.796700 1.228800
4.821800 1.230100
4.846900 1.209400
4.872000 1.195100
4.897200 1.149800
4.922300 1.137000
4.947400 1.130400
4.972500 1.146900
4.997700 1.178500
5.022800 1.224300
5.047900 1.259400
5.073000 1.310200
5.098100 1.415400
5.123300 1.518100
5.148400 1.474600
5.173500 1.494800
5.198600 1.495800
5.223700 1.493000
5.248900 1.518000
5.274000 1.567900
5.299100 1.602000
5.324200 1.600600
5.349400 1.559000
5.374500 1.528300
5.399600 1.535700
5.424700 1.744700
5.449800 2.021500
5.475000 1.995700
5.500100 1.718400
5.525200 1.609300
5.550300 1.530600
5.575400 1.462700
5.600600 1.401700
5.625700 1.344500
5.650800 1.354700
5.675900 1.286000
5.701100 1.319900
5.726200 1.401200
5.751300 1.405300
5.776400 1.348200
5.801500 1.320500
5.826700 1.296000
5.851800 1.285200
5.876900 1.279400
5.902000 1.254300
5.927100 1.243500
5.952300 1.235200
5.977400 1.228500
6.002500 1.225200
6.027600 1.223500
6.052800 1.220100
6.077900 1.214100
6.103000 1.208900
6.128100 1.198800
6.153200 1.183600
6.178400 1.210700
6.203500 1.164500
6.228600 1.178600
6.253700 1.154500
6.278800 1.152000
6.304000 1.150500
6.329100 1.146500
6.354200 1.142900
6.379300 1.142800
6.404500 1.149900
6.429600 1.162000
6.454700 1.172400
6.479800 1.179000
6.504900 1.189300
6.530100 1.202600
6.555200 1.218200
6.580300 1.232000
6.605400 1.263000
6.630500 1.262600
6.655700 1.309200
6.680800 1.263800
6.705900 1.259900
6.731000 1.280800
6.756200 1.294500
6.781300 1.330400
6.806400 1.363400
6.831500 1.399600
6.856600 1.437900
6.881800 1.479000
6.906900 1.502500
6.932000 1.532400
6.957100 1.547900
6.982200 1.609400
7.007400 1.683300
7.032500 1.780200
7.057600 1.840000
7.082700 2.101200
7.107900 2.205100
7.133000 2.195800
7.158100 2.271100
7.183200 2.289700
7.208300 2.307500
7.233500 2.287200
7.258600 2.279200
7.283700 2.250800
7.308800 1.882500
7.333900 1.743700
7.359100 1.635600
7.384200 1.552000
7.409300 1.458000
7.434400 1.351900
7.459600 1.239900
7.484700 1.148800
7.509800 1.079700
7.534900 1.022900
7.560000 0.968000
7.585200 0.940400
7.610300 0.977200
7.635400 0.904200
7.660500 0.834100
7.685600 0.758600
7.710800 0.493900
7.735900 0.287000
7.761000 0.287700
7.786100 0.288400
7.811200 0.289000
7.836400 0.289400
7.861500 0.289800
7.886600 0.290100
7.911700 0.290300
7.936900 0.290600
7.962000 0.290800
7.987100 0.290900
8.012200 0.290900
8.037300 0.290800
8.062500 0.290700
8.087600 0.290300
8.112700 0.289300
8.137800 0.287200
8.162900 0.283000
8.188100 0.281200
8.213200 0.282000
8.238300 0.282600
8.263400 0.283200
8.288600 0.283800
8.313700 0.284300
8.338800 0.284800
8.363900 0.285300
8.389000 0.285700
8.414200 0.286000
8.439300 0.286400
8.464400 0.286600
8.489500 0.286900
8.514600 0.287100
8.539800 0.287200
8.564900 0.287300
8.590000 0.287300
8.615100 0.287200
8.640300 0.287100
8.665400 0.286900
8.690500 0.286600
8.715600 0.286100
8.740700 0.285500
8.765900 0.284400
8.791000 0.283800
8.816100 0.283300
8.841200 0.283000
8.866300 0.282800
8.891500 0.282800
8.916600 0.282700
8.941700 0.282800
8.966800 0.283200
8.992000 0.283800
9.017100 0.284300
9.042200 0.284800
9.067300 0.286400
9.092400 0.287100
9.117600 0.287600
9.142700 0.288000
9.167800 0.288300
9.192900 0.288500
9.218000 0.288500
9.243200 0.288500
9.268300 0.288400
9.293400 0.288200
9.318500 0.287700
9.343700 0.287100
9.368800 0.286600
9.393900 0.286300
9.419000 0.285900
9.444100 0.285600
9.469300 0.285300
9.494400 0.284900
9.519500 0.285300
9.544600 0.285400
9.569700 0.285100
9.594900 0.284400
9.620000 0.283300
9.645100 0.282500
9.670200 0.282400
9.695400 0.282200
9.720500 0.282100
9.745600 0.282000
9.770700 0.281900
9.795800 0.281800
9.821000 0.281500
9.846100 0.281200
9.871200 0.281000
9.896300 0.281200
9.921400 0.281000
9.946600 0.280100
9.971700 0.279600
9.996800 0.279100
10.021900 0.278500
10.047100 0.277900
10.072200 0.277200
10.097300 0.276500
10.122400 0.275800
10.147500 0.275100
10.172700 0.274500
10.197800 0.273900
10.222900 0.273300
10.248000 0.272700
10.273100 0.272200
10.298300 0.271700
10.323400 0.271200
10.348500 0.270800
10.373600 0.270400
10.398800 0.270000
10.423900 0.269600
10.449000 0.269100
10.474100 0.268600
10.499200 0.268000
10.524400 0.267400
10.549500 0.266800
10.574600 0.266100
10.599700 0.265300
10.624800 0.264400
10.650000 0.263100
10.675100 0.261500
10.700200 0.260700
10.725300 0.260000
10.750400 0.259400
10.775600 0.258800
10.800700 0.258300
10.825800 0.257800
10.850900 0.257400
10.876100 0.257200
10.901200 0.256800
10.926300 0.256200
10.951400 0.254500
10.976500 0.253700
11.001700 0.252900
11.026800 0.252100
11.051900 0.251300
11.077000 0.250500
11.102100 0.249700
11.127300 0.249000
11.152400 0.248200
11.177500 0.247500
11.202600 0.246700
11.227800 0.245800
11.252900 0.245000
11.278000 0.244100
11.303100 0.243200
11.328200 0.242400
11.353400 0.241600
11.378500 0.240700
11.403600 0.239800
11.428700 0.239000
11.453800 0.238100
11.479000 0.237300
11.504100 0.236500
11.529200 0.235800
11.554300 0.235000
11.579500 0.234200
11.604600 0.233300
11.629700 0.232300
11.654800 0.231300
11.679900 0.230100
11.705100 0.229000
11.730200 0.228100
11.755300 0.227200
11.780400 0.226600
11.805500 0.226100
11.830700 0.225700
11.855800 0.225300
11.880900 0.224800
11.906000 0.224000
11.931200 0.223000
11.956300 0.222300
11.981400 0.221900
12.006500 0.221700
12.031600 0.221600
12.056800 0.222200
12.081900 0.222700
12.107000 0.223100
12.132100 0.223100
12.157200 0.223000
12.182400 0.222800
12.207500 0.223000
12.232600 0.223700
12.257700 0.218100
12.282900 0.215300
12.308000 0.214800
12.333100 0.214300
12.358200 0.213800
12.383300 0.213100
12.408500 0.212200
12.433600 0.211100
12.458700 0.209800
12.483800 0.208500
12.508900 0.207300
12.534100 0.206500
12.559200 0.206900
12.584300 0.209700
12.609400 0.221600
12.634600 0.243400
12.659700 0.297900
12.684800 0.379000
12.709900 0.422900
12.735000 0.462700
12.760200 0.514900
12.785300 0.549900
12.810400 0.529400
12.835500 0.511000
12.860600 0.480700
12.885800 0.438100
12.910900 0.414200
12.936000 0.396400
12.961100 0.383000
12.986300 0.371300
13.011400 0.361400
13.036500 0.353100
13.061600 0.346100
13.086700 0.336900
13.111900 0.329000
13.137000 0.322700
13.162100 0.317700
13.187200 0.311800
13.212300 0.302300
13.237500 0.297900
13.262600 0.293700
13.287700 0.289600
13.312800 0.285700
13.338000 0.282000
13.363100 0.278600
13.388200 0.275800
13.413300 0.273800
13.438400 0.272300
13.463600 0.271000
13.488700 0.270500
13.513800 0.274600
13.538900 0.283100
13.564000 0.327200
13.589200 0.303700
13.614300 0.305600
13.639400 0.301200
13.664500 0.298200
13.689700 0.301800
13.714800 0.306200
13.739900 0.308900
13.765000 0.310400
13.790100 0.311200
13.815300 0.311600
13.840400 0.311700
13.865500 0.311600
13.890600 0.311100
13.915700 0.310300
13.940900 0.316200
13.966000 0.309800
13.991100 0.305900
14.016200 0.302900
14.041300 0.300500
14.066500 0.300500
14.091600 0.302400
14.116700 0.304700
14.141800 0.307200
14.167000 0.309800
14.192100 0.312700
14.217200 0.315800
14.242300 0.319000
14.267400 0.323000
14.292600 0.326600
14.317700 0.329700
14.342800 0.330400
14.367900 0.331000
14.393000 0.331500
14.418200 0.331400
14.443300 0.331600
14.468400 0.332000
14.493500 0.332900
14.518700 0.334400
14.543800 0.336200
14.568900 0.340100
14.594000 0.343400
14.619100 0.346300
14.644300 0.348800
14.669400 0.350600
14.694500 0.354900
14.719600 0.351100
14.744700 0.347800
14.769900 0.348100
14.795000 0.348200
14.820100 0.348000
14.845200 0.347600
14.870400 0.347000
14.895500 0.346200
14.920600 0.345200
14.945700 0.356500
14.970800 0.343500
14.996000 0.343600
15.021100 0.342500
15.046200 0.344800
15.071300 0.346400
15.096400 0.347000
15.121600 0.345000
15.146700 0.341900
15.171800 0.338700
15.196900 0.335500
15.222100 0.332300
15.247200 0.328400
15.272300 0.323900
15.297400 0.319300
15.322500 0.314600
15.347700 0.309400
15.372800 0.307100
15.397900 0.305300
15.423000 0.303800
15.448100 0.302800
15.473300 0.302400
15.498400 0.302700
15.523500 0.303500
15.548600 0.301100
15.573800 0.301000
15.598900 0.301800
15.624000 0.302800
15.649100 0.309200
15.674200 0.308900
15.699400 0.307500
15.724500 0.301000
15.749600 0.295800
15.774700 0.292700
15.799800 0.289600
15.825000 0.286600
15.850100 0.283700
15.875200 0.281500
15.900300 0.279700
15.925500 0.278100
15.950600 0.276500
15.975700 0.274900
16.000800 0.273300
16.025900 0.271800
16.051100 0.270500
16.076200 0.270700
16.101300 0.272000
16.126400 0.273000
16.151500 0.273600
16.176700 0.273900
16.201800 0.275100
16.226900 0.277200
16.252000 0.279800
16.277200 0.282200
16.302300 0.284400
16.327400 0.280300
16.352500 0.277100
16.377600 0.276800
16.402800 0.277400
16.427900 0.278300
16.453000 0.277000
16.478100 0.273100
16.503200 0.270700
16.528400 0.270200
16.553500 0.271100
16.578600 0.273800
16.603700 0.275900
16.628900 0.284400
16.654000 0.289100
16.679100 0.290500
16.704200 0.296700
16.729300 0.303500
16.754500 0.308000
16.779600 0.312200
16.804700 0.317000
16.829800 0.322000
16.854900 0.327200
16.880100 0.332000
16.905200 0.333600
16.930300 0.330700
16.955400 0.333400
16.980500 0.337500
17.005700 0.339700
17.030800 0.344100
17.055900 0.348800
17.081000 0.351600
17.106200 0.350600
17.131300 0.348700
17.156400 0.353200
17.181500 0.359500
17.206600 0.362700
17.231800 0.363800
17.256900 0.364800
17.282000 0.363300
17.307100 0.360900
17.332200 0.358200
17.357400 0.356700
17.382500 0.354900
17.407600 0.352400
17.432700 0.350900
17.457900 0.352300
17.483000 0.354700
17.508100 0.355200
17.533200 0.355400
17.558300 0.355700
17.583500 0.355900
17.608600 0.356200
17.633700 0.356700
17.658800 0.357200
17.683900 0.357700
17.709100 0.358900
17.734200 0.361300
17.759300 0.364500
17.784400 0.366800
17.809600 0.367800
17.834700 0.368700
17.859800 0.369600
17.884900 0.370700
17.910000 0.371300
17.935200 0.371500
17.960300 0.371400
17.985400 0.369900
18.010500 0.368100
18.035600 0.369000
18.060800 0.366800
18.085900 0.363800
18.111000 0.365500
18.136100 0.366900
18.161300 0.367500
18.186400 0.368000
18.211500 0.368500
18.236600 0.368800
18.261700 0.368900
18.286900 0.368700
18.312000 0.368200
18.337100 0.365800
18.362200 0.363800
18.387300 0.362600
18.412500 0.361800
18.437600 0.377700
18.462700 0.368600
18.487800 0.370400
18.513000 0.371900
18.538100 0.372700
18.563200 0.373400
18.588300 0.373800
18.613400 0.373900
18.638600 0.373800
18.663700 0.378500
18.688800 0.380500
18.713900 0.372700
18.739000 0.370200
18.764200 0.367900
18.789300 0.364300
18.814400 0.369800
18.839500 0.391500
18.864700 0.373600
18.889800 0.374000
18.914900 0.375900
18.940000 0.381000
18.965100 0.394600
18.990300 0.398900
19.015400 0.400500
19.040500 0.418900
19.065600 0.489700
19.090700 0.512400
19.115900 0.473700
19.141000 0.460200
19.166100 0.463700
19.191200 0.467500
19.216400 0.473000
19.241500 0.478200
19.266600 0.481500
19.291700 0.484300
19.316800 0.487100
19.342000 0.491100
19.367100 0.493800
19.392200 0.494100
19.417300 0.492300
19.442400 0.488800
19.467600 0.484400
19.492700 0.482300
19.517800 0.480900
19.542900 0.480300
19.568100 0.480300
19.593200 0.480600
19.618300 0.481200
19.643400 0.482000
19.668500 0.482900
19.693700 0.483100
19.718800 0.483300
19.743900 0.483600
19.769000 0.484100
19.794100 0.484600
19.819300 0.484600
19.844400 0.484500
19.869500 0.484600
19.894600 0.484100
19.919700 0.485200
19.944900 0.485300
19.970000 0.484700
19.995100 0.483600
20.020200 0.482500
20.045400 0.481300
20.070500 0.480500
20.095600 0.480000
20.120700 0.479700
20.145800 0.479500
20.171000 0.479500
20.196100 0.479700
20.221200 0.479900
20.246300 0.480300
20.271400 0.480900
20.296600 0.481700
20.321700 0.482700
20.346800 0.483300
20.371900 0.483800
20.397100 0.484300
20.422200 0.484800
20.447300 0.485400
20.472400 0.486100
20.497500 0.487000
20.522700 0.487800
20.547800 0.488500
20.572900 0.489000
20.598000 0.489300
20.623100 0.489200
20.648300 0.489100
20.673400 0.488900
20.698500 0.488200
20.723600 0.487800
20.748800 0.487500
20.773900 0.487500
20.799000 0.487500
20.824100 0.487500
20.849200 0.487600
20.874400 0.487700
20.899500 0.487800
20.924600 0.488100
20.949700 0.489000
20.974800 0.488800
21.000000 0.488700
21.025100 0.488800
21.050200 0.488900
21.075300 0.488900
21.100500 0.489100
21.125600 0.489000
21.150700 0.488900
21.175800 0.488900
21.200900 0.488900
21.226100 0.489000
21.251200 0.489100
21.276300 0.489500
21.301400 0.490000
21.326500 0.490600
21.351700 0.491400
21.376800 0.492000
21.401900 0.493000
21.427000 0.493700
21.452200 0.494900
21.477300 0.496100
21.502400 0.497100
21.527500 0.497700
21.552600 0.498000
21.577800 0.498400
21.602900 0.498800
21.628000 0.499300
21.653100 0.499900
21.678200 0.500500
21.703400 0.501100
21.728500 0.501800
21.753600 0.502500
21.778700 0.502700
21.803900 0.503500
