set title 'mp-557194 - Density of States'
set xlabel 'Energy (eV)'
set ylabel 'DOS (states/eV)'
set grid
set xrange [-10:10]
set yrange [0:34.182]
set xzeroaxis lt -1
set terminal png size 800,600
set output 'mp-557194_dos_gnuplot.png'
plot '-' using 1:2 with lines title 'DOS'
-21.480900 0.000000
-21.462300 0.000000
-21.443700 0.000000
-21.425100 0.000000
-21.406500 0.000000
-21.387900 0.000000
-21.369400 0.000000
-21.350800 0.000000
-21.332200 0.000000
-21.313600 0.000000
-21.295000 0.000000
-21.276400 0.000000
-21.257800 0.000000
-21.239300 0.000000
-21.220700 0.000000
-21.202100 0.000000
-21.183500 0.000000
-21.164900 0.000000
-21.146300 0.000000
-21.127700 0.000000
-21.109200 0.000000
-21.090600 0.000000
-21.072000 0.000000
-21.053400 0.000000
-21.034800 0.000000
-21.016200 0.000000
-20.997700 0.000000
-20.979100 0.000000
-20.960500 0.000000
-20.941900 0.000000
-20.923300 0.000000
-20.904700 0.000000
-20.886100 0.000000
-20.867600 0.000000
-20.849000 0.000000
-20.830400 0.000000
-20.811800 0.000000
-20.793200 0.000000
-20.774600 0.000000
-20.756100 0.000000
-20.737500 0.000000
-20.718900 0.000000
-20.700300 0.000000
-20.681700 0.000000
-20.663100 0.000000
-20.644500 0.000000
-20.626000 0.000000
-20.607400 0.000000
-20.588800 0.000000
-20.570200 0.000000
-20.551600 0.000000
-20.533000 0.000000
-20.514500 0.000000
-20.495900 0.000000
-20.477300 0.000000
-20.458700 0.000000
-20.440100 0.000000
-20.421500 0.000000
-20.402900 0.000000
-20.384400 0.000000
-20.365800 0.000000
-20.347200 0.000000
-20.328600 0.000000
-20.310000 0.000000
-20.291400 0.000000
-20.272900 0.000000
-20.254300 0.000000
-20.235700 0.000000
-20.217100 0.000000
-20.198500 0.000000
-20.179900 0.000000
-20.161300 0.000000
-20.142800 0.000000
-20.124200 0.000000
-20.105600 0.000000
-20.087000 0.000000
-20.068400 0.000000
-20.049800 0.000000
-20.031200 0.000000
-20.012700 0.000000
-19.994100 0.000000
-19.975500 0.000000
-19.956900 0.000000
-19.938300 0.000000
-19.919700 0.000000
-19.901200 0.000000
-19.882600 0.000000
-19.864000 0.000000
-19.845400 0.000000
-19.826800 0.000000
-19.808200 0.000000
-19.789600 0.009200
-19.771100 1.151400
-19.752500 2.630200
-19.733900 3.176800
-19.715300 3.899200
-19.696700 4.743000
-19.678100 5.736600
-19.659600 7.768400
-19.641000 8.679800
-19.622400 9.010100
-19.603800 9.669600
-19.585200 8.350300
-19.566600 7.178000
-19.548000 8.356900
-19.529500 9.646000
-19.510900 11.646700
-19.492300 10.992200
-19.473700 10.799800
-19.455100 9.286100
-19.436500 8.187900
-19.418000 12.543200
-19.399400 15.409200
-19.380800 16.216400
-19.362200 17.345800
-19.343600 16.058300
-19.325000 14.358200
-19.306400 11.721200
-19.287900 10.570500
-19.269300 10.038600
-19.250700 9.854800
-19.232100 11.769800
-19.213500 10.446400
-19.194900 9.304400
-19.176400 6.828200
-19.157800 4.700300
-19.139200 3.058300
-19.120600 1.891800
-19.102000 0.372100
-19.083400 0.000000
-19.064800 0.000000
-19.046300 0.000000
-19.027700 0.000000
-19.009100 0.000000
-18.990500 0.000000
-18.971900 0.000000
-18.953300 0.000000
-18.934800 0.000000
-18.916200 0.000000
-18.897600 0.000000
-18.879000 0.000000
-18.860400 0.000000
-18.841800 0.000000
-18.823200 0.000000
-18.804700 0.000000
-18.786100 0.000000
-18.767500 0.000000
-18.748900 0.000000
-18.730300 0.000000
-18.711700 0.000000
-18.693100 0.000000
-18.674600 0.000000
-18.656000 0.000000
-18.637400 0.000000
-18.618800 0.000000
-18.600200 0.000000
-18.581600 0.000000
-18.563100 0.000000
-18.544500 0.000000
-18.525900 36.683900
-18.507300 23.743700
-18.488700 19.507300
-18.470100 18.190600
-18.451500 14.385700
-18.433000 4.577200
-18.414400 4.528700
-18.395800 4.867400
-18.377200 5.205900
-18.358600 5.544200
-18.340000 5.938600
-18.321500 6.714000
-18.302900 8.918000
-18.284300 9.648900
-18.265700 9.784300
-18.247100 9.479300
-18.228500 7.381300
-18.209900 5.292600
-18.191400 3.251100
-18.172800 2.089500
-18.154200 0.000000
-18.135600 0.000000
-18.117000 0.000000
-18.098400 0.000000
-18.079900 0.000000
-18.061300 0.000000
-18.042700 0.000000
-18.024100 5.286700
-18.005500 10.517900
-17.986900 15.832600
-17.968300 17.487900
-17.949800 14.399800
-17.931200 11.702300
-17.912600 11.189900
-17.894000 12.285400
-17.875400 5.780600
-17.856800 1.493800
-17.838300 6.292800
-17.819700 15.942600
-17.801100 25.560900
-17.782500 17.387700
-17.763900 16.936000
-17.745300 6.807700
-17.726700 13.882200
-17.708200 28.043600
-17.689600 34.733700
-17.671000 34.752700
-17.652400 15.848600
-17.633800 6.115300
-17.615200 0.000000
-17.596600 0.000000
-17.578100 0.000000
-17.559500 0.000000
-17.540900 0.000000
-17.522300 0.000000
-17.503700 0.000000
-17.485100 162.710200
-17.466600 0.000000
-17.448000 0.000000
-17.429400 0.000000
-17.410800 0.000000
-17.392200 0.000000
-17.373600 0.000000
-17.355000 0.000000
-17.336500 0.000000
-17.317900 0.000000
-17.299300 0.000000
-17.280700 0.000000
-17.262100 0.000000
-17.243500 0.000000
-17.225000 0.000000
-17.206400 0.000000
-17.187800 0.000000
-17.169200 0.000000
-17.150600 0.000000
-17.132000 0.000000
-17.113400 0.000000
-17.094900 0.000000
-17.076300 0.000000
-17.057700 0.000000
-17.039100 0.000000
-17.020500 0.000000
-17.001900 0.000000
-16.983400 0.000000
-16.964800 0.000000
-16.946200 0.000000
-16.927600 0.000000
-16.909000 0.000000
-16.890400 0.000000
-16.871800 0.000000
-16.853300 0.000000
-16.834700 0.000000
-16.816100 0.000000
-16.797500 0.000000
-16.778900 0.000000
-16.760300 0.000000
-16.741800 0.000000
-16.723200 0.000000
-16.704600 0.000000
-16.686000 0.000000
-16.667400 0.000000
-16.648800 0.000000
-16.630200 0.000000
-16.611700 0.000000
-16.593100 0.000000
-16.574500 0.000000
-16.555900 0.000000
-16.537300 0.000000
-16.518700 0.000000
-16.500100 0.000000
-16.481600 0.000000
-16.463000 0.000000
-16.444400 0.000000
-16.425800 0.000000
-16.407200 0.000000
-16.388600 0.000000
-16.370100 0.000000
-16.351500 0.000000
-16.332900 0.000000
-16.314300 0.000000
-16.295700 0.000000
-16.277100 0.000000
-16.258500 0.000000
-16.240000 0.000000
-16.221400 0.000000
-16.202800 0.000000
-16.184200 0.000000
-16.165600 0.000000
-16.147000 0.000000
-16.128500 0.000000
-16.109900 0.000000
-16.091300 0.000000
-16.072700 0.000000
-16.054100 0.000000
-16.035500 0.000000
-16.016900 0.000000
-15.998400 0.000000
-15.979800 0.000000
-15.961200 0.000000
-15.942600 0.000000
-15.924000 0.000000
-15.905400 0.000000
-15.886900 0.000000
-15.868300 0.297900
-15.849700 6.367900
-15.831100 12.265200
-15.812500 18.778200
-15.793900 15.388300
-15.775300 7.139800
-15.756800 7.139800
-15.738200 7.139900
-15.719600 7.139900
-15.701000 7.140000
-15.682400 7.140000
-15.663800 6.868900
-15.645300 6.068400
-15.626700 5.229500
-15.608100 5.229500
-15.589500 5.229600
-15.570900 5.229600
-15.552300 5.229600
-15.533700 5.229700
-15.515200 5.229700
-15.496600 5.229800
-15.478000 5.229800
-15.459400 5.205100
-15.440800 5.173700
-15.422200 5.173700
-15.403700 5.173700
-15.385100 5.173800
-15.366500 5.173800
-15.347900 5.173800
-15.329300 5.173900
-15.310700 5.173900
-15.292100 5.173900
-15.273600 5.408700
-15.255000 6.937800
-15.236400 6.937800
-15.217800 6.937900
-15.199200 6.937900
-15.180600 6.938000
-15.162000 6.938100
-15.143500 6.938200
-15.124900 10.362400
-15.106300 18.682000
-15.087700 18.683300
-15.069100 12.573500
-15.050500 0.000000
-15.032000 0.000000
-15.013400 0.000000
-14.994800 0.000000
-14.976200 0.000000
-14.957600 0.000000
-14.939000 0.000000
-14.920400 0.000000
-14.901900 0.000000
-14.883300 0.000000
-14.864700 0.000000
-14.846100 0.000000
-14.827500 0.000000
-14.808900 0.000000
-14.790400 0.000000
-14.771800 0.000000
-14.753200 0.000000
-14.734600 0.000000
-14.716000 0.000000
-14.697400 0.000000
-14.678800 0.000000
-14.660300 0.000000
-14.641700 0.000000
-14.623100 0.000000
-14.604500 0.000000
-14.585900 0.000000
-14.567300 0.000000
-14.548800 0.000000
-14.530200 0.000000
-14.511600 0.000000
-14.493000 0.000000
-14.474400 0.000000
-14.455800 0.000000
-14.437200 0.000000
-14.418700 0.000000
-14.400100 0.000000
-14.381500 0.000000
-14.362900 0.000000
-14.344300 0.000000
-14.325700 0.000000
-14.307200 0.000000
-14.288600 0.000000
-14.270000 0.000000
-14.251400 0.000000
-14.232800 0.000000
-14.214200 0.000000
-14.195600 0.000000
-14.177100 0.000000
-14.158500 0.000000
-14.139900 0.000000
-14.121300 0.000000
-14.102700 0.000000
-14.084100 0.000000
-14.065500 0.000000
-14.047000 0.000000
-14.028400 0.000000
-14.009800 0.000000
-13.991200 0.000000
-13.972600 0.000000
-13.954000 0.000000
-13.935500 0.000000
-13.916900 0.000000
-13.898300 0.000000
-13.879700 0.000000
-13.861100 0.000000
-13.842500 0.000000
-13.823900 0.000000
-13.805400 0.000000
-13.786800 0.000000
-13.768200 0.000000
-13.749600 0.000000
-13.731000 0.000000
-13.712400 0.000000
-13.693900 0.000000
-13.675300 0.000000
-13.656700 0.000000
-13.638100 0.000000
-13.619500 0.000000
-13.600900 0.000000
-13.582300 0.000000
-13.563800 0.000000
-13.545200 0.000000
-13.526600 0.000000
-13.508000 0.000000
-13.489400 0.000000
-13.470800 0.000000
-13.452300 0.000000
-13.433700 0.000000
-13.415100 0.000000
-13.396500 0.000000
-13.377900 0.000000
-13.359300 0.000000
-13.340700 0.000000
-13.322200 0.000000
-13.303600 0.000000
-13.285000 0.000000
-13.266400 0.000000
-13.247800 0.000000
-13.229200 0.000000
-13.210700 0.000000
-13.192100 0.000000
-13.173500 0.000000
-13.154900 0.000000
-13.136300 0.000000
-13.117700 0.000000
-13.099100 0.000000
-13.080600 0.000000
-13.062000 0.000000
-13.043400 0.000000
-13.024800 0.000000
-13.006200 0.000000
-12.987600 0.000000
-12.969100 0.000000
-12.950500 0.000000
-12.931900 0.000000
-12.913300 0.000000
-12.894700 0.000000
-12.876100 0.000000
-12.857500 0.000000
-12.839000 0.000000
-12.820400 0.000000
-12.801800 0.000000
-12.783200 0.000000
-12.764600 0.000000
-12.746000 0.000000
-12.727400 0.000000
-12.708900 0.000000
-12.690300 0.000000
-12.671700 0.000000
-12.653100 0.000000
-12.634500 0.000000
-12.615900 0.000000
-12.597400 0.000000
-12.578800 0.000000
-12.560200 0.000000
-12.541600 0.000000
-12.523000 0.000000
-12.504400 0.000000
-12.485800 0.000000
-12.467300 0.000000
-12.448700 0.000000
-12.430100 0.000000
-12.411500 0.000000
-12.392900 0.000000
-12.374300 0.000000
-12.355800 0.000000
-12.337200 0.000000
-12.318600 0.000000
-12.300000 0.000000
-12.281400 0.000000
-12.262800 0.000000
-12.244200 0.000000
-12.225700 0.000000
-12.207100 0.000000
-12.188500 0.000000
-12.169900 0.000000
-12.151300 0.000000
-12.132700 0.000000
-12.114200 0.000000
-12.095600 0.000000
-12.077000 0.000000
-12.058400 0.000000
-12.039800 0.000000
-12.021200 0.000000
-12.002600 0.000000
-11.984100 0.000000
-11.965500 0.000000
-11.946900 0.000000
-11.928300 0.000000
-11.909700 0.000000
-11.891100 0.000000
-11.872600 0.000000
-11.854000 0.000000
-11.835400 0.000000
-11.816800 0.000000
-11.798200 0.000000
-11.779600 0.000000
-11.761000 0.000000
-11.742500 0.000000
-11.723900 0.000000
-11.705300 0.000000
-11.686700 0.000000
-11.668100 0.000000
-11.649500 0.000000
-11.630900 0.000000
-11.612400 0.000000
-11.593800 0.000000
-11.575200 0.000000
-11.556600 0.000000
-11.538000 0.000000
-11.519400 0.000000
-11.500900 0.000000
-11.482300 0.000000
-11.463700 0.000000
-11.445100 0.000000
-11.426500 0.000000
-11.407900 0.000000
-11.389300 0.000000
-11.370800 0.000000
-11.352200 0.000000
-11.333600 0.000000
-11.315000 0.000000
-11.296400 0.000000
-11.277800 0.000000
-11.259300 0.000000
-11.240700 0.000000
-11.222100 0.000000
-11.203500 0.000000
-11.184900 0.000000
-11.166300 0.000000
-11.147700 0.000000
-11.129200 0.000000
-11.110600 0.000000
-11.092000 0.000000
-11.073400 0.000000
-11.054800 0.000000
-11.036200 0.000000
-11.017700 0.000000
-10.999100 0.000000
-10.980500 0.000000
-10.961900 0.000000
-10.943300 0.000000
-10.924700 0.000000
-10.906100 0.000000
-10.887600 0.000000
-10.869000 0.000000
-10.850400 0.000000
-10.831800 0.000000
-10.813200 0.000000
-10.794600 0.000000
-10.776100 0.000000
-10.757500 0.000000
-10.738900 0.000000
-10.720300 0.000000
-10.701700 0.000000
-10.683100 0.000000
-10.664500 0.000000
-10.646000 0.000000
-10.627400 0.000000
-10.608800 0.000000
-10.590200 0.000000
-10.571600 0.000000
-10.553000 0.000000
-10.534500 0.000000
-10.515900 0.000000
-10.497300 0.000000
-10.478700 0.000000
-10.460100 0.000000
-10.441500 0.000000
-10.422900 0.000000
-10.404400 0.000000
-10.385800 0.000000
-10.367200 0.000000
-10.348600 0.000000
-10.330000 0.000000
-10.311400 0.000000
-10.292800 0.000000
-10.274300 0.000000
-10.255700 0.000000
-10.237100 0.000000
-10.218500 0.000000
-10.199900 0.000000
-10.181300 0.000000
-10.162800 0.009300
-10.144200 0.071900
-10.125600 0.180800
-10.107000 0.312900
-10.088400 0.467800
-10.069800 0.645500
-10.051200 0.836700
-10.032700 0.851700
-10.014100 0.868600
-9.995500 0.949000
-9.976900 1.027400
-9.958300 1.104000
-9.939700 1.179100
-9.921200 1.267000
-9.902600 1.360400
-9.884000 1.457800
-9.865400 1.559000
-9.846800 1.668900
-9.828200 1.790100
-9.809600 1.919200
-9.791100 2.071500
-9.772500 2.278000
-9.753900 2.478000
-9.735300 2.645900
-9.716700 2.856100
-9.698100 3.108700
-9.679600 3.208000
-9.661000 3.042300
-9.642400 3.064300
-9.623800 3.090100
-9.605200 3.101200
-9.586600 3.085900
-9.568000 3.060300
-9.549500 3.024500
-9.530900 2.978500
-9.512300 2.922300
-9.493700 2.857300
-9.475100 3.053600
-9.456500 2.743700
-9.438000 2.566200
-9.419400 2.475400
-9.400800 2.396700
-9.382200 2.958100
-9.363600 2.820000
-9.345000 2.975300
-9.326400 3.287500
-9.307900 3.377800
-9.289300 3.457200
-9.270700 3.569800
-9.252100 3.565100
-9.233500 3.342400
-9.214900 3.244300
-9.196300 3.157900
-9.177800 3.092800
-9.159200 3.013200
-9.140600 2.978100
-9.122000 2.915200
-9.103400 2.926200
-9.084800 3.556200
-9.066300 3.973200
-9.047700 3.723200
-9.029100 4.471200
-9.010500 4.170600
-8.991900 4.480200
-8.973300 4.757500
-8.954700 5.004500
-8.936200 5.230600
-8.917600 5.394800
-8.899000 5.466400
-8.880400 5.369400
-8.861800 5.057100
-8.843200 4.861700
-8.824700 4.888500
-8.806100 4.898800
-8.787500 4.889400
-8.768900 4.861200
-8.750300 4.885000
-8.731700 5.000500
-8.713100 5.131400
-8.694600 5.884400
-8.676000 5.562200
-8.657400 5.462200
-8.638800 5.337400
-8.620200 5.181100
-8.601600 4.999300
-8.583100 4.797700
-8.564500 4.569400
-8.545900 4.303000
-8.527300 4.052600
-8.508700 3.771700
-8.490100 3.493000
-8.471500 3.136600
-8.453000 2.724000
-8.434400 2.552700
-8.415800 2.385900
-8.397200 2.224600
-8.378600 2.058000
-8.360000 1.909800
-8.341500 1.726900
-8.322900 1.549900
-8.304300 1.432800
-8.285700 1.317900
-8.267100 1.204600
-8.248500 1.094200
-8.229900 0.972700
-8.211400 0.874500
-8.192800 0.787600
-8.174200 0.706000
-8.155600 0.629100
-8.137000 0.557200
-8.118400 0.490100
-8.099900 0.427900
-8.081300 0.370500
-8.062700 0.317900
-8.044100 0.270300
-8.025500 0.227400
-8.006900 0.188300
-7.988300 0.152800
-7.969800 0.120800
-7.951200 0.092500
-7.932600 0.067700
-7.914000 0.046400
-7.895400 0.028800
-7.876800 0.015300
-7.858200 0.006000
-7.839700 0.001000
-7.821100 0.000000
-7.802500 0.003400
-7.783900 0.015000
-7.765300 0.038100
-7.746700 0.082000
-7.728200 0.169500
-7.709600 0.352300
-7.691000 0.773700
-7.672400 1.321400
-7.653800 1.869100
-7.635200 2.416500
-7.616600 2.963800
-7.598100 2.998200
-7.579500 3.118400
-7.560900 3.347700
-7.542300 3.579900
-7.523700 3.846900
-7.505100 4.137800
-7.486600 4.871500
-7.468000 6.060400
-7.449400 8.237000
-7.430800 6.956600
-7.412200 5.731200
-7.393600 5.382800
-7.375000 5.242100
-7.356500 5.129300
-7.337900 5.033900
-7.319300 5.037100
-7.300700 5.149200
-7.282100 5.068900
-7.263500 5.064700
-7.245000 5.100600
-7.226400 5.114100
-7.207800 5.101700
-7.189200 5.220400
-7.170600 5.390800
-7.152000 5.504200
-7.133400 5.640300
-7.114900 5.543700
-7.096300 5.393300
-7.077700 5.176800
-7.059100 4.951000
-7.040500 4.800400
-7.021900 4.958100
-7.003400 4.369800
-6.984800 3.697900
-6.966200 3.062900
-6.947600 3.022100
-6.929000 2.995800
-6.910400 2.924500
-6.891800 2.834400
-6.873300 2.831200
-6.854700 2.912200
-6.836100 3.179300
-6.817500 2.660000
-6.798900 2.190000
-6.780300 1.802300
-6.761700 1.403500
-6.743200 1.102500
-6.724600 1.025100
-6.706000 0.000000
-6.687400 1.375300
-6.668800 1.230800
-6.650200 1.312100
-6.631700 1.563700
-6.613100 1.868000
-6.594500 2.130800
-6.575900 2.468300
-6.557300 2.829000
-6.538700 3.246200
-6.520100 4.139400
-6.501600 6.001600
-6.483000 7.658600
-6.464400 8.483200
-6.445800 8.025500
-6.427200 6.761100
-6.408600 6.082900
-6.390100 4.928300
-6.371500 4.453400
-6.352900 4.656000
-6.334300 4.821100
-6.315700 5.125700
-6.297100 5.483900
-6.278500 6.049900
-6.260000 7.222000
-6.241400 10.278700
-6.222800 8.456300
-6.204200 7.132500
-6.185600 5.927700
-6.167000 5.724100
-6.148500 6.716500
-6.129900 7.891200
-6.111300 8.744400
-6.092700 8.994700
-6.074100 10.515600
-6.055500 12.936100
-6.036900 14.443300
-6.018400 12.250500
-5.999800 13.488300
-5.981200 12.422200
-5.962600 12.427800
-5.944000 13.064600
-5.925400 12.324000
-5.906900 7.978600
-5.888300 9.062700
-5.869700 16.508600
-5.851100 0.514200
-5.832500 0.000000
-5.813900 0.000000
-5.795300 0.000000
-5.776800 0.000000
-5.758200 0.000000
-5.739600 0.000000
-5.721000 0.000000
-5.702400 0.000000
-5.683800 0.000000
-5.665200 0.000000
-5.646700 5.375000
-5.628100 23.381200
-5.609500 19.697600
-5.590900 16.734500
-5.572300 10.287500
-5.553700 8.087000
-5.535200 7.271100
-5.516600 6.651900
-5.498000 6.784100
-5.479400 5.669200
-5.460800 4.017200
-5.442200 3.073300
-5.423600 1.571400
-5.405100 0.549200
-5.386500 0.010500
-5.367900 0.000000
-5.349300 0.000000
-5.330700 0.000000
-5.312100 0.000000
-5.293600 0.000000
-5.275000 0.000000
-5.256400 0.000000
-5.237800 0.000000
-5.219200 0.000000
-5.200600 0.000000
-5.182000 0.000000
-5.163500 0.000000
-5.144900 0.000000
-5.126300 0.000000
-5.107700 0.000000
-5.089100 0.000000
-5.070500 0.000000
-5.052000 0.000000
-5.033400 0.000000
-5.014800 0.000000
-4.996200 0.000000
-4.977600 0.000000
-4.959000 0.000000
-4.940400 0.000000
-4.921900 0.000000
-4.903300 0.000000
-4.884700 0.000000
-4.866100 0.000000
-4.847500 0.000000
-4.828900 0.000000
-4.810400 0.167500
-4.791800 3.682500
-4.773200 5.180000
-4.754600 9.448100
-4.736000 10.793100
-4.717400 8.112900
-4.698800 11.971800
-4.680300 13.395200
-4.661700 13.556200
-4.643100 13.807900
-4.624500 11.760100
-4.605900 10.568200
-4.587300 8.453300
-4.568800 7.644900
-4.550200 7.489500
-4.531600 7.366300
-4.513000 7.309500
-4.494400 7.262300
-4.475800 7.205400
-4.457200 7.159600
-4.438700 6.991700
-4.420100 6.950000
-4.401500 7.175800
-4.382900 7.656700
-4.364300 7.522500
-4.345700 6.746800
-4.327100 5.146600
-4.308600 4.578600
-4.290000 4.277200
-4.271400 4.210800
-4.252800 4.539600
-4.234200 6.933600
-4.215600 8.378600
-4.197100 6.570200
-4.178500 5.561800
-4.159900 5.118200
-4.141300 5.011700
-4.122700 4.894000
-4.104100 5.340600
-4.085500 6.406900
-4.067000 6.386600
-4.048400 6.794300
-4.029800 5.654100
-4.011200 4.885200
-3.992600 3.784700
-3.974000 1.086800
-3.955500 0.682700
-3.936900 0.377300
-3.918300 0.164700
-3.899700 0.031100
-3.881100 0.000000
-3.862500 0.000000
-3.843900 0.000400
-3.825400 0.008200
-3.806800 0.025800
-3.788200 0.053400
-3.769600 0.090800
-3.751000 0.138100
-3.732400 0.196900
-3.713900 0.267900
-3.695300 0.617500
-3.676700 1.586800
-3.658100 3.710200
-3.639500 7.330800
-3.620900 9.163100
-3.602300 12.452000
-3.583800 14.943800
-3.565200 14.391200
-3.546600 13.257800
-3.528000 10.473400
-3.509400 7.891000
-3.490800 3.830200
-3.472300 2.438900
-3.453700 2.288800
-3.435100 2.660100
-3.416500 3.624600
-3.397900 5.619200
-3.379300 8.061700
-3.360700 10.403200
-3.342200 11.807400
-3.323600 10.636500
-3.305000 10.061300
-3.286400 10.161100
-3.267800 10.666500
-3.249200 9.447900
-3.230600 9.215900
-3.212100 10.299500
-3.193500 10.532900
-3.174900 10.688100
-3.156300 10.448500
-3.137700 10.430700
-3.119100 8.532400
-3.100600 8.304400
-3.082000 8.015700
-3.063400 10.119700
-3.044800 10.571800
-3.026200 11.399100
-3.007600 10.267100
-2.989000 13.940700
-2.970500 13.174000
-2.951900 25.692800
-2.933300 29.374800
-2.914700 26.370200
