set title 'mp-1078219 - Density of States'
set xlabel 'Energy (eV)'
set ylabel 'DOS (states/eV)'
set grid
set xrange [-10:10]
set yrange [0:17.167]
set xzeroaxis lt -1
set terminal png size 800,600
set output 'mp-1078219_dos_gnuplot.png'
plot '-' using 1:2 with lines title 'DOS'
-22.364400 0.000000
-22.340100 0.000000
-22.315800 0.000000
-22.291500 0.000000
-22.267100 0.000000
-22.242800 0.000000
-22.218500 0.000000
-22.194200 0.000000
-22.169900 0.000000
-22.145600 0.000000
-22.121300 0.000000
-22.097000 0.000000
-22.072700 0.000000
-22.048400 0.000000
-22.024100 0.000000
-21.999800 0.000000
-21.975400 0.000000
-21.951100 0.000000
-21.926800 0.000000
-21.902500 0.000000
-21.878200 0.000000
-21.853900 0.000000
-21.829600 0.000000
-21.805300 0.000000
-21.781000 0.000000
-21.756700 0.000000
-21.732400 0.000000
-21.708000 0.000000
-21.683700 0.000000
-21.659400 0.000000
-21.635100 0.000000
-21.610800 0.000000
-21.586500 0.000000
-21.562200 0.000000
-21.537900 0.000000
-21.513600 0.000000
-21.489300 0.000000
-21.465000 0.000000
-21.440700 0.000000
-21.416300 0.000000
-21.392000 0.000000
-21.367700 0.000000
-21.343400 0.000000
-21.319100 0.000000
-21.294800 0.000000
-21.270500 0.000000
-21.246200 0.000000
-21.221900 0.000000
-21.197600 0.000000
-21.173300 0.000000
-21.148900 0.000000
-21.124600 0.000000
-21.100300 0.000000
-21.076000 0.000000
-21.051700 0.000000
-21.027400 0.000000
-21.003100 0.000000
-20.978800 0.000000
-20.954500 0.000000
-20.930200 0.000000
-20.905900 0.000000
-20.881600 0.000000
-20.857200 0.000000
-20.832900 0.000000
-20.808600 0.000000
-20.784300 0.000000
-20.760000 0.000000
-20.735700 0.000000
-20.711400 0.000000
-20.687100 0.000000
-20.662800 0.000000
-20.638500 0.000000
-20.614200 0.000000
-20.589800 0.000000
-20.565500 0.000000
-20.541200 0.000000
-20.516900 0.000000
-20.492600 0.000000
-20.468300 0.000000
-20.444000 0.000000
-20.419700 0.000000
-20.395400 0.000000
-20.371100 0.000000
-20.346800 0.000000
-20.322500 0.000000
-20.298100 0.000000
-20.273800 0.000000
-20.249500 0.000000
-20.225200 0.000000
-20.200900 0.000000
-20.176600 0.000000
-20.152300 0.097100
-20.128000 4.728600
-20.103700 3.506100
-20.079400 6.949200
-20.055100 9.373100
-20.030700 4.874200
-20.006400 4.732800
-19.982100 4.241000
-19.957800 4.027300
-19.933500 2.965400
-19.909200 2.965400
-19.884900 2.965400
-19.860600 2.965400
-19.836300 2.901300
-19.812000 2.700300
-19.787700 2.584900
-19.763400 2.167100
-19.739000 2.167100
-19.714700 2.167100
-19.690400 2.167100
-19.666100 2.167100
-19.641800 2.167100
-19.617500 2.167100
-19.593200 2.063800
-19.568900 2.026800
-19.544600 1.872100
-19.520300 1.744400
-19.496000 1.744400
-19.471600 1.744400
-19.447300 1.744400
-19.423000 1.744400
-19.398700 1.744400
-19.374400 1.744400
-19.350100 1.744400
-19.325800 1.744400
-19.301500 1.663400
-19.277200 1.663400
-19.252900 1.500400
-19.228600 1.500400
-19.204300 1.500400
-19.179900 1.500400
-19.155600 1.500400
-19.131300 1.500400
-19.107000 1.500400
-19.082700 1.500400
-19.058400 1.500400
-19.034100 1.500400
-19.009800 1.500400
-18.985500 1.496300
-18.961200 1.455600
-18.936900 1.433300
-18.912500 1.365700
-18.888200 1.365700
-18.863900 1.365700
-18.839600 1.365700
-18.815300 1.365700
-18.791000 1.365700
-18.766700 1.365700
-18.742400 1.365700
-18.718100 1.365700
-18.693800 1.365700
-18.669500 1.365700
-18.645200 1.365700
-18.620800 1.365700
-18.596500 1.350100
-18.572200 1.343700
-18.547900 1.319300
-18.523600 1.319300
-18.499300 1.319300
-18.475000 1.319300
-18.450700 1.319300
-18.426400 1.319300
-18.402100 1.319300
-18.377800 1.319300
-18.353400 1.319300
-18.329100 1.319300
-18.304800 1.319300
-18.280500 1.319300
-18.256200 1.319300
-18.231900 1.322500
-18.207600 1.337600
-18.183300 1.369900
-18.159000 1.375300
-18.134700 1.375300
-18.110400 1.375300
-18.086100 1.375300
-18.061700 1.375300
-18.037400 1.375300
-18.013100 1.375400
-17.988800 1.375400
-17.964500 1.375400
-17.940200 1.375400
-17.915900 1.375400
-17.891600 1.375400
-17.867300 1.382400
-17.843000 1.453300
-17.818700 1.611700
-17.794300 1.611700
-17.770000 1.611700
-17.745700 1.611700
-17.721400 1.611700
-17.697100 1.611700
-17.672800 1.611700
-17.648500 1.611700
-17.624200 1.611700
-17.599900 1.611700
-17.575600 1.611700
-17.551300 1.667300
-17.527000 1.855700
-17.502600 2.350400
-17.478300 2.350400
-17.454000 2.350400
-17.429700 2.350400
-17.405400 2.350400
-17.381100 2.350400
-17.356800 2.350400
-17.332500 3.302200
-17.308200 4.247200
-17.283900 6.556000
-17.259600 6.091100
-17.235200 4.387900
-17.210900 0.000000
-17.186600 0.000000
-17.162300 0.000000
-17.138000 0.000000
-17.113700 0.000000
-17.089400 0.000000
-17.065100 0.000000
-17.040800 0.000000
-17.016500 0.000000
-16.992200 0.000000
-16.967900 0.000000
-16.943500 0.000000
-16.919200 0.000000
-16.894900 0.000000
-16.870600 0.000000
-16.846300 0.000000
-16.822000 0.000000
-16.797700 0.000000
-16.773400 0.000000
-16.749100 0.000000
-16.724800 0.000000
-16.700500 0.000000
-16.676100 0.000000
-16.651800 0.000000
-16.627500 0.000000
-16.603200 0.000000
-16.578900 0.000000
-16.554600 0.000000
-16.530300 0.000000
-16.506000 0.000000
-16.481700 0.000000
-16.457400 0.000000
-16.433100 0.000000
-16.408800 0.000000
-16.384400 0.000000
-16.360100 0.000000
-16.335800 0.000000
-16.311500 0.000000
-16.287200 0.000000
-16.262900 0.000000
-16.238600 0.000000
-16.214300 0.000000
-16.190000 0.000000
-16.165700 0.000000
-16.141400 0.000000
-16.117000 0.000000
-16.092700 0.000000
-16.068400 0.000000
-16.044100 0.000000
-16.019800 0.000000
-15.995500 0.000000
-15.971200 0.000000
-15.946900 0.000000
-15.922600 0.000000
-15.898300 0.000000
-15.874000 0.000000
-15.849700 0.000000
-15.825300 0.000000
-15.801000 0.000000
-15.776700 0.000000
-15.752400 0.000000
-15.728100 0.000000
-15.703800 0.000000
-15.679500 0.000000
-15.655200 0.000000
-15.630900 0.000000
-15.606600 0.000000
-15.582300 0.000000
-15.557900 0.000000
-15.533600 0.000000
-15.509300 0.000000
-15.485000 0.000000
-15.460700 0.000000
-15.436400 0.000000
-15.412100 0.000000
-15.387800 0.000000
-15.363500 0.000000
-15.339200 0.000000
-15.314900 0.000000
-15.290600 0.000000
-15.266200 0.000000
-15.241900 0.000000
-15.217600 0.000000
-15.193300 0.000000
-15.169000 0.000000
-15.144700 0.000000
-15.120400 0.000000
-15.096100 0.000000
-15.071800 0.000000
-15.047500 0.000000
-15.023200 0.000000
-14.998800 0.000000
-14.974500 0.000000
-14.950200 0.000000
-14.925900 0.000000
-14.901600 0.000000
-14.877300 0.000000
-14.853000 0.000000
-14.828700 0.000000
-14.804400 0.000000
-14.780100 0.000000
-14.755800 0.000000
-14.731400 0.000000
-14.707100 0.000000
-14.682800 0.000000
-14.658500 4.442600
-14.634200 2.043600
-14.609900 1.488200
-14.585600 1.488200
-14.561300 1.488200
-14.537000 1.488200
-14.512700 0.901800
-14.488400 0.901800
-14.464100 0.901800
-14.439700 0.901800
-14.415400 0.901800
-14.391100 0.901800
-14.366800 0.901800
-14.342500 0.901800
-14.318200 0.654600
-14.293900 0.654600
-14.269600 0.654600
-14.245300 0.654600
-14.221000 0.654600
-14.196700 0.654600
-14.172300 0.654600
-14.148000 0.654600
-14.123700 0.654600
-14.099400 0.654600
-14.075100 0.521700
-14.050800 0.521700
-14.026500 0.521700
-14.002200 0.521700
-13.977900 0.521700
-13.953600 0.521700
-13.929300 0.521700
-13.905000 0.521700
-13.880600 0.521700
-13.856300 0.521700
-13.832000 0.521700
-13.807700 0.521700
-13.783400 0.521700
-13.759100 0.442400
-13.734800 0.442400
-13.710500 0.442400
-13.686200 0.442400
-13.661900 0.442400
-13.637600 0.442400
-13.613200 0.442400
-13.588900 0.442400
-13.564600 0.442400
-13.540300 0.442400
-13.516000 0.442400
-13.491700 0.442400
-13.467400 0.442400
-13.443100 0.442400
-13.418800 0.442400
-13.394500 0.442400
-13.370200 0.394900
-13.345900 0.394900
-13.321500 0.394900
-13.297200 0.394900
-13.272900 0.394900
-13.248600 0.394900
-13.224300 0.394900
-13.200000 0.394900
-13.175700 0.394900
-13.151400 0.394900
-13.127100 0.394900
-13.102800 0.394900
-13.078500 0.394900
-13.054100 0.394900
-13.029800 0.394900
-13.005500 0.394900
-12.981200 0.394900
-12.956900 0.371300
-12.932600 0.371300
-12.908300 0.371300
-12.884000 0.371300
-12.859700 0.371300
-12.835400 0.371300
-12.811100 0.371300
-12.786800 0.371300
-12.762400 0.371300
-12.738100 0.371300
-12.713800 0.371300
-12.689500 0.371300
-12.665200 0.371300
-12.640900 0.371300
-12.616600 0.371300
-12.592300 0.371300
-12.568000 0.371300
-12.543700 0.371300
-12.519400 0.371300
-12.495000 0.373700
-12.470700 0.373700
-12.446400 0.373700
-12.422100 0.373700
-12.397800 0.373700
-12.373500 0.373700
-12.349200 0.373700
-12.324900 0.373700
-12.300600 0.373700
-12.276300 0.373700
-12.252000 0.373700
-12.227700 0.373700
-12.203300 0.373700
-12.179000 0.373700
-12.154700 0.373700
-12.130400 0.373700
-12.106100 0.373700
-12.081800 0.373700
-12.057500 0.419500
-12.033200 0.419500
-12.008900 0.419500
-11.984600 0.419500
-11.960300 0.419500
-11.935900 0.419500
-11.911600 0.419500
-11.887300 0.419500
-11.863000 0.419500
-11.838700 0.419500
-11.814400 0.419500
-11.790100 0.419500
-11.765800 0.419500
-11.741500 0.419500
-11.717200 0.419500
-11.692900 0.419500
-11.668600 0.585900
-11.644200 0.585900
-11.619900 0.585900
-11.595600 0.585900
-11.571300 0.585900
-11.547000 0.585900
-11.522700 0.585900
-11.498400 0.585900
-11.474100 0.585900
-11.449800 0.585900
-11.425500 0.585900
-11.401200 0.585900
-11.376800 1.588100
-11.352500 1.588100
-11.328200 1.588100
-11.303900 1.588100
-11.279600 0.000000
-11.255300 0.000000
-11.231000 0.000000
-11.206700 0.000000
-11.182400 0.000000
-11.158100 0.000000
-11.133800 0.000000
-11.109500 0.000000
-11.085100 0.000000
-11.060800 0.000000
-11.036500 0.000000
-11.012200 0.000000
-10.987900 0.000000
-10.963600 0.000000
-10.939300 0.000000
-10.915000 0.000000
-10.890700 0.000000
-10.866400 0.000000
-10.842100 0.000000
-10.817700 0.000000
-10.793400 0.000000
-10.769100 0.000000
-10.744800 0.000000
-10.720500 0.000000
-10.696200 0.000000
-10.671900 0.000000
-10.647600 0.000000
-10.623300 0.000000
-10.599000 0.000000
-10.574700 0.000000
-10.550400 0.000000
-10.526000 0.000000
-10.501700 0.000000
-10.477400 0.000000
-10.453100 0.000000
-10.428800 0.000000
-10.404500 0.000000
-10.380200 0.000000
-10.355900 0.000000
-10.331600 0.000000
-10.307300 0.000000
-10.283000 0.000000
-10.258600 0.000000
-10.234300 0.000000
-10.210000 0.000000
-10.185700 0.000000
-10.161400 0.000000
-10.137100 0.000000
-10.112800 0.000000
-10.088500 0.000000
-10.064200 0.000000
-10.039900 0.000000
-10.015600 0.000000
-9.991300 0.000000
-9.966900 0.000000
-9.942600 0.000000
-9.918300 0.000000
-9.894000 0.000000
-9.869700 0.000000
-9.845400 0.000000
-9.821100 0.000000
-9.796800 0.000000
-9.772500 0.000000
-9.748200 0.000000
-9.723900 0.000000
-9.699500 0.000000
-9.675200 0.000000
-9.650900 0.000000
-9.626600 0.000000
-9.602300 0.000000
-9.578000 0.000000
-9.553700 0.000000
-9.529400 0.000000
-9.505100 0.000000
-9.480800 0.000000
-9.456500 0.000000
-9.432200 0.000000
-9.407800 0.000000
-9.383500 0.000000
-9.359200 0.000000
-9.334900 0.000000
-9.310600 0.000000
-9.286300 0.000000
-9.262000 0.000000
-9.237700 0.000000
-9.213400 0.000000
-9.189100 0.000000
-9.164800 0.000000
-9.140400 0.000000
-9.116100 0.000000
-9.091800 0.000000
-9.067500 0.000000
-9.043200 0.000000
-9.018900 0.000000
-8.994600 0.000000
-8.970300 0.000000
-8.946000 0.000000
-8.921700 0.000000
-8.897400 0.000000
-8.873100 0.000000
-8.848700 0.000000
-8.824400 0.000000
-8.800100 0.000000
-8.775800 0.000000
-8.751500 0.000000
-8.727200 0.000000
-8.702900 0.000000
-8.678600 0.250700
-8.654300 1.899300
-8.630000 2.017400
-8.605700 1.647600
-8.581300 1.538600
-8.557000 1.573700
-8.532700 1.555900
-8.508400 1.366500
-8.484100 1.167900
-8.459800 1.022400
-8.435500 0.947000
-8.411200 1.181800
-8.386900 2.048800
-8.362600 2.152800
-8.338300 2.739900
-8.314000 3.195600
-8.289600 4.623500
-8.265300 4.753000
-8.241000 4.865300
-8.216700 5.476700
-8.192400 5.952300
-8.168100 5.380000
-8.143800 3.980600
-8.119500 3.920300
-8.095200 3.992800
-8.070900 4.230200
-8.046600 4.497500
-8.022200 5.451900
-7.997900 4.533800
-7.973600 3.998500
-7.949300 3.947300
-7.925000 3.843800
-7.900700 3.664900
-7.876400 3.272400
-7.852100 3.163300
-7.827800 3.060200
-7.803500 2.983300
-7.779200 2.890900
-7.754900 2.774500
-7.730500 2.744800
-7.706200 2.702400
-7.681900 2.590600
-7.657600 2.551800
-7.633300 2.517800
-7.609000 2.476300
-7.584700 2.419500
-7.560400 2.394200
-7.536100 2.384300
-7.511800 2.374800
-7.487500 2.364200
-7.463100 2.346200
-7.438800 2.321100
-7.414500 2.278100
-7.390200 2.278200
-7.365900 2.278200
-7.341600 2.270200
-7.317300 2.243600
-7.293000 2.226400
-7.268700 2.191700
-7.244400 2.130400
-7.220100 2.101400
-7.195700 2.059300
-7.171400 2.029400
-7.147100 2.020200
-7.122800 2.006300
-7.098500 1.972800
-7.074200 1.970700
-7.049900 1.970700
-7.025600 1.970800
-7.001300 1.970800
-6.977000 1.970900
-6.952700 1.970900
-6.928400 1.966500
-6.904000 1.958300
-6.879700 1.945300
-6.855400 1.926600
-6.831100 1.997300
-6.806800 2.592200
-6.782500 2.947000
-6.758200 3.292700
-6.733900 3.662400
-6.709600 1.428000
-6.685300 1.250400
-6.661000 1.231500
-6.636600 1.231500
-6.612300 1.231500
-6.588000 1.231500
-6.563700 1.232700
-6.539400 1.925200
-6.515100 2.574300
-6.490800 4.333800
-6.466500 3.145000
-6.442200 2.294000
-6.417900 1.270900
-6.393600 1.105900
-6.369300 0.999200
-6.344900 0.886800
-6.320600 0.752700
-6.296300 0.554200
-6.272000 0.210600
-6.247700 0.000000
-6.223400 0.000000
-6.199100 0.000000
-6.174800 0.000000
-6.150500 0.000000
-6.126200 0.000000
-6.101900 0.209500
-6.077500 0.754900
-6.053200 0.952600
-6.028900 1.049000
-6.004600 1.095300
-5.980300 1.112700
-5.956000 1.237300
-5.931700 1.561900
-5.907400 2.330000
-5.883100 3.785800
-5.858800 4.480600
-5.834500 4.043700
-5.810200 4.263700
-5.785800 4.574500
-5.761500 4.827200
-5.737200 4.661400
-5.712900 6.079800
-5.688600 5.678200
-5.664300 4.821800
-5.640000 4.765400
-5.615700 4.631100
-5.591400 4.388000
-5.567100 4.261600
-5.542800 4.180600
-5.518400 4.131600
-5.494100 4.118700
-5.469800 4.095800
-5.445500 4.059600
-5.421200 4.006800
-5.396900 3.953700
-5.372600 3.916800
-5.348300 5.906600
-5.324000 9.673600
-5.299700 6.352600
-5.275400 6.368500
-5.251100 6.382900
-5.226700 6.406300
-5.202400 5.591500
-5.178100 5.261000
-5.153800 5.677100
-5.129500 5.629000
-5.105200 5.038700
-5.080900 4.454900
-5.056600 3.987000
-5.032300 3.764700
-5.008000 6.922600
-4.983700 6.304000
-4.959300 3.795800
-4.935000 2.970400
-4.910700 2.960200
-4.886400 2.984000
-4.862100 3.135400
-4.837800 3.307800
-4.813500 3.399300
-4.789200 3.549400
-4.764900 3.890600
-4.740600 4.312700
-4.716300 4.670700
-4.692000 4.166300
-4.667600 4.684600
-4.643300 4.267300
-4.619000 3.816700
-4.594700 3.432500
-4.570400 3.672000
-4.546100 9.298800
-4.521800 6.382200
-4.497500 4.585900
-4.473200 2.598000
-4.448900 2.164100
-4.424600 1.726000
-4.400200 1.689500
-4.375900 3.216200
-4.351600 4.645500
-4.327300 8.005900
-4.303000 8.102500
-4.278700 8.755600
-4.254400 8.490300
-4.230100 8.180400
-4.205800 7.236400
-4.181500 5.862200
-4.157200 6.364700
-4.132900 5.695800
-4.108500 5.607300
-4.084200 6.154200
-4.059900 7.263400
-4.035600 8.659500
-4.011300 8.300100
-3.987000 3.755300
-3.962700 2.285200
-3.938400 2.236300
-3.914100 2.275700
-3.889800 2.321100
-3.865500 2.319900
-3.841100 2.319000
-3.816800 2.318400
-3.792500 2.318100
-3.768200 2.318100
-3.743900 2.275000
-3.719600 2.132700
-3.695300 2.141200
-3.671000 1.949500
-3.646700 1.484300
-3.622400 1.472800
-3.598100 1.516300
-3.573800 1.513300
-3.549400 1.503100
-3.525100 1.498500
-3.500800 1.501500
-3.476500 1.511200
-3.452200 1.522900
-3.427900 1.535100
-3.403600 1.545400
-3.379300 1.564500
-3.355000 1.599300
-3.330700 1.643000
-3.306400 1.674600
-3.282000 1.680000
-3.257700 1.685700
-3.233400 1.691500
-3.209100 1.698500
-3.184800 1.875000
-3.160500 2.640800
-3.136200 3.057600
-3.111900 2.420200
-3.087600 2.114900
-3.063300 4.967700
-3.039000 4.617400
-3.014700 3.778300
-2.990300 2.835500
-2.966000 3.595500
-2.941700 3.954200
-2.917400 3.086100
-2.893100 2.464000
-2.868800 3.787000
-2.844500 3.453600
-2.820200 0.628200
-2.795900 0.304400
-2.771600 0.304300
-2.747300 0.304300
-2.722900 0.304200
-2.698600 0.304200
-2.674300 0.305100
-2.650000 0.330700
-2.625700 0.391700
-2.601400 0.471700
-2.577100 0.558100
-2.552800 0.639300
-2.528500 0.705200
-2.504200 0.849600
-2.479900 1.071200
-2.455600 1.305500
-2.431200 1.247800
-2.406900 1.228500
-2.382600 1.229100
-2.358300 1.195600
-2.334000 1.214500
-2.309700 1.204000
-2.285400 1.103400
-2.261100 2.586400
-2.236800 5.582100
-2.212500 5.691100
-2.188200 4.923400
-2.163800 7.291200
-2.139500 8.344800
-2.115200 5.656200
-2.090900 5.469900
-2.066600 5.029200
-2.042300 4.559000
-2.018000 4.522800
-1.993700 5.126600
-1.969400 5.947500
-1.945100 5.262700
-1.920800 5.087700
-1.896500 5.809200
-1.872100 9.302100
-1.847800 7.313200
-1.823500 8.419900
-1.799200 9.148600
-1.774900 6.100900
-1.750600 4.350200
-1.726300 3.723000
-1.702000 3.240400
-1.677700 3.050000
-1.653400 2.899500
-1.629100 2.690800
-1.604700 2.578300
-1.580400 2.637400
-1.556100 3.120000
-1.531800 3.032900
-1.507500 3.023100
-1.483200 3.015200
-1.458900 3.226100
-1.434600 4.241600
-1.410300 4.982600
-1.386000 7.176000
-1.361700 6.692100
-1.337400 5.776700
-1.313000 4.715400
-1.288700 4.392400
-1.264400 3.905100
-1.240100 3.651000
-1.215800 3.646000
-1.191500 3.571600
-1.167200 3.544200
-1.142900 3.499600
-1.118600 3.281700
-1.094300 3.211100
-1.070000 3.912300
-1.045600 4.551400
-1.021300 4.603100
-0.997000 4.646000
-0.972700 4.642800
-0.948400 4.677800
-0.924100 4.248600
-0.899800 4.043500
-0.875500 4.031800
-0.851200 4.027900
-0.826900 3.926300
-0.802600 2.839500
-0.778300 2.839500
-0.753900 2.839600
-0.729600 2.839700
-0.705300 2.839800
-0.681000 3.561000
-0.656700 3.600800
-0.632400 3.600900
-0.608100 5.056600
-0.583800 6.198600
-0.559500 13.801400
-0.535200 7.149200
-0.510900 8.830200
-0.486500 0.921100
-0.462200 0.921100
-0.437900 0.923000
-0.413600 0.937500
-0.389300 0.947200
-0.365000 0.947200
-0.340700 0.951100
-0.316400 0.959300
-0.292100 0.975600
-0.267800 0.975600
-0.243500 0.975600
-0.219200 0.975600
-0.194800 0.975600
-0.170500 0.975600
-0.146200 0.975600
-0.121900 0.975600
-0.097600 0.975600
-0.073300 1.056100
-0.049000 1.160600
-0.024700 1.282000
-0.000400 1.444100
0.023900 1.645800
0.048200 1.696100
0.072600 1.697400
0.096900 1.698100
0.121200 1.701800
0.145500 1.738500
0.169800 1.870800
0.194100 1.885400
0.218400 1.754200
0.242700 1.731600
0.267000 1.849200
0.291300 2.007000
0.315600 2.197500
0.339900 2.280700
0.364300 2.903900
0.388600 2.904500
0.412900 2.906800
0.437200 2.894100
0.461500 2.771100
0.485800 2.692000
0.510100 2.632900
0.534400 2.584600
0.558700 2.542300
0.583000 2.456600
0.607300 2.155300
0.631700 2.125600
0.656000 2.125600
0.680300 2.125600
0.704600 2.785000
0.728900 4.151800
0.753200 4.151900
0.777500 4.152000
0.801800 4.152000
0.826100 4.097100
0.850400 4.078300
0.874700 2.154100
0.899100 0.911500
0.923400 0.911500
0.947700 0.911500
0.972000 0.911500
0.996300 0.911500
1.020600 0.911500
1.044900 0.911500
1.069200 0.911600
1.093500 0.911600
1.117800 0.884900
1.142100 0.862800
1.166400 0.851800
1.190800 0.839300
1.215100 0.816100
1.239400 0.784300
1.263700 0.784300
1.288000 0.784300
1.312300 0.784300
1.336600 0.809200
1.360900 0.809200
1.385200 0.809200
1.409500 0.809200
1.433800 0.809200
1.458200 0.809200
1.482500 0.809200
1.506800 0.809200
1.531100 0.809200
1.555400 0.809200
1.579700 0.809200
1.604000 0.809200
1.628300 0.809200
1.652600 0.809200
1.676900 0.791700
1.701200 0.785800
1.725500 0.784900
1.749900 0.784900
1.774200 0.784900
1.798500 0.784900
1.822800 0.784900
1.847100 0.784900
1.871400 0.784900
1.895700 0.784900
1.920000 0.784900
1.944300 0.784900
1.968600 0.764900
1.992900 0.760300
2.017300 0.755300
2.041600 0.744500
2.065900 0.737100
2.090200 0.737100
2.114500 0.922000
2.138800 1.071400
2.163100 1.071300
2.187400 1.071200
2.211700 1.071200
2.236000 1.071100
2.260300 1.602900
2.284600 3.451600
2.309000 4.668000
