set title 'mp-1018131 - Density of States'
set xlabel 'Energy (eV)'
set ylabel 'DOS (states/eV)'
set grid
set xrange [-10:10]
set yrange [0:20.879]
set xzeroaxis lt -1
set terminal png size 800,600
set output 'mp-1018131_dos_gnuplot.png'
plot '-' using 1:2 with lines title 'DOS'
-27.652200 0.000000
-27.608500 0.000000
-27.564800 0.000000
-27.521100 0.000000
-27.477400 0.000000
-27.433700 0.000000
-27.390100 0.000000
-27.346400 0.000000
-27.302700 0.000000
-27.259000 0.000000
-27.215300 0.000000
-27.171600 0.000000
-27.128000 0.000000
-27.084300 0.000000
-27.040600 0.000000
-26.996900 0.000000
-26.953200 0.000000
-26.909600 0.000000
-26.865900 0.000000
-26.822200 0.000000
-26.778500 0.000000
-26.734800 0.000000
-26.691100 0.000000
-26.647500 0.000000
-26.603800 0.000000
-26.560100 0.000000
-26.516400 0.000000
-26.472700 0.000000
-26.429100 0.000000
-26.385400 0.000000
-26.341700 0.000000
-26.298000 0.000000
-26.254300 0.000000
-26.210600 0.000000
-26.167000 0.000000
-26.123300 0.000000
-26.079600 0.000000
-26.035900 0.000000
-25.992200 0.000000
-25.948600 0.000000
-25.904900 0.000000
-25.861200 0.000000
-25.817500 0.000000
-25.773800 0.000000
-25.730100 0.000000
-25.686500 0.000000
-25.642800 0.000000
-25.599100 0.000000
-25.555400 0.000000
-25.511700 0.000000
-25.468000 0.000000
-25.424400 0.000000
-25.380700 0.000000
-25.337000 0.000000
-25.293300 0.000000
-25.249600 0.000000
-25.206000 0.000000
-25.162300 0.000000
-25.118600 0.000000
-25.074900 0.000000
-25.031200 0.000000
-24.987500 0.000000
-24.943900 0.000000
-24.900200 0.000000
-24.856500 0.000000
-24.812800 0.000000
-24.769100 0.000000
-24.725500 0.000000
-24.681800 0.000000
-24.638100 0.000000
-24.594400 0.000000
-24.550700 0.000000
-24.507000 0.000000
-24.463400 0.000000
-24.419700 0.000000
-24.376000 0.000000
-24.332300 0.000000
-24.288600 0.000000
-24.245000 0.000000
-24.201300 0.000000
-24.157600 0.000000
-24.113900 0.000000
-24.070200 0.000000
-24.026500 0.000000
-23.982900 0.000000
-23.939200 0.000000
-23.895500 0.000000
-23.851800 0.000000
-23.808100 0.001000
-23.764400 0.080500
-23.720800 1.701900
-23.677100 11.421500
-23.633400 31.551200
-23.589700 42.832100
-23.546000 31.580100
-23.502400 14.724900
-23.458700 3.232100
-23.415000 0.226400
-23.371300 0.004300
-23.327600 0.000000
-23.283900 0.000000
-23.240300 0.000000
-23.196600 0.000000
-23.152900 0.000000
-23.109200 0.000000
-23.065500 0.000000
-23.021900 0.000000
-22.978200 0.000000
-22.934500 0.000000
-22.890800 0.000000
-22.847100 0.000000
-22.803400 0.000000
-22.759800 0.000000
-22.716100 0.000000
-22.672400 0.000000
-22.628700 0.000000
-22.585000 0.000000
-22.541400 0.000000
-22.497700 0.000000
-22.454000 0.000000
-22.410300 0.000000
-22.366600 0.000000
-22.322900 0.000000
-22.279300 0.000000
-22.235600 0.000000
-22.191900 0.000000
-22.148200 0.000000
-22.104500 0.000000
-22.060900 0.000000
-22.017200 0.000000
-21.973500 0.000000
-21.929800 0.000000
-21.886100 0.000000
-21.842400 0.000000
-21.798800 0.000000
-21.755100 0.000000
-21.711400 0.000000
-21.667700 0.000000
-21.624000 0.000000
-21.580300 0.000000
-21.536700 0.000000
-21.493000 0.000000
-21.449300 0.000000
-21.405600 0.000000
-21.361900 0.000000
-21.318300 0.000000
-21.274600 0.000000
-21.230900 0.000000
-21.187200 0.000000
-21.143500 0.000000
-21.099800 0.000000
-21.056200 0.000000
-21.012500 0.000000
-20.968800 0.000000
-20.925100 0.000000
-20.881400 0.000000
-20.837800 0.000000
-20.794100 0.000000
-20.750400 0.000000
-20.706700 0.000000
-20.663000 0.000000
-20.619300 0.000000
-20.575700 0.000000
-20.532000 0.000000
-20.488300 0.000000
-20.444600 0.000000
-20.400900 0.000000
-20.357300 0.000000
-20.313600 0.000000
-20.269900 0.000000
-20.226200 0.000000
-20.182500 0.000000
-20.138800 0.000000
-20.095200 0.000000
-20.051500 0.000000
-20.007800 0.000000
-19.964100 0.000000
-19.920400 0.000000
-19.876700 0.000000
-19.833100 0.000000
-19.789400 0.000000
-19.745700 0.000000
-19.702000 0.000000
-19.658300 0.000000
-19.614700 0.000000
-19.571000 0.000000
-19.527300 0.000000
-19.483600 0.000000
-19.439900 0.000000
-19.396200 0.000000
-19.352600 0.000000
-19.308900 0.000000
-19.265200 0.000000
-19.221500 0.000000
-19.177800 0.000000
-19.134200 0.000000
-19.090500 0.000000
-19.046800 0.000000
-19.003100 0.000000
-18.959400 0.000000
-18.915700 0.000000
-18.872100 0.000000
-18.828400 0.000000
-18.784700 0.000000
-18.741000 0.000000
-18.697300 0.000000
-18.653700 0.000000
-18.610000 0.000000
-18.566300 0.000000
-18.522600 0.000000
-18.478900 0.000000
-18.435200 0.000000
-18.391600 0.000000
-18.347900 0.000000
-18.304200 0.000000
-18.260500 0.000000
-18.216800 0.000000
-18.173100 0.000000
-18.129500 0.000000
-18.085800 0.000000
-18.042100 0.000000
-17.998400 0.000000
-17.954700 0.000000
-17.911100 0.000000
-17.867400 0.000000
-17.823700 0.000000
-17.780000 0.000000
-17.736300 0.000000
-17.692600 0.000000
-17.649000 0.000000
-17.605300 0.000000
-17.561600 0.000000
-17.517900 0.000000
-17.474200 0.000000
-17.430600 0.000000
-17.386900 0.000000
-17.343200 0.000000
-17.299500 0.000000
-17.255800 0.000000
-17.212100 0.000000
-17.168500 0.000000
-17.124800 0.000000
-17.081100 0.000000
-17.037400 0.000000
-16.993700 0.000000
-16.950100 0.000000
-16.906400 0.000000
-16.862700 0.000000
-16.819000 0.000000
-16.775300 0.000000
-16.731600 0.000000
-16.688000 0.000000
-16.644300 0.000000
-16.600600 0.000000
-16.556900 0.000000
-16.513200 0.000000
-16.469500 0.000000
-16.425900 0.000000
-16.382200 0.000000
-16.338500 0.000000
-16.294800 0.000000
-16.251100 0.000000
-16.207500 0.000000
-16.163800 0.000000
-16.120100 0.000000
-16.076400 0.000000
-16.032700 0.000000
-15.989000 0.000000
-15.945400 0.000000
-15.901700 0.000000
-15.858000 0.000000
-15.814300 0.000000
-15.770600 0.000000
-15.727000 0.000000
-15.683300 0.000000
-15.639600 0.000000
-15.595900 0.000000
-15.552200 0.000000
-15.508500 0.000000
-15.464900 0.000000
-15.421200 0.000000
-15.377500 0.000000
-15.333800 0.000000
-15.290100 0.000000
-15.246500 0.000000
-15.202800 0.000000
-15.159100 0.000000
-15.115400 0.000000
-15.071700 0.000000
-15.028000 0.000000
-14.984400 0.000000
-14.940700 0.000000
-14.897000 0.000000
-14.853300 0.000000
-14.809600 0.000000
-14.765900 0.000000
-14.722300 0.000000
-14.678600 0.000000
-14.634900 0.000000
-14.591200 0.000000
-14.547500 0.000000
-14.503900 0.000000
-14.460200 0.000000
-14.416500 0.000000
-14.372800 0.000000
-14.329100 0.000000
-14.285400 0.000000
-14.241800 0.000000
-14.198100 0.000000
-14.154400 0.000000
-14.110700 0.000000
-14.067000 0.000000
-14.023400 0.000000
-13.979700 0.000000
-13.936000 0.000000
-13.892300 0.000000
-13.848600 0.000000
-13.804900 0.000000
-13.761300 0.000000
-13.717600 0.000000
-13.673900 0.000000
-13.630200 0.000000
-13.586500 0.000000
-13.542900 0.000000
-13.499200 0.000000
-13.455500 0.000000
-13.411800 0.000000
-13.368100 0.000000
-13.324400 0.000000
-13.280800 0.000000
-13.237100 0.000000
-13.193400 0.000000
-13.149700 0.000000
-13.106000 0.000000
-13.062300 0.000000
-13.018700 0.000000
-12.975000 0.000000
-12.931300 0.000000
-12.887600 0.000000
-12.843900 0.000000
-12.800300 0.000000
-12.756600 0.000000
-12.712900 0.000000
-12.669200 0.000000
-12.625500 0.000000
-12.581800 0.000000
-12.538200 0.000000
-12.494500 0.000000
-12.450800 0.000000
-12.407100 0.000000
-12.363400 0.000000
-12.319800 0.000000
-12.276100 0.000000
-12.232400 0.000000
-12.188700 0.000000
-12.145000 0.000000
-12.101300 0.000000
-12.057700 0.000000
-12.014000 0.000000
-11.970300 0.000000
-11.926600 0.000000
-11.882900 0.000000
-11.839300 0.000000
-11.795600 0.000000
-11.751900 0.000000
-11.708200 0.000000
-11.664500 0.000000
-11.620800 0.000000
-11.577200 0.000000
-11.533500 0.000000
-11.489800 0.000000
-11.446100 0.000000
-11.402400 0.000000
-11.358700 0.000000
-11.315100 0.000000
-11.271400 0.000000
-11.227700 0.000000
-11.184000 0.000000
-11.140300 0.000000
-11.096700 0.000000
-11.053000 0.000000
-11.009300 0.000000
-10.965600 0.000000
-10.921900 0.000000
-10.878200 0.000000
-10.834600 0.000000
-10.790900 0.000000
-10.747200 0.000000
-10.703500 0.000000
-10.659800 0.000000
-10.616200 0.000000
-10.572500 0.000000
-10.528800 0.000000
-10.485100 0.000000
-10.441400 0.000000
-10.397700 0.000000
-10.354100 0.000000
-10.310400 0.000000
-10.266700 0.000000
-10.223000 0.000000
-10.179300 0.000000
-10.135700 0.000000
-10.092000 0.000000
-10.048300 0.000000
-10.004600 0.000000
-9.960900 0.000000
-9.917200 0.000000
-9.873600 0.000000
-9.829900 0.000000
-9.786200 0.000000
-9.742500 0.000000
-9.698800 0.000000
-9.655100 0.000000
-9.611500 0.000000
-9.567800 0.000000
-9.524100 0.000000
-9.480400 0.000000
-9.436700 0.000000
-9.393100 0.000000
-9.349400 0.000000
-9.305700 0.000000
-9.262000 0.000000
-9.218300 0.000000
-9.174600 0.000000
-9.131000 0.000000
-9.087300 0.000000
-9.043600 0.000000
-8.999900 0.000000
-8.956200 0.000000
-8.912600 0.000000
-8.868900 0.000000
-8.825200 0.000000
-8.781500 0.000000
-8.737800 0.000000
-8.694100 0.000000
-8.650500 0.000000
-8.606800 0.000000
-8.563100 0.000000
-8.519400 0.000000
-8.475700 0.000000
-8.432100 0.000000
-8.388400 0.000000
-8.344700 0.000000
-8.301000 0.000000
-8.257300 0.000000
-8.213600 0.000000
-8.170000 0.000000
-8.126300 0.000000
-8.082600 0.000000
-8.038900 0.000000
-7.995200 0.000000
-7.951600 0.000000
-7.907900 0.000000
-7.864200 0.000000
-7.820500 0.000000
-7.776800 0.000000
-7.733100 0.000000
-7.689500 0.000000
-7.645800 0.000000
-7.602100 0.000000
-7.558400 0.000000
-7.514700 0.000000
-7.471000 0.000000
-7.427400 0.000000
-7.383700 0.000000
-7.340000 0.000000
-7.296300 0.000000
-7.252600 0.000000
-7.209000 0.000000
-7.165300 0.000000
-7.121600 0.000000
-7.077900 0.000000
-7.034200 0.000000
-6.990500 0.000000
-6.946900 0.000000
-6.903200 0.000000
-6.859500 0.000000
-6.815800 0.000000
-6.772100 0.000000
-6.728500 0.000000
-6.684800 0.000000
-6.641100 0.000000
-6.597400 0.000000
-6.553700 0.000000
-6.510000 0.000000
-6.466400 0.000000
-6.422700 0.000000
-6.379000 0.000000
-6.335300 0.000000
-6.291600 0.000000
-6.248000 0.000000
-6.204300 0.000000
-6.160600 0.000000
-6.116900 0.000000
-6.073200 0.000000
-6.029500 0.000000
-5.985900 0.000000
-5.942200 0.000000
-5.898500 0.000000
-5.854800 0.000000
-5.811100 0.000000
-5.767400 0.000000
-5.723800 0.000000
-5.680100 0.000000
-5.636400 0.000000
-5.592700 0.000000
-5.549000 0.000000
-5.505400 0.000000
-5.461700 0.000000
-5.418000 0.000000
-5.374300 0.000000
-5.330600 0.000000
-5.286900 0.000000
-5.243300 0.000000
-5.199600 0.000000
-5.155900 0.000000
-5.112200 0.000000
-5.068500 0.000000
-5.024900 0.000000
-4.981200 0.000000
-4.937500 0.000000
-4.893800 0.000000
-4.850100 0.000000
-4.806400 0.000000
-4.762800 0.000000
-4.719100 0.000000
-4.675400 0.000000
-4.631700 0.000000
-4.588000 0.000000
-4.544400 0.000000
-4.500700 0.000000
-4.457000 0.000000
-4.413300 0.000000
-4.369600 0.000000
-4.325900 0.000000
-4.282300 0.000000
-4.238600 0.000000
-4.194900 0.000000
-4.151200 0.000000
-4.107500 0.000000
-4.063800 0.000000
-4.020200 0.000000
-3.976500 0.000000
-3.932800 0.000000
-3.889100 0.000000
-3.845400 0.000200
-3.801800 0.004300
-3.758100 0.020000
-3.714400 0.034400
-3.670700 0.060200
-3.627000 0.116900
-3.583300 0.181500
-3.539700 0.155400
-3.496000 0.065000
-3.452300 0.084200
-3.408600 0.217300
-3.364900 0.248200
-3.321300 0.189700
-3.277600 0.218600
-3.233900 0.334700
-3.190200 0.284000
-3.146500 0.157900
-3.102800 0.179700
-3.059200 0.353000
-3.015500 0.365500
-2.971800 0.237200
-2.928100 0.241900
-2.884400 0.354500
-2.840800 0.387900
-2.797100 0.399200
-2.753400 0.641400
-2.709700 0.776900
-2.666000 0.548200
-2.622300 0.246900
-2.578700 0.433700
-2.535000 1.224000
-2.491300 3.124600
-2.447600 5.728800
-2.403900 7.085000
-2.360200 7.668700
-2.316600 7.014600
-2.272900 5.187100
-2.229200 4.816500
-2.185500 5.256800
-2.141800 8.949600
-2.098200 14.995000
-2.054500 17.362500
-2.010800 18.030100
-1.967100 18.981200
-1.923400 18.621400
-1.879700 17.285300
-1.836100 16.242500
-1.792400 15.126200
-1.748700 13.530900
-1.705000 10.341900
-1.661300 8.168600
-1.617700 7.160800
-1.574000 5.778200
-1.530300 5.346500
-1.486600 5.121900
-1.442900 4.548900
-1.399200 4.920200
-1.355600 6.883600
-1.311900 9.689300
-1.268200 12.357400
-1.224500 14.439300
-1.180800 14.302500
-1.137200 13.262200
-1.093500 11.406700
-1.049800 10.078400
-1.006100 10.531400
-0.962400 10.881000
-0.918700 12.032700
-0.875100 13.452800
-0.831400 13.451600
-0.787700 12.169700
-0.744000 10.604600
-0.700300 9.479800
-0.656600 8.989400
-0.613000 7.289500
-0.569300 4.225800
-0.525600 2.051900
-0.481900 1.341500
-0.438200 0.927800
-0.394600 1.041400
-0.350900 1.048000
-0.307200 0.598100
-0.263500 0.576800
-0.219800 0.987800
-0.176100 0.988700
-0.132500 0.673500
-0.088800 0.526000
-0.045100 0.883100
-0.001400 1.186100
0.042300 0.984800
0.085900 0.560000
0.129600 0.612000
0.173300 1.008800
0.217000 0.978200
0.260700 0.685700
0.304400 0.806400
0.348000 1.486700
0.391700 1.459600
0.435400 1.011400
0.479100 0.606000
0.522800 0.393200
0.566400 0.585000
0.610100 0.926200
0.653800 1.057700
0.697500 0.747400
0.741200 0.505400
0.784900 0.791300
0.828500 0.885900
0.872200 0.799900
0.915900 0.830100
0.959600 0.952700
1.003300 0.925700
1.047000 0.970400
1.090600 0.964900
1.134300 1.356600
1.178000 1.738800
1.221700 1.348000
1.265400 1.273000
1.309000 1.398200
1.352700 1.205900
1.396400 1.174500
1.440100 1.277900
1.483800 1.276700
1.527500 1.091800
1.571100 0.946800
1.614800 1.431900
1.658500 1.604100
1.702200 1.179200
1.745900 0.982400
1.789500 1.030700
1.833200 1.106200
1.876900 1.205500
1.920600 0.946700
1.964300 0.842800
2.008000 1.093200
2.051600 1.321900
2.095300 0.877600
2.139000 0.433600
2.182700 0.659500
2.226400 1.426900
2.270000 1.740900
2.313700 1.408400
2.357400 0.997000
2.401100 1.000100
2.444800 1.108400
2.488500 1.365500
2.532100 1.426700
2.575800 1.241300
2.619500 1.227200
2.663200 1.237500
2.706900 1.438600
2.750600 1.828800
2.794200 1.832500
2.837900 1.604900
2.881600 1.158500
2.925300 1.099000
2.969000 1.511900
3.012600 1.691800
3.056300 1.655200
3.100000 1.635600
3.143700 1.253700
3.187400 0.775500
3.231100 0.717100
3.274700 1.263500
3.318400 1.503800
3.362100 1.261100
3.405800 1.097700
3.449500 0.851100
3.493100 0.606300
3.536800 0.964400
3.580500 1.348000
3.624200 1.207600
3.667900 0.965500
3.711600 1.166200
3.755200 1.304400
3.798900 0.996000
3.842600 0.805900
3.886300 0.661500
3.930000 0.520000
3.973600 0.750700
4.017300 1.243100
4.061000 1.207900
4.104700 0.830300
4.148400 0.578200
4.192100 0.412600
4.235700 0.222300
4.279400 0.265700
4.323100 0.589100
4.366800 0.982200
4.410500 1.628900
4.454200 1.931600
4.497800 1.791900
4.541500 1.958700
4.585200 2.415100
4.628900 1.948400
4.672600 1.422200
4.716200 1.507900
4.759900 1.622100
4.803600 2.266200
4.847300 2.422500
4.891000 2.506300
4.934700 2.267000
4.978300 1.867700
5.022000 1.513100
5.065700 1.224600
5.109400 1.938000
5.153100 2.729900
5.196700 2.526000
5.240400 2.374300
5.284100 1.957400
5.327800 1.428900
5.371500 1.850200
5.415200 2.978700
5.458800 3.253300
5.502500 2.954500
5.546200 2.997300
5.589900 3.921300
5.633600 4.685900
5.677200 4.346100
5.720900 3.651400
5.764600 3.430600
5.808300 3.230200
5.852000 3.048700
5.895700 3.171000
5.939300 2.857700
5.983000 2.591000
6.026700 2.853100
6.070400 3.971700
6.114100 5.096000
6.157700 5.312800
6.201400 5.001600
6.245100 4.785700
6.288800 4.000600
6.332500 2.805300
6.376200 2.552000
6.419800 2.885000
6.463500 2.421100
6.507200 1.628200
6.550900 1.230800
6.594600 1.613700
6.638300 2.278200
6.681900 1.884000
6.725600 1.358100
6.769300 1.248000
6.813000 0.823300
6.856700 0.535200
6.900300 1.034200
6.944000 1.567600
6.987700 1.478100
7.031400 1.383000
7.075100 1.510600
7.118800 1.673600
7.162400 2.468500
7.206100 2.785700
7.249800 2.547100
7.293500 2.902100
7.337200 3.305300
7.380800 2.887500
7.424500 2.440900
7.468200 2.706300
7.511900 2.773200
7.555600 2.002900
7.599300 1.815100
7.642900 1.911300
7.686600 1.182400
7.730300 0.425400
7.774000 0.181500
7.817700 0.330500
7.861300 0.550800
7.905000 0.373800
7.948700 0.314300
7.992400 0.528300
8.036100 0.477300
8.079800 0.225000
8.123400 0.266700
8.167100 0.479800
8.210800 0.592200
8.254500 0.593500
8.298200 0.925100
8.341900 0.812200
8.385500 0.388500
8.429200 0.378900
8.472900 0.360900
8.516600 0.423100
8.560300 0.706100
8.603900 0.745800
8.647600 0.761400
8.691300 0.995800
8.735000 1.379400
8.778700 1.877500
8.822400 1.802500
8.866000 2.113000
8.909700 2.902700
8.953400 2.831500
8.997100 2.177000
9.040800 1.648400
9.084400 1.991400
9.128100 2.031600
9.171800 1.324400
9.215500 0.764100
9.259200 0.669700
9.302900 1.047700
9.346500 1.566300
9.390200 1.572600
9.433900 1.171700
9.477600 0.846200
9.521300 0.857200
9.564900 0.996000
9.608600 0.842900
9.652300 0.850900
9.696000 1.105700
9.739700 1.297400
9.783400 1.102800
9.827000 0.682400
9.870700 0.740100
9.914400 1.027500
9.958100 1.087100
10.001800 1.138000
10.045500 1.201800
10.089100 1.109900
10.132800 1.004600
10.176500 0.916100
10.220200 1.178800
10.263900 1.842200
10.307500 1.952400
10.351200 1.234600
10.394900 1.018300
10.438600 1.192000
10.482300 1.108800
10.526000 0.925800
10.569600 0.959700
10.613300 1.024400
10.657000 1.339200
10.700700 1.680200
10.744400 2.178500
10.788000 2.497800
10.831700 2.687900
10.875400 2.158400
10.919100 1.553900
10.962800 1.781800
11.006500 2.356000
11.050100 2.585200
11.093800 2.429500
11.137500 2.032100
11.181200 1.929400
11.224900 2.311200
11.268500 2.370600
11.312200 2.326100
11.355900 2.271400
11.399600 2.477400
11.443300 2.516300
11.487000 2.354000
11.530600 2.123200
11.574300 1.504500
11.618000 1.284200
11.661700 1.630900
11.705400 1.759600
11.749100 1.765700
11.792700 1.866900
11.836400 1.841000
11.880100 1.997600
11.923800 2.108700
11.967500 1.760400
12.011100 1.754200
12.054800 2.107300
12.098500 1.908500
12.142200 1.432100
12.185900 1.311500
12.229600 1.453000
12.273200 1.934500
12.316900 1.934800
12.360600 1.722700
12.404300 1.877800
12.448000 1.731800
12.491600 1.801000
12.535300 1.751700
12.579000 1.910500
12.622700 2.147300
12.666400 1.901400
12.710100 1.786200
12.753700 1.624500
12.797400 1.368700
12.841100 1.160100
12.884800 1.016200
12.928500 1.504800
12.972100 1.894500
13.015800 2.000200
13.059500 2.385700
13.103200 2.641700
13.146900 2.891700
13.190600 2.450600
13.234200 1.699400
13.277900 1.408700
13.321600 1.111100
13.365300 1.281000
13.409000 1.477200
13.452700 1.677100
13.496300 2.135900
13.540000 2.496900
13.583700 2.632900
13.627400 2.370500
13.671100 1.826900
13.714700 1.596200
13.758400 1.468000
13.802100 1.755500
13.845800 2.176400
13.889500 1.980300
13.933200 1.584000
13.976800 1.584800
14.020500 1.564600
14.064200 1.729100
14.107900 2.161300
14.151600 2.119500
14.195200 2.125600
14.238900 2.020600
14.282600 1.887000
14.326300 1.735400
14.370000 1.297600
14.413700 1.228600
14.457300 1.525900
14.501000 1.518100
14.544700 1.516000
14.588400 1.917900
14.632100 1.834000
14.675700 1.446300
14.719400 1.359400
14.763100 1.327600
14.806800 1.592100
14.850500 1.916200
14.894200 2.040200
14.937800 2.485500
14.981500 2.820500
15.025200 2.511400
15.068900 1.925800
15.112600 1.294500
15.156300 1.232300
15.199900 1.653600
15.243600 2.101200
15.287300 2.426300
15.331000 2.373900
15.374700 2.217000
15.418300 2.012200
15.462000 2.440000
15.505700 2.533200
15.549400 1.719700
15.593100 1.582900
15.636800 2.082100
15.680400 2.039700
15.724100 2.208600
15.767800 2.279000
15.811500 2.117100
15.855200 2.255500
15.898800 2.685100
15.942500 2.747700
15.986200 2.450000
16.029900 1.978200
16.073600 1.883400
16.117300 1.741600
16.160900 1.367800
16.204600 1.245000
16.248300 1.190300
16.292000 1.769100
16.335700 2.345800
16.379300 2.413800
16.423000 1.844800
16.466700 1.583700
16.510400 1.542100
16.554100 1.658700
16.597800 1.436500
16.641400 1.119200
16.685100 1.170300
16.728800 1.159300
16.772500 1.243500
16.816200 1.903700
16.859900 2.287000
16.903500 1.845700
16.947200 1.826100
16.990900 2.117500
17.034600 2.165200
17.078300 2.459100
17.121900 2.488100
17.165600 2.286800
