set title 'mp-672289 - Density of States'
set xlabel 'Energy (eV)'
set ylabel 'DOS (states/eV)'
set grid
set xrange [-10:10]
set yrange [0:96.563]
set xzeroaxis lt -1
set terminal png size 800,600
set output 'mp-672289_dos_gnuplot.png'
plot '-' using 1:2 with lines title 'DOS'
-21.175900 0.000000
-21.154300 0.000000
-21.132800 0.000000
-21.111200 0.000000
-21.089700 0.000000
-21.068100 0.000000
-21.046600 0.000000
-21.025000 0.000000
-21.003500 0.000000
-20.981900 0.000000
-20.960400 0.000000
-20.938800 0.000000
-20.917200 0.000000
-20.895700 0.000000
-20.874100 0.000000
-20.852600 0.000000
-20.831000 0.000000
-20.809500 0.000000
-20.787900 0.000000
-20.766400 0.000000
-20.744800 0.000000
-20.723300 0.000000
-20.701700 0.000000
-20.680200 0.000000
-20.658600 0.000000
-20.637100 0.000000
-20.615500 0.000000
-20.594000 0.000000
-20.572400 0.000000
-20.550900 0.000000
-20.529300 0.000000
-20.507800 0.000000
-20.486200 0.000000
-20.464700 0.000000
-20.443100 0.000000
-20.421600 0.000000
-20.400000 0.000000
-20.378500 0.000000
-20.356900 0.000000
-20.335400 0.000000
-20.313800 0.000000
-20.292300 0.000000
-20.270700 0.000000
-20.249200 0.000000
-20.227600 0.000000
-20.206100 0.000000
-20.184500 0.000000
-20.163000 0.000000
-20.141400 0.000000
-20.119900 0.000000
-20.098300 0.000000
-20.076800 0.000000
-20.055200 0.000000
-20.033700 0.000000
-20.012100 0.000000
-19.990600 0.000000
-19.969000 0.000000
-19.947500 0.000000
-19.925900 0.000000
-19.904400 0.000000
-19.882800 0.000000
-19.861300 0.000000
-19.839700 0.000000
-19.818200 0.000000
-19.796600 0.000000
-19.775100 0.000000
-19.753500 0.000000
-19.732000 0.000000
-19.710400 0.000000
-19.688900 0.000000
-19.667300 0.000000
-19.645800 0.000000
-19.624200 0.000000
-19.602700 0.000000
-19.581100 0.000000
-19.559600 0.000000
-19.538000 0.000000
-19.516400 0.000000
-19.494900 0.000000
-19.473300 0.000000
-19.451800 0.000000
-19.430200 0.000000
-19.408700 0.000000
-19.387100 0.000000
-19.365600 0.000000
-19.344000 0.000000
-19.322500 0.000000
-19.300900 0.000000
-19.279400 0.000000
-19.257800 0.000000
-19.236300 0.000000
-19.214700 488.787500
-19.193200 24.802700
-19.171600 213.252400
-19.150100 82.784800
-19.128500 0.000000
-19.107000 50.784900
-19.085400 297.793000
-19.063900 0.000000
-19.042300 0.000000
-19.020800 122.385500
-18.999200 1090.458200
-18.977700 1112.543500
-18.956100 445.017100
-18.934600 0.000000
-18.913000 0.000000
-18.891500 0.000000
-18.869900 1719.105800
-18.848400 1334.321500
-18.826800 0.000000
-18.805300 0.000000
-18.783700 0.000000
-18.762200 0.000000
-18.740600 0.000000
-18.719100 0.000000
-18.697500 0.000000
-18.676000 0.000000
-18.654400 0.000000
-18.632900 0.000000
-18.611300 0.000000
-18.589800 0.000000
-18.568200 0.000000
-18.546700 0.000000
-18.525100 0.000000
-18.503600 0.000000
-18.482000 0.000000
-18.460500 0.000000
-18.438900 0.000000
-18.417400 0.000000
-18.395800 0.000000
-18.374300 0.000000
-18.352700 0.000000
-18.331200 0.000000
-18.309600 0.000000
-18.288100 0.000000
-18.266500 0.000000
-18.245000 0.000000
-18.223400 0.000000
-18.201900 0.000000
-18.180300 0.000000
-18.158700 0.000000
-18.137200 0.000000
-18.115600 0.000000
-18.094100 0.000000
-18.072500 0.000000
-18.051000 0.000000
-18.029400 0.000000
-18.007900 0.000000
-17.986300 0.000000
-17.964800 0.000000
-17.943200 0.000000
-17.921700 0.000000
-17.900100 0.000000
-17.878600 0.000000
-17.857000 0.000000
-17.835500 0.000000
-17.813900 0.000000
-17.792400 0.000000
-17.770800 0.000000
-17.749300 0.000000
-17.727700 0.000000
-17.706200 0.000000
-17.684600 0.000000
-17.663100 0.000000
-17.641500 0.000000
-17.620000 0.000000
-17.598400 0.000000
-17.576900 0.000000
-17.555300 0.000000
-17.533800 0.000000
-17.512200 0.000000
-17.490700 0.000000
-17.469100 0.000000
-17.447600 0.000000
-17.426000 0.000000
-17.404500 0.000000
-17.382900 0.000000
-17.361400 0.000000
-17.339800 0.000000
-17.318300 0.000000
-17.296700 0.000000
-17.275200 0.000000
-17.253600 0.000000
-17.232100 0.000000
-17.210500 0.000000
-17.189000 0.000000
-17.167400 0.000000
-17.145900 0.000000
-17.124300 0.000000
-17.102800 0.000000
-17.081200 0.000000
-17.059700 0.000000
-17.038100 0.000000
-17.016600 0.000000
-16.995000 0.000000
-16.973500 0.000000
-16.951900 0.000000
-16.930400 0.000000
-16.908800 0.000000
-16.887300 0.000000
-16.865700 0.000000
-16.844200 0.000000
-16.822600 0.000000
-16.801100 0.000000
-16.779500 0.000000
-16.757900 0.000000
-16.736400 0.000000
-16.714800 0.000000
-16.693300 0.000000
-16.671700 0.000000
-16.650200 0.000000
-16.628600 0.000000
-16.607100 0.000000
-16.585500 0.000000
-16.564000 0.000000
-16.542400 0.000000
-16.520900 0.000000
-16.499300 0.000000
-16.477800 0.000000
-16.456200 0.000000
-16.434700 0.000000
-16.413100 0.000000
-16.391600 0.000000
-16.370000 0.000000
-16.348500 0.000000
-16.326900 0.000000
-16.305400 0.000000
-16.283800 0.000000
-16.262300 0.000000
-16.240700 0.000000
-16.219200 0.000000
-16.197600 0.000000
-16.176100 0.000000
-16.154500 0.000000
-16.133000 0.000000
-16.111400 0.000000
-16.089900 0.000000
-16.068300 0.000000
-16.046800 0.000000
-16.025200 0.000000
-16.003700 0.000000
-15.982100 0.000000
-15.960600 0.000000
-15.939000 0.000000
-15.917500 0.000000
-15.895900 0.000000
-15.874400 0.000000
-15.852800 0.000000
-15.831300 0.000000
-15.809700 0.000000
-15.788200 0.000000
-15.766600 0.000000
-15.745100 0.000000
-15.723500 0.000000
-15.702000 0.000000
-15.680400 0.000000
-15.658900 0.000000
-15.637300 0.000000
-15.615800 0.000000
-15.594200 0.000000
-15.572700 0.000000
-15.551100 0.000000
-15.529600 0.000000
-15.508000 0.000000
-15.486500 0.000000
-15.464900 0.000000
-15.443400 0.000000
-15.421800 0.000000
-15.400200 0.000000
-15.378700 0.000000
-15.357100 0.000000
-15.335600 0.000000
-15.314000 0.000000
-15.292500 0.000000
-15.270900 0.000000
-15.249400 0.000000
-15.227800 0.000000
-15.206300 0.000000
-15.184700 0.000000
-15.163200 0.000000
-15.141600 0.000000
-15.120100 0.000000
-15.098500 0.000000
-15.077000 0.000000
-15.055400 0.000000
-15.033900 0.000000
-15.012300 0.000000
-14.990800 0.000000
-14.969200 0.000000
-14.947700 0.000000
-14.926100 0.000000
-14.904600 0.000000
-14.883000 0.000000
-14.861500 0.000000
-14.839900 0.000000
-14.818400 0.000000
-14.796800 0.000000
-14.775300 0.000000
-14.753700 0.000000
-14.732200 0.000000
-14.710600 0.000000
-14.689100 0.000000
-14.667500 0.000000
-14.646000 0.000000
-14.624400 0.000000
-14.602900 0.000000
-14.581300 0.000000
-14.559800 0.000000
-14.538200 0.000000
-14.516700 0.000000
-14.495100 0.000000
-14.473600 0.000000
-14.452000 0.000000
-14.430500 0.000000
-14.408900 0.000000
-14.387400 0.000000
-14.365800 0.000000
-14.344300 0.000000
-14.322700 0.000000
-14.301200 0.000000
-14.279600 0.000000
-14.258100 0.000000
-14.236500 0.000000
-14.215000 0.000000
-14.193400 0.000000
-14.171900 0.000000
-14.150300 0.000000
-14.128800 0.000000
-14.107200 0.000000
-14.085700 0.000000
-14.064100 0.000000
-14.042600 0.000000
-14.021000 0.000000
-13.999400 0.000000
-13.977900 0.000000
-13.956300 0.000000
-13.934800 0.000000
-13.913200 0.000000
-13.891700 0.000000
-13.870100 0.000000
-13.848600 0.000000
-13.827000 0.000000
-13.805500 0.000000
-13.783900 0.000000
-13.762400 0.000000
-13.740800 0.000000
-13.719300 0.000000
-13.697700 0.000000
-13.676200 0.000000
-13.654600 0.000000
-13.633100 0.000000
-13.611500 0.000000
-13.590000 0.000000
-13.568400 0.000000
-13.546900 0.000000
-13.525300 0.000000
-13.503800 0.000000
-13.482200 0.000000
-13.460700 0.000000
-13.439100 0.000000
-13.417600 0.000000
-13.396000 0.000000
-13.374500 0.000000
-13.352900 0.000000
-13.331400 0.000000
-13.309800 0.000000
-13.288300 0.000000
-13.266700 0.000000
-13.245200 0.000000
-13.223600 0.000000
-13.202100 0.000000
-13.180500 0.000000
-13.159000 0.000000
-13.137400 0.000000
-13.115900 0.000000
-13.094300 0.000000
-13.072800 0.000000
-13.051200 0.000000
-13.029700 0.000000
-13.008100 0.000000
-12.986600 0.000000
-12.965000 0.000000
-12.943500 0.000000
-12.921900 0.000000
-12.900400 0.000000
-12.878800 0.000000
-12.857300 0.000000
-12.835700 0.000000
-12.814200 0.000000
-12.792600 0.009600
-12.771100 0.061300
-12.749500 0.157900
-12.728000 0.299400
-12.706400 0.485800
-12.684900 0.715600
-12.663300 0.968500
-12.641700 1.238500
-12.620200 1.525600
-12.598600 1.829800
-12.577100 2.200900
-12.555500 2.594500
-12.534000 2.918200
-12.512400 3.172100
-12.490900 3.356000
-12.469300 3.450700
-12.447800 3.455700
-12.426200 3.446600
-12.404700 3.423500
-12.383100 3.386400
-12.361600 3.335300
-12.340000 3.384600
-12.318500 3.421200
-12.296900 3.425300
-12.275400 3.397100
-12.253800 3.336400
-12.232300 3.252600
-12.210700 3.173300
-12.189200 3.100200
-12.167600 3.033200
-12.146100 3.071700
-12.124500 2.773800
-12.103000 2.493900
-12.081400 2.328500
-12.059900 2.395700
-12.038300 2.695400
-12.016800 3.227800
-11.995200 3.980500
-11.973700 4.893900
-11.952100 5.956900
-11.930600 6.319400
-11.909000 6.107200
-11.887500 5.823400
-11.865900 5.468100
-11.844400 6.067500
-11.822800 7.353200
-11.801300 8.387900
-11.779700 9.211300
-11.758200 16.582700
-11.736600 3.239200
-11.715100 3.423300
-11.693500 3.613400
-11.672000 3.809400
-11.650400 4.011400
-11.628900 4.219300
-11.607300 4.433200
-11.585800 4.653000
-11.564200 4.878700
-11.542700 5.110400
-11.521100 5.403700
-11.499600 5.730500
-11.478000 5.992900
-11.456500 6.190800
-11.434900 6.324200
-11.413400 4.234500
-11.391800 3.714600
-11.370300 3.209800
-11.348700 2.720200
-11.327200 2.248800
-11.305600 2.243500
-11.284000 2.551400
-11.262500 3.099000
-11.240900 3.886200
-11.219400 4.912500
-11.197800 7.715700
-11.176300 13.994200
-11.154700 9.823400
-11.133200 8.657300
-11.111600 7.561700
-11.090100 6.546000
-11.068500 5.610200
-11.047000 4.754300
-11.025400 11.505200
-11.003900 9.257700
-10.982300 7.537000
-10.960800 6.429000
-10.939200 5.955700
-10.917700 5.871400
-10.896100 5.785500
-10.874600 5.698100
-10.853000 6.666300
-10.831500 6.278700
-10.809900 5.957500
-10.788400 5.703100
-10.766800 5.630300
-10.745300 5.825600
-10.723700 6.226900
-10.702200 6.836800
-10.680600 10.107700
-10.659100 13.828600
-10.637500 7.075200
-10.616000 7.236700
-10.594400 7.465700
-10.572900 7.759000
-10.551300 8.116700
-10.529800 8.564500
-10.508200 8.953800
-10.486700 17.521800
-10.465100 23.942800
-10.443600 9.174500
-10.422000 9.713700
-10.400500 10.066700
-10.378900 10.233600
-10.357400 10.214300
-10.335800 10.008900
-10.314300 8.795800
-10.292700 8.330700
-10.271200 4.907400
-10.249600 5.288200
-10.228100 5.798300
-10.206500 6.219800
-10.185000 6.544700
-10.163400 6.772900
-10.141900 10.442100
-10.120300 8.307500
-10.098800 6.633600
-10.077200 5.608200
-10.055700 4.794000
-10.034100 4.190900
-10.012600 3.799000
-9.991000 4.126600
-9.969500 5.145000
-9.947900 6.759500
-9.926400 9.021000
-9.904800 11.972700
-9.883200 21.681600
-9.861700 7.263200
-9.840100 7.567700
-9.818600 7.955400
-9.797000 8.508200
-9.775500 9.149300
-9.753900 9.878700
-9.732400 10.696400
-9.710800 11.602400
-9.689300 10.324100
-9.667700 7.950500
-9.646200 7.843200
-9.624600 7.785600
-9.603100 7.777600
-9.581500 7.815800
-9.560000 7.797000
-9.538400 6.554100
-9.516900 5.256600
-9.495300 5.919400
-9.473800 7.196100
-9.452200 15.306900
-9.430700 21.493900
-9.409100 20.779700
-9.387600 16.797700
-9.366000 13.815000
-9.344500 17.094800
-9.322900 22.512100
-9.301400 15.119600
-9.279800 8.000600
-9.258300 4.250300
-9.236700 4.406400
-9.215200 5.810800
-9.193600 12.404600
-9.172100 25.881100
-9.150500 28.305400
-9.129000 19.181300
-9.107400 18.281800
-9.085900 44.841700
-9.064300 24.629100
-9.042800 38.411200
-9.021200 37.774600
-8.999700 23.754400
-8.978100 15.530700
-8.956600 12.524900
-8.935000 14.349900
-8.913500 21.718500
-8.891900 14.269300
-8.870400 0.000000
-8.848800 0.000000
-8.827300 0.000000
-8.805700 0.000000
-8.784200 0.000000
-8.762600 0.000000
-8.741100 0.000000
-8.719500 0.000000
-8.698000 0.000000
-8.676400 0.000000
-8.654900 0.000000
-8.633300 0.000000
-8.611800 0.000000
-8.590200 0.000000
-8.568700 0.000000
-8.547100 0.000000
-8.525500 0.000000
-8.504000 0.000000
-8.482400 0.000000
-8.460900 0.000000
-8.439300 0.000000
-8.417800 0.000000
-8.396200 0.000000
-8.374700 0.000000
-8.353100 0.000000
-8.331600 0.000000
-8.310000 0.000000
-8.288500 0.000000
-8.266900 0.000000
-8.245400 0.000000
-8.223800 0.000000
-8.202300 0.000000
-8.180700 0.000000
-8.159200 0.000000
-8.137600 0.000000
-8.116100 0.000000
-8.094500 0.000000
-8.073000 0.000000
-8.051400 0.000000
-8.029900 0.000000
-8.008300 0.000000
-7.986800 0.000000
-7.965200 0.000000
-7.943700 0.000000
-7.922100 0.000000
-7.900600 0.000000
-7.879000 0.000000
-7.857500 0.000000
-7.835900 0.000000
-7.814400 0.000000
-7.792800 0.000000
-7.771300 0.000000
-7.749700 0.000000
-7.728200 0.000000
-7.706600 0.000000
-7.685100 0.000000
-7.663500 0.000000
-7.642000 0.000000
-7.620400 0.000000
-7.598900 0.000000
-7.577300 0.000000
-7.555800 0.000000
-7.534200 0.000000
-7.512700 0.000000
-7.491100 0.000000
-7.469600 0.000000
-7.448000 0.000000
-7.426500 0.000000
-7.404900 0.000000
-7.383400 0.000000
-7.361800 0.000000
-7.340300 0.000000
-7.318700 0.000000
-7.297200 0.000000
-7.275600 0.000000
-7.254100 0.000000
-7.232500 0.000000
-7.211000 0.000000
-7.189400 0.000000
-7.167900 0.000000
-7.146300 0.000000
-7.124700 0.000000
-7.103200 0.000000
-7.081600 0.000000
-7.060100 0.000000
-7.038500 0.000000
-7.017000 0.000000
-6.995400 0.000000
-6.973900 0.000000
-6.952300 0.000000
-6.930800 0.000000
-6.909200 0.000000
-6.887700 0.000000
-6.866100 0.000000
-6.844600 0.000000
-6.823000 0.000000
-6.801500 0.000000
-6.779900 0.000000
-6.758400 0.000000
-6.736800 0.000000
-6.715300 0.000000
-6.693700 0.000000
-6.672200 0.000000
-6.650600 0.000000
-6.629100 0.000000
-6.607500 0.000000
-6.586000 0.000000
-6.564400 0.000000
-6.542900 0.000000
-6.521300 0.000000
-6.499800 0.000000
-6.478200 0.000000
-6.456700 0.000000
-6.435100 0.000000
-6.413600 0.000000
-6.392000 0.000000
-6.370500 0.000000
-6.348900 0.000000
-6.327400 0.000000
-6.305800 0.000000
-6.284300 0.000000
-6.262700 0.000000
-6.241200 0.000000
-6.219600 0.000000
-6.198100 0.000000
-6.176500 0.000000
-6.155000 0.000000
-6.133400 0.000000
-6.111900 0.000000
-6.090300 0.000000
-6.068800 0.000000
-6.047200 0.000000
-6.025700 0.000000
-6.004100 0.000000
-5.982600 0.000000
-5.961000 0.000000
-5.939500 0.000000
-5.917900 0.000000
-5.896400 0.000000
-5.874800 0.000000
-5.853300 0.000000
-5.831700 0.000000
-5.810200 0.000000
-5.788600 0.000000
-5.767000 0.000000
-5.745500 0.000000
-5.723900 0.000000
-5.702400 0.000000
-5.680800 0.000000
-5.659300 0.000000
-5.637700 0.000000
-5.616200 0.000000
-5.594600 0.000000
-5.573100 0.000000
-5.551500 0.000000
-5.530000 0.000000
-5.508400 0.000000
-5.486900 0.000000
-5.465300 0.000000
-5.443800 0.000000
-5.422200 0.000000
-5.400700 0.000000
-5.379100 0.000000
-5.357600 0.000000
-5.336000 0.000000
-5.314500 0.000000
-5.292900 0.000000
-5.271400 0.000000
-5.249800 0.000000
-5.228300 0.000000
-5.206700 0.000000
-5.185200 0.000000
-5.163600 0.000000
-5.142100 0.000000
-5.120500 0.000000
-5.099000 0.000000
-5.077400 0.000000
-5.055900 0.000000
-5.034300 0.000000
-5.012800 0.000000
-4.991200 0.000000
-4.969700 0.051700
-4.948100 0.379900
-4.926600 1.010600
-4.905000 4.240200
-4.883500 5.969300
-4.861900 6.457900
-4.840400 6.954900
-4.818800 7.437000
-4.797300 7.904100
-4.775700 8.356300
-4.754200 8.908100
-4.732600 8.430900
-4.711100 8.067000
-4.689500 7.799500
-4.668000 7.383900
-4.646400 6.542500
-4.624900 5.284300
-4.603300 5.292500
-4.581800 5.457300
-4.560200 7.434800
-4.538700 9.348400
-4.517100 9.440000
-4.495600 9.531900
-4.474000 9.624100
-4.452500 9.709200
-4.430900 9.756500
-4.409400 9.762400
-4.387800 7.693300
-4.366200 7.628700
-4.344700 7.566500
-4.323100 6.277600
-4.301600 6.203500
-4.280000 6.243800
-4.258500 6.269800
-4.236900 6.282000
-4.215400 6.280400
-4.193800 6.265000
-4.172300 6.235800
-4.150700 6.192900
-4.129200 6.136100
-4.107600 6.065600
-4.086100 5.981300
-4.064500 10.110900
-4.043000 8.437900
-4.021400 7.288600
-3.999900 6.621100
-3.978300 6.112600
-3.956800 5.695200
-3.935200 5.400900
-3.913700 5.225200
-3.892100 5.350700
-3.870600 16.060300
-3.849000 8.065700
-3.827500 7.122900
-3.805900 6.630900
-3.784400 6.217700
-3.762800 5.576700
-3.741300 5.011400
-3.719700 4.521800
-3.698200 4.107900
-3.676600 5.265200
-3.655100 3.122900
-3.633500 3.719800
-3.612000 5.058100
-3.590400 7.137800
-3.568900 7.158300
-3.547300 6.989800
-3.525800 7.000000
-3.504200 7.545700
-3.482700 9.215800
-3.461100 10.261400
-3.439600 10.682600
-3.418000 10.476000
-3.396500 9.659100
-3.374900 9.079800
-3.353400 8.102000
-3.331800 7.737600
-3.310300 7.498600
-3.288700 7.381600
-3.267200 7.386200
-3.245600 7.497300
-3.224100 7.636600
-3.202500 7.678400
-3.181000 7.560300
-3.159400 7.503100
-3.137900 7.425700
-3.116300 7.327700
-3.094800 7.243200
-3.073200 7.167900
-3.051700 16.044800
-3.030100 5.132300
-3.008500 5.184800
-2.987000 5.450800
-2.965400 5.923000
-2.943900 5.845500
-2.922300 4.150300
-2.900800 4.033800
-2.879200 3.945500
-2.857700 4.247600
-2.836100 4.979100
-2.814600 5.040700
-2.793000 4.391200
-2.771500 4.032000
-2.749900 4.031400
-2.728400 4.040300
-2.706800 4.058600
-2.685300 4.086400
-2.663700 4.153600
-2.642200 4.253800
-2.620600 4.372300
-2.599100 4.509100
-2.577500 4.664300
-2.556000 4.837700
-2.534400 5.168900
-2.512900 5.850200
-2.491300 6.883000
-2.469800 8.267100
-2.448200 6.709700
-2.426700 6.440700
-2.405100 6.278700
-2.383600 5.936400
-2.362000 5.684900
-2.340500 5.523600
-2.318900 5.448000
-2.297400 5.702800
-2.275800 55.081400
-2.254300 0.418700
-2.232700 0.476900
-2.211200 0.545100
-2.189600 0.620300
-2.168100 0.699200
-2.146500 0.781800
-2.125000 0.868200
-2.103400 0.958200
-2.081900 1.051000
-2.060300 1.145800
-2.038800 1.242800
-2.017200 1.341900
-1.995700 1.443200
-1.974100 1.546600
-1.952600 1.652100
-1.931000 1.759700
-1.909500 1.869500
-1.887900 1.981400
-1.866400 2.095400
-1.844800 2.211500
-1.823300 2.329800
-1.801700 6.758500
-1.780200 6.477200
-1.758600 6.204300
-1.737100 5.940000
-1.715500 5.684200
-1.694000 5.436900
-1.672400 5.198100
-1.650900 4.967800
-1.629300 4.746100
-1.607700 4.481400
-1.586200 4.614000
-1.564600 5.282200
-1.543100 6.486100
-1.521500 8.225600
-1.500000 12.230500
-1.478400 10.810500
-1.456900 9.263300
-1.435300 7.899400
-1.413800 6.072500
-1.392200 4.198900
-1.370700 5.611400
-1.349100 8.852300
-1.327600 8.926400
-1.306000 9.022100
-1.284500 9.083400
-1.262900 9.110400
-1.241400 9.103000
-1.219800 7.284200
-1.198300 10.828000
-1.176700 17.259000
-1.155200 9.604500
-1.133600 5.828600
-1.112100 10.803300
-1.090500 10.430100
-1.069000 10.469800
-1.047400 10.477100
-1.025900 22.437700
-1.004300 14.859100
-0.982800 13.500900
-0.961200 13.680300
-0.939700 13.772900
-0.918100 10.330500
-0.896600 8.673200
-0.875000 9.303600
-0.853500 10.230600
-0.831900 9.999800
-0.810400 9.798100
-0.788800 51.071400
-0.767300 8.659500
-0.745700 5.703300
-0.724200 3.430100
-0.702600 4.380400
-0.681100 5.601100
-0.659500 14.417700
-0.638000 7.238300
-0.616400 9.484200
-0.594900 11.613000
-0.573300 12.139700
-0.551800 11.367000
-0.530200 9.820800
-0.508700 9.709600
-0.487100 10.134300
-0.465600 12.206500
-0.444000 15.104400
-0.422500 14.260400
-0.400900 14.773700
-0.379400 14.059500
-0.357800 10.923800
-0.336300 9.119200
-0.314700 7.286300
-0.293200 6.880200
-0.271600 6.914000
-0.250000 7.225300
-0.228500 7.918300
-0.206900 9.309500
-0.185400 11.395000
-0.163800 10.650700
-0.142300 10.224500
-0.120700 9.575600
-0.099200 8.506700
-0.077600 7.650300
-0.056100 10.219400
-0.034500 11.715300
-0.013000 12.632900
0.008600 12.984200
0.030100 12.806200
0.051700 12.126300
0.073200 11.217600
0.094800 10.172700
0.116300 8.994500
0.137900 8.141400
0.159400 7.610400
0.181000 7.656700
0.202500 9.148600
0.224100 12.494500
0.245600 18.582800
0.267200 9.974900
0.288700 9.126900
0.310300 10.780600
0.331800 34.825400
0.353400 24.177500
0.374900 12.183400
0.396500 15.542900
0.418000 18.586200
0.439600 15.337900
0.461100 18.904700
