set title 'mp-1218916 - Density of States'
set xlabel 'Energy (eV)'
set ylabel 'DOS (states/eV)'
set grid
set xrange [-10:10]
set yrange [0:3.526]
set xzeroaxis lt -1
set terminal png size 800,600
set output 'mp-1218916_dos_gnuplot.png'
plot '-' using 1:2 with lines title 'DOS'
-19.453200 0.000000
-19.424700 0.000000
-19.396100 0.000000
-19.367600 0.000000
-19.339000 0.000000
-19.310500 0.000000
-19.281900 0.000000
-19.253400 0.000000
-19.224800 0.000000
-19.196300 0.000000
-19.167700 0.000000
-19.139200 0.000000
-19.110600 0.000000
-19.082100 0.000000
-19.053500 0.000000
-19.025000 0.000000
-18.996400 0.000000
-18.967900 0.000000
-18.939300 0.000000
-18.910800 0.000000
-18.882200 0.000000
-18.853700 0.000000
-18.825100 0.000000
-18.796600 0.000000
-18.768000 0.000000
-18.739500 0.000000
-18.710900 0.000000
-18.682400 0.000000
-18.653800 0.000000
-18.625300 0.000000
-18.596700 0.000000
-18.568200 0.000000
-18.539600 0.000000
-18.511100 0.000000
-18.482500 0.000000
-18.454000 0.000000
-18.425400 0.000000
-18.396900 0.000000
-18.368300 0.000000
-18.339800 0.000000
-18.311200 0.000000
-18.282700 0.000000
-18.254100 0.000000
-18.225600 0.000000
-18.197000 0.000000
-18.168500 0.000000
-18.139900 0.000000
-18.111400 0.000000
-18.082800 0.000000
-18.054300 0.000000
-18.025700 0.000000
-17.997200 0.000000
-17.968600 0.000000
-17.940100 0.000000
-17.911500 0.000000
-17.883000 0.000000
-17.854400 0.000000
-17.825900 0.000000
-17.797300 0.000000
-17.768800 0.000000
-17.740200 0.000000
-17.711700 0.000000
-17.683100 0.000000
-17.654600 0.000000
-17.626000 0.000000
-17.597500 0.000000
-17.568900 0.000000
-17.540400 0.000000
-17.511800 0.000000
-17.483300 0.000000
-17.454700 0.000000
-17.426200 0.000000
-17.397600 0.000000
-17.369100 0.000000
-17.340500 0.000000
-17.312000 0.000000
-17.283400 0.000000
-17.254900 0.000000
-17.226300 0.000000
-17.197800 0.000000
-17.169200 0.000000
-17.140700 0.000000
-17.112100 0.000000
-17.083600 0.000000
-17.055000 0.000000
-17.026500 0.000000
-16.997900 0.000000
-16.969400 0.000000
-16.940800 0.000000
-16.912300 0.000000
-16.883700 0.000000
-16.855200 1018.127500
-16.826600 0.000000
-16.798100 0.000000
-16.769500 0.000000
-16.741000 0.000000
-16.712400 0.000000
-16.683900 0.000000
-16.655300 0.000000
-16.626800 0.000000
-16.598200 0.000000
-16.569700 0.000000
-16.541100 0.000000
-16.512600 0.000000
-16.484000 0.000000
-16.455500 0.000000
-16.426900 0.000000
-16.398400 0.000000
-16.369800 0.000000
-16.341300 0.000000
-16.312700 0.000000
-16.284200 0.000000
-16.255600 0.000000
-16.227100 0.000000
-16.198500 0.000000
-16.170000 0.000000
-16.141400 0.000000
-16.112900 0.000000
-16.084300 0.000000
-16.055800 0.000000
-16.027200 0.000000
-15.998700 0.000000
-15.970100 0.000000
-15.941600 0.000000
-15.913000 0.000000
-15.884500 0.000000
-15.855900 0.000000
-15.827400 0.000000
-15.798800 0.000000
-15.770200 0.000000
-15.741700 0.000000
-15.713100 0.000000
-15.684600 0.000000
-15.656000 0.000000
-15.627500 0.000000
-15.598900 0.000000
-15.570400 0.000000
-15.541800 0.000000
-15.513300 0.000000
-15.484700 0.000000
-15.456200 0.000000
-15.427600 0.000000
-15.399100 0.000000
-15.370500 0.000000
-15.342000 0.000000
-15.313400 0.000000
-15.284900 0.000000
-15.256300 0.000000
-15.227800 0.000000
-15.199200 0.000000
-15.170700 0.000000
-15.142100 0.000000
-15.113600 0.000000
-15.085000 0.000000
-15.056500 0.000000
-15.027900 0.000000
-14.999400 0.000000
-14.970800 0.000000
-14.942300 0.000000
-14.913700 0.000000
-14.885200 0.000000
-14.856600 0.000000
-14.828100 0.000000
-14.799500 0.000000
-14.771000 0.000000
-14.742400 0.000000
-14.713900 0.000000
-14.685300 0.000000
-14.656800 0.000000
-14.628200 0.000000
-14.599700 0.000000
-14.571100 0.000000
-14.542600 0.000000
-14.514000 0.000000
-14.485500 0.000000
-14.456900 0.000000
-14.428400 0.000000
-14.399800 0.000000
-14.371300 0.000000
-14.342700 0.000000
-14.314200 0.000000
-14.285600 0.000000
-14.257100 0.000000
-14.228500 0.000000
-14.200000 0.000000
-14.171400 0.000000
-14.142900 0.000000
-14.114300 0.000000
-14.085800 0.000000
-14.057200 0.000000
-14.028700 0.000000
-14.000100 0.000000
-13.971600 0.000000
-13.943000 0.000000
-13.914500 0.000000
-13.885900 0.000000
-13.857400 0.000000
-13.828800 0.000000
-13.800300 0.000000
-13.771700 0.000000
-13.743200 0.000000
-13.714600 0.000000
-13.686100 0.000000
-13.657500 0.000000
-13.629000 0.000000
-13.600400 0.000000
-13.571900 0.000000
-13.543300 0.000000
-13.514800 0.000000
-13.486200 0.000000
-13.457700 0.000000
-13.429100 0.000000
-13.400600 0.000000
-13.372000 0.000000
-13.343500 0.000000
-13.314900 0.000000
-13.286400 0.000000
-13.257800 0.000000
-13.229300 0.000000
-13.200700 0.000000
-13.172200 0.000000
-13.143600 0.000000
-13.115100 0.000000
-13.086500 0.000000
-13.058000 0.000000
-13.029400 0.000000
-13.000900 0.000000
-12.972300 0.000000
-12.943800 0.000000
-12.915200 0.000000
-12.886700 0.000000
-12.858100 0.000000
-12.829600 0.000000
-12.801000 0.000000
-12.772500 0.000000
-12.743900 0.000000
-12.715400 0.000000
-12.686800 0.000000
-12.658300 0.000000
-12.629700 0.000000
-12.601200 0.000000
-12.572600 0.000000
-12.544100 0.000000
-12.515500 0.000000
-12.487000 0.000000
-12.458400 0.000000
-12.429900 0.000000
-12.401300 0.000000
-12.372800 0.000000
-12.344200 0.000000
-12.315700 0.000000
-12.287100 0.000000
-12.258600 0.000000
-12.230000 0.000000
-12.201500 0.000000
-12.172900 0.000000
-12.144400 0.000000
-12.115800 0.000000
-12.087300 0.000000
-12.058700 0.000000
-12.030200 0.000000
-12.001600 0.000000
-11.973100 0.000000
-11.944500 0.000000
-11.915900 0.000000
-11.887400 0.000000
-11.858800 0.000000
-11.830300 0.000000
-11.801700 0.000000
-11.773200 0.000000
-11.744600 0.000000
-11.716100 0.000000
-11.687500 0.000000
-11.659000 0.000000
-11.630400 0.000000
-11.601900 0.000000
-11.573300 0.000000
-11.544800 0.000000
-11.516200 0.000000
-11.487700 0.000000
-11.459100 0.000000
-11.430600 0.000000
-11.402000 0.000000
-11.373500 0.000000
-11.344900 0.000000
-11.316400 0.000000
-11.287800 0.000000
-11.259300 0.000000
-11.230700 0.000000
-11.202200 0.000000
-11.173600 0.000000
-11.145100 0.000000
-11.116500 0.000000
-11.088000 0.000000
-11.059400 0.000000
-11.030900 0.000000
-11.002300 0.000000
-10.973800 0.000000
-10.945200 0.000000
-10.916700 0.000000
-10.888100 0.000000
-10.859600 0.000000
-10.831000 0.000000
-10.802500 0.000000
-10.773900 0.000000
-10.745400 0.000000
-10.716800 0.000000
-10.688300 0.000000
-10.659700 0.000000
-10.631200 0.000000
-10.602600 0.000000
-10.574100 0.000000
-10.545500 0.000000
-10.517000 0.000000
-10.488400 0.000000
-10.459900 0.000000
-10.431300 0.000000
-10.402800 0.000000
-10.374200 0.000000
-10.345700 0.000000
-10.317100 0.000000
-10.288600 0.000000
-10.260000 0.000000
-10.231500 0.000000
-10.202900 0.000000
-10.174400 0.000000
-10.145800 0.000000
-10.117300 0.000000
-10.088700 0.000000
-10.060200 0.000000
-10.031600 0.000000
-10.003100 0.000000
-9.974500 0.000000
-9.946000 0.000000
-9.917400 0.000000
-9.888900 0.000000
-9.860300 0.000000
-9.831800 0.000000
-9.803200 0.000000
-9.774700 0.000000
-9.746100 0.000000
-9.717600 0.000000
-9.689000 0.000000
-9.660500 0.000000
-9.631900 0.000000
-9.603400 0.000000
-9.574800 0.000000
-9.546300 0.000000
-9.517700 0.000000
-9.489200 0.000000
-9.460600 0.000000
-9.432100 0.000000
-9.403500 0.000000
-9.375000 0.000000
-9.346400 0.000000
-9.317900 0.000000
-9.289300 0.000000
-9.260800 0.000000
-9.232200 0.000000
-9.203700 0.000000
-9.175100 0.000000
-9.146600 0.000000
-9.118000 0.000000
-9.089500 0.000000
-9.060900 0.000000
-9.032400 0.000000
-9.003800 0.000000
-8.975300 0.000000
-8.946700 0.000000
-8.918200 0.000000
-8.889600 0.000000
-8.861100 0.000000
-8.832500 0.000000
-8.804000 0.000000
-8.775400 0.000000
-8.746900 0.000000
-8.718300 0.000000
-8.689800 0.000000
-8.661200 0.000000
-8.632700 0.000000
-8.604100 0.000000
-8.575600 0.000000
-8.547000 0.000000
-8.518500 0.000000
-8.489900 0.000000
-8.461400 0.000000
-8.432800 0.000000
-8.404300 0.000000
-8.375700 0.000000
-8.347200 0.000000
-8.318600 0.000000
-8.290100 0.000000
-8.261500 0.000000
-8.233000 0.000000
-8.204400 0.000000
-8.175900 0.000000
-8.147300 0.000000
-8.118700 0.000000
-8.090200 0.000000
-8.061600 0.000000
-8.033100 0.000000
-8.004500 0.000000
-7.976000 0.000000
-7.947400 0.000000
-7.918900 0.000000
-7.890300 0.000000
-7.861800 0.000000
-7.833200 0.000000
-7.804700 0.000000
-7.776100 0.000000
-7.747600 0.000000
-7.719000 0.000000
-7.690500 0.000000
-7.661900 0.000000
-7.633400 0.000000
-7.604800 0.000000
-7.576300 0.000000
-7.547700 0.000000
-7.519200 0.000000
-7.490600 0.000000
-7.462100 0.000000
-7.433500 0.000000
-7.405000 0.000000
-7.376400 0.000000
-7.347900 0.000000
-7.319300 0.000000
-7.290800 0.000000
-7.262200 0.000000
-7.233700 0.000000
-7.205100 0.000000
-7.176600 0.000000
-7.148000 0.000000
-7.119500 0.000000
-7.090900 0.000000
-7.062400 0.000000
-7.033800 0.000000
-7.005300 0.000000
-6.976700 0.000000
-6.948200 0.000000
-6.919600 0.000000
-6.891100 0.000000
-6.862500 0.000000
-6.834000 0.000000
-6.805400 0.000000
-6.776900 0.000000
-6.748300 0.000000
-6.719800 0.000000
-6.691200 0.000000
-6.662700 0.000000
-6.634100 0.000000
-6.605600 0.000000
-6.577000 0.000000
-6.548500 0.000000
-6.519900 0.000000
-6.491400 0.000000
-6.462800 0.000000
-6.434300 0.000000
-6.405700 0.000000
-6.377200 0.000000
-6.348600 0.000000
-6.320100 0.000000
-6.291500 0.000000
-6.263000 0.000000
-6.234400 0.000000
-6.205900 0.041500
-6.177300 0.161300
-6.148800 0.187100
-6.120200 0.219200
-6.091700 0.258500
-6.063100 0.298300
-6.034600 0.333000
-6.006000 0.353200
-5.977500 0.375100
-5.948900 0.399700
-5.920400 0.424800
-5.891800 0.451300
-5.863300 0.473500
-5.834700 0.498300
-5.806200 0.524000
-5.777600 0.547300
-5.749100 0.566800
-5.720500 0.589100
-5.692000 0.612900
-5.663400 0.637400
-5.634900 0.661500
-5.606300 0.684600
-5.577800 0.709500
-5.549200 0.735900
-5.520700 0.763100
-5.492100 0.791100
-5.463600 0.820600
-5.435000 0.851800
-5.406500 0.885000
-5.377900 0.919800
-5.349400 0.956600
-5.320800 0.996200
-5.292300 1.038800
-5.263700 1.087900
-5.235200 1.142200
-5.206600 1.210000
-5.178100 1.368500
-5.149500 1.516800
-5.121000 1.525700
-5.092400 1.478100
-5.063900 1.517800
-5.035300 1.518900
-5.006800 1.499700
-4.978200 1.475400
-4.949700 1.457300
-4.921100 1.450100
-4.892600 1.451200
-4.864000 1.449400
-4.835500 1.447500
-4.806900 1.450600
-4.778400 1.446400
-4.749800 1.442600
-4.721300 1.444700
-4.692700 1.450500
-4.664200 1.458200
-4.635600 1.475400
-4.607100 1.501600
-4.578500 1.553600
-4.550000 1.592700
-4.521400 1.627400
-4.492900 1.658600
-4.464300 1.615400
-4.435800 1.619600
-4.407200 1.706000
-4.378700 1.780800
-4.350100 1.532100
-4.321600 1.263300
-4.293000 0.818100
-4.264400 0.022100
-4.235900 0.000000
-4.207300 0.000000
-4.178800 0.000000
-4.150200 0.000000
-4.121700 0.000000
-4.093100 0.000000
-4.064600 0.000000
-4.036000 0.000000
-4.007500 0.000000
-3.978900 0.000000
-3.950400 0.000000
-3.921800 0.000000
-3.893300 0.000000
-3.864700 0.000000
-3.836200 0.000000
-3.807600 0.000000
-3.779100 0.000000
-3.750500 0.000000
-3.722000 0.000000
-3.693400 0.000000
-3.664900 0.000000
-3.636300 0.000000
-3.607800 0.000000
-3.579200 0.000000
-3.550700 0.000000
-3.522100 0.000000
-3.493600 0.000000
-3.465000 0.000000
-3.436500 0.000000
-3.407900 0.000000
-3.379400 0.000000
-3.350800 0.000000
-3.322300 0.000000
-3.293700 0.000000
-3.265200 0.000000
-3.236600 0.000000
-3.208100 0.000000
-3.179500 0.000000
-3.151000 0.000000
-3.122400 0.000000
-3.093900 0.000000
-3.065300 0.000000
-3.036800 0.000000
-3.008200 0.000000
-2.979700 0.000000
-2.951100 0.000000
-2.922600 0.000000
-2.894000 0.000000
-2.865500 0.000000
-2.836900 0.000000
-2.808400 0.000000
-2.779800 0.000000
-2.751300 0.000000
-2.722700 0.000000
-2.694200 0.000000
-2.665600 0.000000
-2.637100 0.006100
-2.608500 0.240700
-2.580000 0.801200
-2.551400 1.350200
-2.522900 1.570000
-2.494300 1.491000
-2.465800 1.513500
-2.437200 1.530200
-2.408700 1.545100
-2.380100 1.547300
-2.351600 1.567900
-2.323000 1.585900
-2.294500 1.609000
-2.265900 1.592100
-2.237400 1.618200
-2.208800 1.740400
-2.180300 1.798300
-2.151700 2.158800
-2.123200 2.120100
-2.094600 1.767500
-2.066100 1.541200
-2.037500 1.402900
-2.009000 1.300100
-1.980400 1.218500
-1.951900 1.151500
-1.923300 1.101900
-1.894800 1.062400
-1.866200 1.027300
-1.837700 0.996200
-1.809100 0.969100
-1.780600 0.936700
-1.752000 0.898600
-1.723500 0.860700
-1.694900 0.845900
-1.666400 0.826600
-1.637800 0.801700
-1.609300 0.770800
-1.580700 0.734500
-1.552200 0.696000
-1.523600 0.666500
-1.495100 0.635400
-1.466500 0.615700
-1.438000 0.596600
-1.409400 0.578100
-1.380900 0.560200
-1.352300 0.543000
-1.323800 0.525300
-1.295200 0.509400
-1.266700 0.496900
-1.238100 0.484700
-1.209600 0.472700
-1.181000 0.460800
-1.152500 0.449000
-1.123900 0.437400
-1.095400 0.425600
-1.066800 0.413400
-1.038300 0.400700
-1.009700 0.387900
-0.981200 0.375600
-0.952600 0.364300
-0.924100 0.354200
-0.895500 0.345400
-0.867000 0.337300
-0.838400 0.329300
-0.809900 0.321300
-0.781300 0.313500
-0.752800 0.305400
-0.724200 0.297000
-0.695700 0.289300
-0.667100 0.282300
-0.638600 0.275900
-0.610000 0.269600
-0.581500 0.262900
-0.552900 0.256100
-0.524400 0.249300
-0.495800 0.242700
-0.467200 0.236300
-0.438700 0.229900
-0.410100 0.223600
-0.381600 0.217500
-0.353000 0.211500
-0.324500 0.201500
-0.295900 0.197000
-0.267400 0.192400
-0.238800 0.187800
-0.210300 0.183200
-0.181700 0.178500
-0.153200 0.173500
-0.124600 0.168600
-0.096100 0.163900
-0.067500 0.159300
-0.039000 0.155000
-0.010400 0.150800
0.018100 0.146800
0.046700 0.143000
0.075200 0.139100
0.103800 0.135200
0.132300 0.131200
0.160900 0.127000
0.189400 0.122800
0.218000 0.118400
0.246500 0.113900
0.275100 0.109600
0.303600 0.105500
0.332200 0.101600
0.360700 0.098000
0.389300 0.094600
0.417800 0.091400
0.446400 0.088400
0.474900 0.085500
0.503500 0.082400
0.532000 0.079300
0.560600 0.076200
0.589100 0.073100
0.617700 0.070100
0.646200 0.067200
0.674800 0.064300
0.703300 0.061400
0.731900 0.058500
0.760400 0.055700
0.789000 0.053000
0.817500 0.050200
0.846100 0.047500
0.874600 0.044900
0.903200 0.043000
0.931700 0.042200
0.960300 0.038200
0.988800 0.034300
1.017400 0.034200
1.045900 0.106700
1.074500 0.276900
1.103000 0.521000
1.131600 0.772800
1.160100 0.852500
1.188700 1.010900
1.217200 1.226400
1.245800 1.451300
1.274300 1.832900
1.302900 2.310500
1.331400 2.692400
1.360000 2.800800
1.388500 2.635400
1.417100 2.558300
1.445600 2.223000
1.474200 2.060800
1.502700 1.911200
1.531300 1.773300
1.559800 1.636500
1.588400 1.504000
1.616900 1.410100
1.645500 1.385200
1.674000 1.539100
1.702600 1.517100
1.731100 1.591700
1.759700 1.693000
1.788200 1.852600
1.816800 1.787500
1.845300 1.746800
1.873900 1.749200
1.902400 1.737300
1.931000 1.707700
1.959500 1.684000
1.988100 1.677300
2.016600 1.675300
2.045200 1.672000
2.073700 1.678600
2.102300 1.687900
2.130800 1.698900
2.159400 1.717400
2.187900 1.744500
2.216500 1.763800
2.245000 1.773300
2.273600 1.777200
2.302100 1.768000
2.330700 1.734600
2.359200 1.727500
2.387800 1.729700
2.416300 1.731500
2.444900 1.733100
2.473400 1.745400
2.502000 1.770300
2.530500 1.795800
2.559100 1.827300
2.587600 1.817200
2.616200 1.812900
2.644700 1.804200
2.673300 1.790400
2.701800 1.768400
2.730400 1.746200
2.758900 1.727300
2.787500 1.706000
2.816000 1.680600
2.844600 1.655900
2.873100 1.627100
2.901700 1.596400
2.930200 1.564100
2.958800 1.542300
2.987300 1.513900
3.015900 1.479400
3.044400 1.443900
3.073000 1.408400
3.101500 1.373900
3.130100 1.337400
3.158600 1.304300
3.187200 1.294700
3.215700 1.280200
3.244300 1.239500
3.272800 1.206400
3.301400 1.172300
3.329900 1.132800
3.358500 1.084100
3.387100 1.030300
3.415600 0.991400
3.444200 0.970000
3.472700 0.951000
3.501300 0.913200
3.529800 0.867100
3.558400 0.828500
3.586900 0.794300
3.615500 0.753400
3.644000 0.707800
3.672600 0.666800
3.701100 0.629000
3.729700 0.588100
3.758200 0.546800
3.786800 0.465100
3.815300 0.391800
3.843900 0.348800
3.872400 0.318300
3.901000 0.300600
3.929500 0.296000
3.958100 0.304500
3.986600 0.319700
4.015200 0.336000
4.043700 0.354800
4.072300 0.382100
4.100800 0.430100
4.129400 0.528500
4.157900 0.680500
4.186500 0.802600
4.215000 0.942100
4.243600 1.128700
4.272100 1.303600
4.300700 1.457100
4.329200 1.609600
4.357800 1.599200
4.386300 1.493500
4.414900 1.370800
4.443400 1.303200
4.472000 1.286300
4.500500 1.285500
4.529100 1.281900
4.557600 1.272000
4.586200 1.261100
4.614700 1.244300
4.643300 1.223300
4.671800 1.209100
4.700400 1.204300
4.728900 1.205000
4.757500 1.211000
4.786000 1.225400
4.814600 1.233000
4.843100 1.232900
4.871700 1.234000
4.900200 1.239100
4.928800 1.247200
4.957300 1.254600
4.985900 1.272800
5.014400 1.276100
5.043000 1.316700
5.071500 1.254100
5.100100 1.124300
5.128600 1.009400
5.157200 0.916100
5.185700 0.853300
5.214300 0.826400
5.242800 0.813300
5.271400 0.798100
5.299900 0.781000
5.328500 0.759800
5.357000 0.726600
5.385600 0.688400
5.414100 0.661600
5.442700 0.636500
5.471200 0.613600
5.499800 0.592500
5.528300 0.573300
5.556900 0.554200
5.585400 0.534600
5.614000 0.514600
5.642500 0.495200
5.671100 0.476600
5.699600 0.458400
5.728200 0.440700
5.756700 0.423500
5.785300 0.408500
5.813800 0.415800
5.842400 0.426400
5.870900 0.427900
5.899500 0.608800
5.928000 0.670300
5.956600 0.747000
5.985100 0.830100
6.013700 0.948600
6.042200 1.080800
6.070800 1.234200
6.099300 1.267300
6.127900 1.251500
6.156400 1.024200
6.185000 1.046900
6.213500 1.098400
6.242100 1.128100
6.270600 1.136000
6.299200 1.121100
6.327700 1.101200
6.356300 1.068600
6.384800 1.100400
6.413400 1.200200
6.441900 1.971300
6.470500 2.097000
6.499000 1.993000
6.527600 1.827900
6.556100 1.802800
6.584700 1.745500
6.613200 1.704800
6.641800 1.676100
6.670300 1.649200
6.698900 1.634000
6.727400 1.589100
6.756000 1.568100
6.784500 1.556800
6.813100 1.557400
6.841600 1.565000
6.870200 1.601000
6.898700 1.680400
6.927300 1.758000
6.955800 1.820300
6.984400 1.864900
7.012900 1.874200
7.041500 1.888100
7.070000 1.899300
7.098600 1.906700
7.127100 1.911200
7.155700 1.963800
7.184300 2.008500
7.212800 1.937900
7.241400 1.875100
7.269900 1.835300
7.298500 1.753300
7.327000 1.467100
7.355600 1.342900
7.384100 1.264100
7.412700 1.285100
7.441200 1.422500
7.469800 1.699500
7.498300 2.066000
7.526900 2.688600
7.555400 3.150400
7.584000 3.205900
7.612500 2.911700
7.641100 2.677400
7.669600 2.554900
7.698200 2.540800
7.726700 2.655800
7.755300 2.744800
7.783800 2.753700
7.812400 2.531600
7.840900 2.419700
7.869500 2.301700
7.898000 2.181000
7.926600 2.026900
7.955100 1.843300
7.983700 1.748100
8.012200 1.679000
8.040800 1.623800
8.069300 1.576300
8.097900 1.531800
8.126400 1.489200
8.155000 1.449700
8.183500 1.413800
8.212100 1.382300
8.240600 1.354600
8.269200 1.329900
8.297700 1.307200
8.326300 1.287600
8.354800 1.271100
8.383400 1.260500
8.411900 1.257300
8.440500 1.271400
8.469000 1.333300
8.497600 1.353300
8.526100 1.306800
8.554700 1.278000
8.583200 1.242200
8.611800 1.211900
8.640300 1.178100
8.668900 1.157300
8.697400 1.150400
8.726000 1.148100
8.754500 1.149200
8.783100 1.162300
8.811600 1.291700
8.840200 1.294200
8.868700 1.313600
8.897300 1.340800
8.925800 1.396500
8.954400 1.447400
8.982900 1.460000
9.011500 1.412200
9.040000 1.348500
9.068600 1.321600
9.097100 1.291600
9.125700 1.276900
9.154200 1.266500
9.182800 1.261000
9.211300 1.259900
9.239900 1.239900
9.268400 1.201900
9.297000 1.176600
9.325500 1.148100
9.354100 1.004300
9.382600 0.848000
9.411200 0.815500
9.439700 0.790300
9.468300 0.785600
9.496800 0.787000
9.525400 0.789200
9.553900 0.797000
9.582500 0.807600
9.611000 0.824800
9.639600 0.847900
9.668100 0.905100
9.696700 0.960400
9.725200 0.959400
9.753800 0.878700
9.782300 0.739800
9.810900 0.660700
9.839400 0.567300
9.868000 0.504900
9.896500 0.545300
9.925100 0.573900
9.953600 0.597500
9.982200 0.654300
10.010700 0.796500
10.039300 0.943000
10.067800 0.965300
10.096400 0.999100
10.124900 1.055500
10.153500 1.139300
