set title 'mp-1187545 - Density of States'
set xlabel 'Energy (eV)'
set ylabel 'DOS (states/eV)'
set grid
set xrange [-10:10]
set yrange [0:59.956]
set xzeroaxis lt -1
set terminal png size 800,600
set output 'mp-1187545_dos_gnuplot.png'
plot '-' using 1:2 with lines title 'DOS'
-8.207400 0.000000
-8.189900 0.000000
-8.172500 0.000000
-8.155000 0.000000
-8.137600 0.000000
-8.120200 0.000000
-8.102700 0.000000
-8.085300 0.000000
-8.067800 0.000000
-8.050400 0.000000
-8.033000 0.000000
-8.015500 0.000000
-7.998100 0.000000
-7.980600 0.000000
-7.963200 0.000000
-7.945800 0.000000
-7.928300 0.000000
-7.910900 0.000000
-7.893400 0.000000
-7.876000 0.000000
-7.858600 0.000000
-7.841100 0.000000
-7.823700 0.000000
-7.806200 0.000000
-7.788800 0.000000
-7.771400 0.000000
-7.753900 0.000000
-7.736500 0.000000
-7.719000 0.000000
-7.701600 0.000000
-7.684200 0.000000
-7.666700 0.000000
-7.649300 0.000000
-7.631800 0.000000
-7.614400 0.000000
-7.596900 0.000000
-7.579500 0.000000
-7.562100 0.000000
-7.544600 0.000000
-7.527200 0.000000
-7.509700 0.000000
-7.492300 0.000000
-7.474900 0.000000
-7.457400 0.000000
-7.440000 0.000000
-7.422500 0.000000
-7.405100 0.000000
-7.387700 0.000000
-7.370200 0.000000
-7.352800 0.000000
-7.335300 0.000000
-7.317900 0.000000
-7.300500 0.000000
-7.283000 0.000000
-7.265600 0.000000
-7.248100 0.000000
-7.230700 0.000000
-7.213300 0.000000
-7.195800 0.000000
-7.178400 0.000000
-7.160900 0.000000
-7.143500 0.000000
-7.126100 0.000000
-7.108600 0.000000
-7.091200 0.000000
-7.073700 0.000000
-7.056300 0.000000
-7.038900 0.000000
-7.021400 0.000000
-7.004000 0.000000
-6.986500 0.000000
-6.969100 0.000000
-6.951700 0.000000
-6.934200 0.000000
-6.916800 0.000000
-6.899300 0.000000
-6.881900 0.000000
-6.864400 0.000000
-6.847000 0.000000
-6.829600 0.000000
-6.812100 0.000000
-6.794700 0.000000
-6.777200 0.000000
-6.759800 0.000000
-6.742400 0.000200
-6.724900 0.001300
-6.707500 0.006600
-6.690000 0.027400
-6.672600 0.092600
-6.655200 0.257100
-6.637700 0.590400
-6.620300 1.136700
-6.602800 1.876500
-6.585400 2.749000
-6.568000 3.723000
-6.550500 4.830800
-6.533100 6.164400
-6.515600 7.921400
-6.498200 10.417800
-6.480800 13.897200
-6.463300 18.295500
-6.445900 23.275700
-6.428400 28.425500
-6.411000 33.287000
-6.393600 37.254000
-6.376100 39.671000
-6.358700 40.235000
-6.341200 39.346700
-6.323800 37.974300
-6.306400 37.098300
-6.288900 37.225700
-6.271500 38.266300
-6.254000 39.738200
-6.236600 41.164800
-6.219200 42.372700
-6.201700 43.392900
-6.184300 44.110200
-6.166800 44.161000
-6.149400 43.325600
-6.132000 42.042600
-6.114500 41.391600
-6.097100 42.368800
-6.079600 45.073600
-6.062200 48.602800
-6.044700 51.755800
-6.027300 53.790700
-6.009900 54.505800
-5.992400 53.850400
-5.975000 51.789700
-5.957500 48.587600
-5.940100 44.990900
-5.922700 41.943200
-5.905200 40.050500
-5.887800 39.280100
-5.870300 39.052400
-5.852900 38.506000
-5.835500 36.771500
-5.818000 33.319100
-5.800600 28.305000
-5.783100 22.559400
-5.765700 17.080000
-5.748300 12.476100
-5.730800 8.866400
-5.713400 6.168600
-5.695900 4.311400
-5.678500 3.167400
-5.661100 2.463700
-5.643600 1.900900
-5.626200 1.339500
-5.608700 0.817800
-5.591300 0.422200
-5.573900 0.182400
-5.556400 0.065500
-5.539000 0.019400
-5.521500 0.004700
-5.504100 0.000900
-5.486700 0.000100
-5.469200 0.000000
-5.451800 0.000000
-5.434300 0.000000
-5.416900 0.000000
-5.399500 0.000000
-5.382000 0.000000
-5.364600 0.000000
-5.347100 0.000000
-5.329700 0.000000
-5.312200 0.000000
-5.294800 0.000000
-5.277400 0.000000
-5.259900 0.000000
-5.242500 0.000000
-5.225000 0.000000
-5.207600 0.000000
-5.190200 0.000000
-5.172700 0.000000
-5.155300 0.000000
-5.137800 0.000000
-5.120400 0.000000
-5.103000 0.000000
-5.085500 0.000000
-5.068100 0.000000
-5.050600 0.000000
-5.033200 0.000000
-5.015800 0.000000
-4.998300 0.000000
-4.980900 0.000000
-4.963400 0.000000
-4.946000 0.000000
-4.928600 0.000000
-4.911100 0.000000
-4.893700 0.000000
-4.876200 0.000000
-4.858800 0.000000
-4.841400 0.000000
-4.823900 0.000000
-4.806500 0.000000
-4.789000 0.000000
-4.771600 0.000000
-4.754200 0.000000
-4.736700 0.000000
-4.719300 0.000000
-4.701800 0.000000
-4.684400 0.000000
-4.667000 0.000000
-4.649500 0.000000
-4.632100 0.000000
-4.614600 0.000000
-4.597200 0.000000
-4.579700 0.000000
-4.562300 0.000000
-4.544900 0.000000
-4.527400 0.000000
-4.510000 0.000000
-4.492500 0.000000
-4.475100 0.000000
-4.457700 0.000000
-4.440200 0.000000
-4.422800 0.000000
-4.405300 0.000000
-4.387900 0.000000
-4.370500 0.000000
-4.353000 0.000000
-4.335600 0.000000
-4.318100 0.000000
-4.300700 0.000000
-4.283300 0.000000
-4.265800 0.000000
-4.248400 0.000000
-4.230900 0.000000
-4.213500 0.000000
-4.196100 0.000000
-4.178600 0.000000
-4.161200 0.000000
-4.143700 0.000200
-4.126300 0.001100
-4.108900 0.003600
-4.091400 0.009800
-4.074000 0.021300
-4.056500 0.038200
-4.039100 0.058100
-4.021700 0.079100
-4.004200 0.101700
-3.986800 0.128700
-3.969300 0.165800
-3.951900 0.220900
-3.934500 0.293800
-3.917000 0.362400
-3.899600 0.388600
-3.882100 0.349300
-3.864700 0.260600
-3.847200 0.167100
-3.829800 0.113600
-3.812400 0.125700
-3.794900 0.206700
-3.777500 0.334800
-3.760000 0.463900
-3.742600 0.543500
-3.725200 0.552400
-3.707700 0.514400
-3.690300 0.477400
-3.672800 0.480300
-3.655400 0.529900
-3.638000 0.591700
-3.620500 0.603600
-3.603100 0.528100
-3.585600 0.394000
-3.568200 0.273300
-3.550800 0.215200
-3.533300 0.216200
-3.515900 0.251400
-3.498400 0.319300
-3.481000 0.440800
-3.463600 0.608300
-3.446100 0.757100
-3.428700 0.812000
-3.411200 0.762600
-3.393800 0.674100
-3.376400 0.626700
-3.358900 0.656100
-3.341500 0.734000
-3.324000 0.785600
-3.306600 0.739800
-3.289200 0.588200
-3.271700 0.396600
-3.254300 0.258100
-3.236800 0.238800
-3.219400 0.355000
-3.202000 0.570400
-3.184500 0.805100
-3.167100 0.968600
-3.149600 1.011100
-3.132200 0.952800
-3.114800 0.864800
-3.097300 0.816700
-3.079900 0.832300
-3.062400 0.875200
-3.045000 0.874100
-3.027500 0.780400
-3.010100 0.620700
-2.992700 0.481200
-2.975200 0.427900
-2.957800 0.450100
-2.940300 0.491700
-2.922900 0.528200
-2.905500 0.589700
-2.888000 0.703400
-2.870600 0.840600
-2.853100 0.944800
-2.835700 1.002100
-2.818300 1.058700
-2.800800 1.161200
-2.783400 1.288800
-2.765900 1.351800
-2.748500 1.266800
-2.731100 1.039000
-2.713600 0.762600
-2.696200 0.545300
-2.678700 0.448700
-2.661300 0.495800
-2.643900 0.696300
-2.626400 1.023600
-2.609000 1.371600
-2.591500 1.583400
-2.574100 1.565700
-2.556700 1.366500
-2.539200 1.123100
-2.521800 0.941200
-2.504300 0.833600
-2.486900 0.748300
-2.469500 0.635700
-2.452000 0.497500
-2.434600 0.384100
-2.417100 0.343300
-2.399700 0.372600
-2.382300 0.427900
-2.364800 0.474800
-2.347400 0.521500
-2.329900 0.602300
-2.312500 0.750900
-2.295000 0.991300
-2.277600 1.318200
-2.260200 1.667000
-2.242700 1.926000
-2.225300 1.998700
-2.207800 1.854400
-2.190400 1.545000
-2.173000 1.190900
-2.155500 0.915000
-2.138100 0.758900
-2.120600 0.680500
-2.103200 0.639900
-2.085800 0.654600
-2.068300 0.754400
-2.050900 0.918100
-2.033400 1.089500
-2.016000 1.237400
-1.998600 1.357700
-1.981100 1.422300
-1.963700 1.374600
-1.946200 1.202200
-1.928800 0.980200
-1.911400 0.807900
-1.893900 0.712000
-1.876500 0.644100
-1.859000 0.566800
-1.841600 0.506800
-1.824200 0.514100
-1.806700 0.588400
-1.789300 0.666400
-1.771800 0.688700
-1.754400 0.669600
-1.737000 0.685000
-1.719500 0.787400
-1.702100 0.953100
-1.684600 1.118100
-1.667200 1.250400
-1.649800 1.367700
-1.632300 1.485100
-1.614900 1.570300
-1.597400 1.570000
-1.580000 1.466200
-1.562500 1.291600
-1.545100 1.106200
-1.527700 0.971600
-1.510200 0.921200
-1.492800 0.933700
-1.475300 0.950800
-1.457900 0.943600
-1.440500 0.941200
-1.423000 0.982000
-1.405600 1.064100
-1.388100 1.166500
-1.370700 1.285800
-1.353300 1.416800
-1.335800 1.533600
-1.318400 1.627100
-1.300900 1.726900
-1.283500 1.842100
-1.266100 1.920200
-1.248600 1.920900
-1.231200 1.893000
-1.213700 1.905800
-1.196300 1.924900
-1.178900 1.839500
-1.161400 1.618400
-1.144000 1.368700
-1.126500 1.209800
-1.109100 1.144700
-1.091700 1.089100
-1.074200 0.995200
-1.056800 0.908100
-1.039300 0.909400
-1.021900 1.028300
-1.004500 1.215200
-0.987000 1.393300
-0.969600 1.526300
-0.952100 1.627700
-0.934700 1.710700
-0.917300 1.750700
-0.899800 1.705700
-0.882400 1.560900
-0.864900 1.343600
-0.847500 1.103700
-0.830000 0.883500
-0.812600 0.708300
-0.795200 0.603900
-0.777700 0.606700
-0.760300 0.733600
-0.742800 0.931800
-0.725400 1.086900
-0.708000 1.119200
-0.690500 1.077300
-0.673100 1.101500
-0.655600 1.276600
-0.638200 1.534700
-0.620800 1.716000
-0.603300 1.718300
-0.585900 1.585300
-0.568400 1.455900
-0.551000 1.440800
-0.533600 1.546000
-0.516100 1.688400
-0.498700 1.759900
-0.481200 1.696500
-0.463800 1.524900
-0.446400 1.345100
-0.428900 1.248000
-0.411500 1.249000
-0.394000 1.306300
-0.376600 1.378400
-0.359200 1.445700
-0.341700 1.492800
-0.324300 1.509000
-0.306800 1.510700
-0.289400 1.540300
-0.272000 1.627900
-0.254500 1.760500
-0.237100 1.893000
-0.219600 1.986500
-0.202200 2.032300
-0.184800 2.040000
-0.167300 2.012300
-0.149900 1.937900
-0.132400 1.808000
-0.115000 1.650000
-0.097500 1.557200
-0.080100 1.653500
-0.062700 1.976000
-0.045200 2.383300
-0.027800 2.635700
-0.010300 2.607600
0.007100 2.405600
0.024500 2.252500
0.042000 2.279200
0.059400 2.442800
0.076900 2.603100
0.094300 2.653300
0.111700 2.611600
0.129200 2.600800
0.146600 2.703800
0.164100 2.833000
0.181500 2.779900
0.198900 2.414900
0.216400 1.819500
0.233800 1.219900
0.251300 0.816000
0.268700 0.683700
0.286100 0.803200
0.303600 1.122700
0.321000 1.573500
0.338500 2.054200
0.355900 2.449100
0.373300 2.679100
0.390800 2.725700
0.408200 2.610400
0.425700 2.382800
0.443100 2.134700
0.460500 1.982600
0.478000 1.987400
0.495400 2.094500
0.512900 2.181600
0.530300 2.179900
0.547700 2.135700
0.565200 2.150000
0.582600 2.270400
0.600100 2.455500
0.617500 2.625100
0.634900 2.711200
0.652400 2.669500
0.669800 2.490000
0.687300 2.218200
0.704700 1.939500
0.722200 1.716200
0.739600 1.548500
0.757000 1.406400
0.774500 1.273900
0.791900 1.148600
0.809400 1.026700
0.826800 0.907100
0.844200 0.798500
0.861700 0.711600
0.879100 0.653400
0.896600 0.631500
0.914000 0.659200
0.931400 0.759000
0.948900 0.971200
0.966300 1.377300
0.983800 2.131000
1.001200 3.465300
1.018600 5.601200
1.036100 8.548700
1.053500 11.967400
1.071000 15.331100
1.088400 18.331800
1.105800 21.099000
1.123300 23.963400
1.140700 26.998400
1.158200 29.754500
1.175600 31.407600
1.193000 31.249300
1.210500 29.144100
1.227900 25.569800
1.245400 21.305400
1.262800 17.116500
1.280200 13.576500
1.297700 10.968100
1.315100 9.292000
1.332600 8.421900
1.350000 8.271800
1.367400 8.762000
1.384900 9.618600
1.402300 10.320900
1.419800 10.379000
1.437200 9.686700
1.454700 8.561800
1.472100 7.449400
1.489500 6.612700
1.507000 6.062200
1.524400 5.674700
1.541900 5.330600
1.559300 4.982300
1.576700 4.661800
1.594200 4.430700
1.611600 4.305500
1.629100 4.248300
1.646500 4.240300
1.663900 4.313500
1.681400 4.468300
1.698800 4.600100
1.716300 4.562200
1.733700 4.300600
1.751100 3.906300
1.768600 3.549800
1.786000 3.363600
1.803500 3.365700
1.820900 3.491000
1.838300 3.688100
1.855800 3.942600
1.873200 4.194400
1.890700 4.292800
1.908100 4.086800
1.925500 3.545500
1.943000 2.780400
1.960400 1.972900
1.977900 1.288700
1.995300 0.822800
2.012700 0.580300
2.030200 0.493700
2.047600 0.477200
2.065100 0.486300
2.082500 0.526400
2.099900 0.609600
2.117400 0.723400
2.134800 0.839100
2.152300 0.921000
2.169700 0.925500
2.187200 0.825500
2.204600 0.654600
2.222000 0.504400
2.239500 0.462700
2.256900 0.554100
2.274400 0.725400
2.291800 0.871200
2.309200 0.890500
2.326700 0.752500
2.344100 0.519500
2.361600 0.294000
2.379000 0.144400
2.396400 0.078200
2.413900 0.069600
2.431300 0.094600
2.448800 0.143700
2.466200 0.211800
2.483600 0.284600
2.501100 0.345500
2.518500 0.394400
2.536000 0.443800
2.553400 0.489700
2.570800 0.503800
2.588300 0.466400
2.605700 0.402600
2.623200 0.371200
2.640600 0.414000
2.658000 0.515100
2.675500 0.607700
2.692900 0.623000
2.710400 0.544900
2.727800 0.423700
2.745200 0.342600
2.762700 0.364600
2.780100 0.493700
2.797600 0.669200
2.815000 0.806200
2.832400 0.864500
2.849900 0.874600
2.867300 0.893000
2.884800 0.948600
2.902200 1.037200
2.919700 1.135100
2.937100 1.200200
2.954500 1.198700
2.972000 1.152200
2.989400 1.127200
3.006900 1.152500
3.024300 1.180900
3.041700 1.154600
3.059200 1.078200
3.076600 0.999700
3.094100 0.940000
3.111500 0.867700
3.128900 0.742300
3.146400 0.568100
3.163800 0.405100
3.181300 0.332200
3.198700 0.392100
3.216100 0.550600
3.233600 0.705800
3.251000 0.764200
3.268500 0.727900
3.285900 0.690200
3.303300 0.731100
3.320800 0.831000
3.338200 0.899500
3.355700 0.872300
3.373100 0.773300
3.390500 0.694300
3.408000 0.731400
3.425400 0.935400
3.442900 1.297100
3.460300 1.743300
3.477700 2.154100
3.495200 2.429400
3.512600 2.560200
3.530100 2.617400
3.547500 2.682500
3.564900 2.802900
3.582400 2.962700
3.599800 3.058300
3.617300 2.958100
3.634700 2.638900
3.652200 2.224300
3.669600 1.860500
3.687000 1.608000
3.704500 1.485000
3.721900 1.549400
3.739400 1.859600
3.756800 2.356900
3.774200 2.840900
3.791700 3.095100
3.809100 3.028800
3.826600 2.698600
3.844000 2.239100
3.861400 1.806700
3.878900 1.536600
3.896300 1.477800
3.913800 1.555300
3.931200 1.623000
3.948600 1.572300
3.966100 1.397900
3.983500 1.175500
4.001000 0.999200
4.018400 0.940000
4.035800 1.021000
4.053300 1.199400
4.070700 1.377000
4.088200 1.466100
4.105600 1.468100
4.123000 1.485500
4.140500 1.641900
4.157900 1.969100
4.175400 2.351000
4.192800 2.578200
4.210200 2.487300
4.227700 2.081400
4.245100 1.537000
4.262600 1.097400
4.280000 0.934600
4.297400 1.061700
4.314900 1.334900
4.332300 1.545700
4.349800 1.554900
4.367200 1.381800
4.384600 1.176500
4.402100 1.101300
4.419500 1.216600
4.437000 1.446300
4.454400 1.642400
4.471900 1.698900
4.489300 1.611100
4.506700 1.439600
4.524200 1.249900
4.541600 1.088300
4.559100 0.983300
4.576500 0.951700
4.593900 1.010100
4.611400 1.170700
4.628800 1.397100
4.646300 1.572100
4.663700 1.560300
4.681100 1.331700
4.698600 0.997700
4.716000 0.707300
4.733500 0.535900
4.750900 0.483000
4.768300 0.531900
4.785800 0.673900
4.803200 0.896800
4.820700 1.178500
4.838100 1.482800
4.855500 1.738600
4.873000 1.847600
4.890400 1.762600
4.907900 1.560600
4.925300 1.393300
4.942700 1.353000
4.960200 1.404800
4.977600 1.459500
4.995100 1.482800
5.012500 1.510600
5.029900 1.580200
5.047400 1.687300
5.064800 1.804400
5.082300 1.902900
5.099700 1.955200
5.117100 1.943200
5.134600 1.868400
5.152000 1.750100
5.169500 1.628500
5.186900 1.568100
5.204400 1.622300
5.221800 1.779500
5.239200 1.959700
5.256700 2.075100
5.274100 2.081700
5.291600 1.980000
5.309000 1.817500
5.326400 1.711000
5.343900 1.803400
5.361300 2.128100
5.378800 2.523000
5.396200 2.742100
5.413600 2.677600
5.431100 2.443200
5.448500 2.223400
5.466000 2.083500
5.483400 1.967100
5.500800 1.847000
5.518300 1.797300
5.535700 1.885700
5.553200 2.056300
5.570600 2.182600
5.588000 2.218900
5.605500 2.237200
5.622900 2.306000
5.640400 2.390800
5.657800 2.413200
5.675200 2.368600
5.692700 2.329400
5.710100 2.345300
5.727600 2.379800
5.745000 2.343700
5.762400 2.181600
5.779900 1.938500
5.797300 1.751700
5.814800 1.753400
5.832200 1.959100
5.849600 2.244500
5.867100 2.426700
5.884500 2.384900
5.902000 2.134900
5.919400 1.808100
5.936900 1.557300
5.954300 1.479600
5.971700 1.598700
5.989200 1.867800
6.006600 2.186500
6.024100 2.454600
6.041500 2.625300
6.058900 2.696800
6.076400 2.669300
6.093800 2.528000
6.111300 2.263700
6.128700 1.903400
6.146100 1.521700
6.163600 1.223700
6.181000 1.094600
6.198500 1.140000
6.215900 1.268800
6.233300 1.356900
6.250800 1.345800
6.268200 1.278100
6.285700 1.234100
6.303100 1.249000
6.320500 1.300900
6.338000 1.357800
6.355400 1.414700
6.372900 1.496500
6.390300 1.634800
6.407700 1.821300
6.425200 1.981600
6.442600 2.024300
6.460100 1.930400
6.477500 1.785800
6.494900 1.726800
6.512400 1.846500
6.529800 2.121000
6.547300 2.422500
6.564700 2.637500
6.582100 2.764100
6.599600 2.852300
6.617000 2.879600
6.634500 2.763300
6.651900 2.489300
6.669400 2.160100
6.686800 1.896500
6.704200 1.727100
6.721700 1.593900
6.739100 1.445400
6.756600 1.298200
6.774000 1.210800
6.791400 1.227000
6.808900 1.349700
6.826300 1.538700
6.843800 1.718100
6.861200 1.805800
6.878600 1.760300
6.896100 1.599800
6.913500 1.386400
6.931000 1.195900
6.948400 1.077900
6.965800 1.017700
6.983300 0.955400
7.000700 0.864600
7.018200 0.804800
7.035600 0.868700
7.053000 1.078300
7.070500 1.349100
7.087900 1.556300
7.105400 1.623200
7.122800 1.557000
7.140200 1.429100
7.157700 1.328800
7.175100 1.314300
7.192600 1.386100
7.210000 1.505600
7.227400 1.634100
7.244900 1.748500
7.262300 1.828200
7.279800 1.847200
7.297200 1.787900
7.314600 1.659000
7.332100 1.507300
7.349500 1.419100
7.367000 1.495400
7.384400 1.793500
7.401800 2.254900
7.419300 2.698500
7.436700 2.945300
7.454200 2.973900
7.471600 2.912100
7.489100 2.873900
7.506500 2.853100
7.523900 2.771300
7.541400 2.571600
7.558800 2.261300
7.576300 1.909100
7.593700 1.610900
7.611100 1.432600
7.628600 1.381400
7.646000 1.428400
7.663500 1.533500
7.680900 1.651800
7.698300 1.759600
7.715800 1.886200
7.733200 2.086600
7.750700 2.365700
7.768100 2.654700
7.785500 2.878600
7.803000 3.010200
7.820400 3.037200
7.837900 2.927600
7.855300 2.671100
7.872700 2.320100
7.890200 1.952200
7.907600 1.615500
7.925100 1.324700
7.942500 1.084200
7.959900 0.899400
7.977400 0.784700
7.994800 0.769100
8.012300 0.881800
8.029700 1.119100
8.047100 1.422400
8.064600 1.698000
8.082000 1.869900
8.099500 1.919900
8.116900 1.892100
8.134300 1.863400
8.151800 1.886800
8.169200 1.951000
8.186700 2.009000
8.204100 2.042100
8.221600 2.071700
8.239000 2.119200
8.256400 2.174900
8.273900 2.207300
8.291300 2.190400
8.308800 2.121900
8.326200 2.010700
8.343600 1.864700
8.361100 1.726900
8.378500 1.705100
8.396000 1.897900
8.413400 2.268300
8.430800 2.623600
8.448300 2.749300
8.465700 2.577500
8.483200 2.247900
8.500600 2.007300
8.518000 2.016700
8.535500 2.231900
8.552900 2.462100
8.570400 2.535200
8.587800 2.410500
8.605200 2.168600
8.622700 1.935600
8.640100 1.810000
8.657600 1.816900
8.675000 1.911900
8.692400 2.039900
8.709900 2.186400
8.727300 2.360200
8.744800 2.552000
8.762200 2.734100
8.779600 2.869900
8.797100 2.898900
8.814500 2.756300
8.832000 2.455200
8.849400 2.109900
8.866800 1.841200
8.884300 1.683800
8.901700 1.600500
8.919200 1.545100
8.936600 1.490600
8.954100 1.424600
8.971500 1.340900
8.988900 1.243200
9.006400 1.165000
9.023800 1.179100
9.041300 1.359600
9.058700 1.727300
9.076100 2.235000
9.093600 2.781800
9.111000 3.225700
9.128500 3.422500
9.145900 3.325600
9.163300 3.070400
9.180800 2.900500
9.198200 2.944000
9.215700 3.075800
9.233100 3.047500
9.250500 2.731500
9.268000 2.200600
9.285400 1.622100
9.302900 1.149800
9.320300 0.896500
9.337700 0.914100
9.355200 1.153800
9.372600 1.469700
9.390100 1.711900
9.407500 1.835300
9.424900 1.911600
9.442400 2.042400
9.459800 2.272800
9.477300 2.560600
9.494700 2.786100
9.512100 2.810200
9.529600 2.585500
9.547000 2.225600
9.564500 1.936400
9.581900 1.863100
9.599300 2.003600
9.616800 2.252300
9.634200 2.504100
9.651700 2.716800
9.669100 2.901300
9.686600 3.068500
9.704000 3.180900
9.721400 3.157900
9.738900 2.944600
9.756300 2.579500
9.773800 2.186600
9.791200 1.895200
9.808600 1.768200
9.826100 1.805800
9.843500 1.995800
9.861000 2.326300
9.878400 2.750300
9.895800 3.164000
9.913300 3.435300
9.930700 3.473600
9.948200 3.301600
9.965600 3.040800
9.983000 2.799600
10.000500 2.597900
10.017900 2.417500
10.035400 2.283100
10.052800 2.249400
10.070200 2.326700
10.087700 2.455100
10.105100 2.562100
10.122600 2.621700
10.140000 2.660400
10.157400 2.731500
10.174900 2.879400
10.192300 3.091600
10.209800 3.271800
10.227200 3.287500
10.244600 3.071900
10.262100 2.696700
10.279500 2.340200
10.297000 2.159100
10.314400 2.172700
10.331800 2.276600
