set title 'mp-570197 - Density of States'
set xlabel 'Energy (eV)'
set ylabel 'DOS (states/eV)'
set grid
set xrange [-10:10]
set yrange [0:11.748]
set xzeroaxis lt -1
set terminal png size 800,600
set output 'mp-570197_dos_gnuplot.png'
plot '-' using 1:2 with lines title 'DOS'
-7.901500 0.000000
-7.887500 0.000000
-7.873400 0.000000
-7.859400 0.000000
-7.845300 0.000000
-7.831300 0.000000
-7.817200 0.000000
-7.803200 0.000000
-7.789100 0.000000
-7.775000 0.000000
-7.761000 0.000000
-7.746900 0.000000
-7.732900 0.000000
-7.718800 0.000000
-7.704800 0.000000
-7.690700 0.000000
-7.676700 0.000000
-7.662600 0.000000
-7.648600 0.000000
-7.634500 0.000000
-7.620500 0.000000
-7.606400 0.000000
-7.592400 0.000000
-7.578300 0.000000
-7.564300 0.000000
-7.550200 0.000000
-7.536200 0.000000
-7.522100 0.000000
-7.508100 0.000000
-7.494000 0.000000
-7.480000 0.000000
-7.465900 0.000000
-7.451900 0.000000
-7.437800 0.000000
-7.423800 0.000000
-7.409700 0.000000
-7.395700 0.000000
-7.381600 0.000000
-7.367600 0.000000
-7.353500 0.000000
-7.339500 0.000000
-7.325400 0.000000
-7.311400 0.000000
-7.297300 0.000000
-7.283300 0.000000
-7.269200 0.000000
-7.255200 0.000000
-7.241100 0.000000
-7.227100 0.000000
-7.213000 0.000000
-7.199000 0.000000
-7.184900 0.000000
-7.170900 0.000000
-7.156800 0.000000
-7.142800 0.000000
-7.128700 0.000000
-7.114700 0.000000
-7.100600 0.000000
-7.086600 0.000000
-7.072500 0.000000
-7.058500 0.000000
-7.044400 0.000000
-7.030400 0.000000
-7.016300 0.000000
-7.002300 0.000000
-6.988200 0.000000
-6.974200 0.000000
-6.960100 0.000000
-6.946100 0.000000
-6.932000 0.000000
-6.918000 0.000000
-6.903900 0.000000
-6.889800 0.000000
-6.875800 0.000000
-6.861700 0.000000
-6.847700 0.000000
-6.833600 0.000000
-6.819600 0.000000
-6.805500 0.000000
-6.791500 0.000000
-6.777400 0.000000
-6.763400 0.000000
-6.749300 0.000000
-6.735300 0.000000
-6.721200 0.000000
-6.707200 0.000000
-6.693100 0.000000
-6.679100 0.000000
-6.665000 0.000000
-6.651000 0.000000
-6.636900 0.000000
-6.622900 0.000100
-6.608800 0.015200
-6.594800 0.055900
-6.580700 0.111800
-6.566700 0.134700
-6.552600 0.143100
-6.538600 0.155700
-6.524500 0.172700
-6.510500 0.190500
-6.496400 0.208400
-6.482400 0.226600
-6.468300 0.240200
-6.454300 0.248900
-6.440200 0.257500
-6.426200 0.267300
-6.412100 0.277700
-6.398100 0.287100
-6.384000 0.295900
-6.370000 0.306500
-6.355900 0.317200
-6.341900 0.328000
-6.327800 0.339000
-6.313800 0.350500
-6.299700 0.361400
-6.285700 0.370500
-6.271600 0.377800
-6.257600 0.385000
-6.243500 0.392300
-6.229500 0.399800
-6.215400 0.407200
-6.201400 0.414700
-6.187300 0.422300
-6.173300 0.430200
-6.159200 0.438500
-6.145200 0.447200
-6.131100 0.456100
-6.117100 0.465100
-6.103000 0.474400
-6.089000 0.483600
-6.074900 0.492600
-6.060900 0.501900
-6.046800 0.510900
-6.032800 0.521500
-6.018700 0.532500
-6.004700 0.542500
-5.990600 0.551200
-5.976500 0.558600
-5.962500 0.576800
-5.948400 0.578500
-5.934400 0.570000
-5.920300 0.576500
-5.906300 0.582300
-5.892200 0.587300
-5.878200 0.591500
-5.864100 0.594900
-5.850100 0.597500
-5.836000 0.599200
-5.822000 0.602600
-5.807900 0.612600
-5.793900 0.635600
-5.779800 0.650400
-5.765800 0.668600
-5.751700 0.678800
-5.737700 0.684600
-5.723600 0.695400
-5.709600 0.700400
-5.695500 0.701200
-5.681500 0.704800
-5.667400 0.715800
-5.653400 0.709400
-5.639300 0.716700
-5.625300 0.726100
-5.611200 0.736500
-5.597200 0.747800
-5.583100 0.760300
-5.569100 0.775500
-5.555000 0.791400
-5.541000 0.800700
-5.526900 0.805700
-5.512900 0.809700
-5.498800 0.815300
-5.484800 0.822800
-5.470700 0.831100
-5.456700 0.839600
-5.442600 0.849300
-5.428600 0.860800
-5.414500 0.872000
-5.400500 0.882700
-5.386400 0.893500
-5.372400 0.904700
-5.358300 0.916300
-5.344300 0.928200
-5.330200 0.940400
-5.316200 0.953000
-5.302100 0.965700
-5.288100 0.978400
-5.274000 0.990700
-5.260000 1.004100
-5.245900 1.016500
-5.231900 1.027200
-5.217800 1.037900
-5.203800 1.049700
-5.189700 1.061700
-5.175700 1.072900
-5.161600 1.084300
-5.147600 1.095900
-5.133500 1.107800
-5.119500 1.120000
-5.105400 1.133300
-5.091300 1.148500
-5.077300 1.164500
-5.063200 1.180500
-5.049200 1.197000
-5.035100 1.214300
-5.021100 1.232800
-5.007000 1.252300
-4.993000 1.273200
-4.978900 1.296800
-4.964900 1.319500
-4.950800 1.341500
-4.936800 1.363100
-4.922700 1.386400
-4.908700 1.412400
-4.894600 1.439200
-4.880600 1.466600
-4.866500 1.496000
-4.852500 1.527700
-4.838400 1.561100
-4.824400 1.597600
-4.810300 1.650300
-4.796300 1.721600
-4.782200 1.765800
-4.768200 1.763100
-4.754100 1.799400
-4.740100 1.844300
-4.726000 1.898300
-4.712000 1.933800
-4.697900 1.974200
-4.683900 2.021700
-4.669800 2.080200
-4.655800 2.176600
-4.641700 2.289300
-4.627700 2.440100
-4.613600 2.472500
-4.599600 2.360000
-4.585500 2.164300
-4.571500 2.066500
-4.557400 2.028500
-4.543400 1.997800
-4.529300 1.965100
-4.515300 1.903900
-4.501200 1.877800
-4.487200 1.861300
-4.473100 1.853500
-4.459100 1.845400
-4.445000 1.835200
-4.431000 1.825300
-4.416900 1.817300
-4.402900 1.807200
-4.388800 1.793100
-4.374800 1.786800
-4.360700 1.785900
-4.346700 1.791500
-4.332600 1.796900
-4.318600 1.801800
-4.304500 1.807000
-4.290500 1.816900
-4.276400 1.826800
-4.262400 1.837200
-4.248300 1.849700
-4.234300 1.863200
-4.220200 1.882000
-4.206100 1.905800
-4.192100 1.936500
-4.178000 1.972500
-4.164000 2.012500
-4.149900 2.061200
-4.135900 2.120600
-4.121800 2.372800
-4.107800 2.431200
-4.093700 2.399700
-4.079700 2.357300
-4.065600 2.331600
-4.051600 2.338600
-4.037500 2.341600
-4.023500 2.183500
-4.009400 1.982900
-3.995400 1.888300
-3.981300 1.828100
-3.967300 1.771200
-3.953200 1.718300
-3.939200 1.666700
-3.925100 1.617500
-3.911100 1.568300
-3.897000 1.537800
-3.883000 1.512900
-3.868900 1.488700
-3.854900 1.464600
-3.840800 1.438400
-3.826800 1.409200
-3.812700 1.382200
-3.798700 1.356200
-3.784600 1.327500
-3.770600 1.298400
-3.756500 1.270600
-3.742500 1.248800
-3.728400 1.232200
-3.714400 1.217300
-3.700300 1.201500
-3.686300 1.186400
-3.672200 1.172600
-3.658200 1.159900
-3.644100 1.150000
-3.630100 1.147000
-3.616000 1.148500
-3.602000 1.115300
-3.587900 1.085200
-3.573900 1.055400
-3.559800 1.026700
-3.545800 1.003000
-3.531700 0.988800
-3.517700 0.991900
-3.503600 1.048300
-3.489600 1.127900
-3.475500 0.944400
-3.461500 0.792900
-3.447400 0.641200
-3.433400 0.556700
-3.419300 0.549600
-3.405300 0.542400
-3.391200 0.534900
-3.377200 0.527400
-3.363100 0.519500
-3.349100 0.511200
-3.335000 0.501400
-3.320900 0.492300
-3.306900 0.483900
-3.292800 0.476200
-3.278800 0.469600
-3.264700 0.464200
-3.250700 0.458900
-3.236600 0.453700
-3.222600 0.448500
-3.208500 0.443400
-3.194500 0.438300
-3.180400 0.433300
-3.166400 0.428100
-3.152300 0.422900
-3.138300 0.417700
-3.124200 0.412500
-3.110200 0.407200
-3.096100 0.401600
-3.082100 0.396600
-3.068000 0.392500
-3.054000 0.388500
-3.039900 0.385700
-3.025900 0.381600
-3.011800 0.376900
-2.997800 0.371200
-2.983700 0.365200
-2.969700 0.359300
-2.955600 0.353600
-2.941600 0.348000
-2.927500 0.342600
-2.913500 0.337700
-2.899400 0.333000
-2.885400 0.328800
-2.871300 0.325300
-2.857300 0.322200
-2.843200 0.319100
-2.829200 0.316200
-2.815100 0.313800
-2.801100 0.311900
-2.787000 0.311000
-2.773000 0.312100
-2.758900 0.322600
-2.744900 0.314100
-2.730800 0.305500
-2.716800 0.297000
-2.702700 0.288500
-2.688700 0.279900
-2.674600 0.271300
-2.660600 0.263600
-2.646500 0.256800
-2.632500 0.251400
-2.618400 0.247600
-2.604400 0.247400
-2.590300 0.252600
-2.576300 0.279900
-2.562200 0.320600
-2.548200 0.302800
-2.534100 0.250100
-2.520100 0.197300
-2.506000 0.144600
-2.492000 0.091800
-2.477900 0.038900
-2.463900 0.000000
-2.449800 0.000000
-2.435700 0.000000
-2.421700 0.000000
-2.407600 0.000000
-2.393600 0.000000
-2.379500 0.000000
-2.365500 0.000000
-2.351400 0.000000
-2.337400 0.000000
-2.323300 0.000000
-2.309300 0.000000
-2.295200 0.000000
-2.281200 0.000000
-2.267100 0.000000
-2.253100 0.000000
-2.239000 0.000000
-2.225000 0.000000
-2.210900 0.000000
-2.196900 0.000000
-2.182800 0.000000
-2.168800 0.000000
-2.154700 0.000000
-2.140700 0.000000
-2.126600 0.000000
-2.112600 0.000000
-2.098500 0.000000
-2.084500 0.000000
-2.070400 0.000000
-2.056400 0.000000
-2.042300 0.000000
-2.028300 0.000000
-2.014200 0.000000
-2.000200 0.000000
-1.986100 0.000000
-1.972100 0.000000
-1.958000 0.000000
-1.944000 0.000000
-1.929900 0.000000
-1.915900 0.000000
-1.901800 0.000000
-1.887800 0.000000
-1.873700 0.000000
-1.859700 0.000000
-1.845600 0.000000
-1.831600 0.000000
-1.817500 0.000000
-1.803500 0.000000
-1.789400 0.000000
-1.775400 0.000000
-1.761300 0.000000
-1.747300 0.000000
-1.733200 0.000000
-1.719200 0.000000
-1.705100 0.000000
-1.691100 0.000000
-1.677000 0.000000
-1.663000 0.000000
-1.648900 0.000000
-1.634900 0.000000
-1.620800 0.000000
-1.606800 0.000000
-1.592700 0.000000
-1.578700 0.000000
-1.564600 0.000000
-1.550500 0.000000
-1.536500 0.000000
-1.522400 0.000000
-1.508400 0.000000
-1.494300 0.000000
-1.480300 0.000000
-1.466200 0.000000
-1.452200 0.000000
-1.438100 0.000000
-1.424100 0.000000
-1.410000 0.000000
-1.396000 0.000000
-1.381900 0.000000
-1.367900 0.000000
-1.353800 0.000000
-1.339800 0.000000
-1.325700 0.000000
-1.311700 0.000000
-1.297600 0.000000
-1.283600 0.000000
-1.269500 0.000000
-1.255500 0.000000
-1.241400 0.000000
-1.227400 0.000000
-1.213300 0.000000
-1.199300 0.000000
-1.185200 0.000000
-1.171200 0.000000
-1.157100 0.000000
-1.143100 0.000000
-1.129000 0.000000
-1.115000 0.000000
-1.100900 0.000000
-1.086900 0.000000
-1.072800 0.000000
-1.058800 0.000000
-1.044700 0.000000
-1.030700 0.000000
-1.016600 0.000000
-1.002600 0.000000
-0.988500 0.000000
-0.974500 0.000000
-0.960400 0.000000
-0.946400 0.000000
-0.932300 0.000000
-0.918300 0.000000
-0.904200 0.000000
-0.890200 0.000000
-0.876100 0.000000
-0.862100 0.000000
-0.848000 0.000000
-0.834000 0.000000
-0.819900 0.000000
-0.805900 0.000000
-0.791800 0.000000
-0.777800 0.000000
-0.763700 0.000000
-0.749700 0.000000
-0.735600 0.000000
-0.721600 0.000000
-0.707500 0.000000
-0.693500 0.000000
-0.679400 0.000000
-0.665300 0.000000
-0.651300 0.000000
-0.637200 0.000000
-0.623200 0.000000
-0.609100 0.000000
-0.595100 0.000000
-0.581000 0.000000
-0.567000 0.000000
-0.552900 0.000000
-0.538900 0.000000
-0.524800 0.000000
-0.510800 0.000000
-0.496700 0.000000
-0.482700 0.000000
-0.468600 0.000000
-0.454600 0.000000
-0.440500 0.000000
-0.426500 0.000000
-0.412400 0.000000
-0.398400 0.000000
-0.384300 0.000000
-0.370300 0.000000
-0.356200 0.000000
-0.342200 0.000000
-0.328100 0.000000
-0.314100 0.000000
-0.300000 0.000000
-0.286000 0.000000
-0.271900 0.000000
-0.257900 0.000000
-0.243800 0.000000
-0.229800 0.000000
-0.215700 0.000000
-0.201700 0.000000
-0.187600 0.000000
-0.173600 0.000000
-0.159500 0.000000
-0.145500 0.000000
-0.131400 0.000000
-0.117400 0.000000
-0.103300 0.000000
-0.089300 0.000000
-0.075200 0.000000
-0.061200 0.000000
-0.047100 0.000000
-0.033100 0.000000
-0.019000 0.000000
-0.005000 0.000000
0.009100 0.000000
0.023100 0.000000
0.037200 0.000000
0.051200 0.000000
0.065300 0.000000
0.079300 0.000000
0.093400 0.000000
0.107400 0.000000
0.121500 0.000000
0.135500 0.000000
0.149600 0.000000
0.163600 0.000000
0.177700 0.000000
0.191700 0.000000
0.205800 0.000000
0.219900 0.000000
0.233900 0.000000
0.248000 0.000000
0.262000 0.000000
0.276100 0.000000
0.290100 0.000000
0.304200 0.000000
0.318200 0.000000
0.332300 0.000000
0.346300 0.000000
0.360400 0.000000
0.374400 0.000000
0.388500 0.000000
0.402500 0.000000
0.416600 0.000000
0.430600 0.000000
0.444700 0.000000
0.458700 0.000000
0.472800 0.000000
0.486800 0.000000
0.500900 0.000000
0.514900 0.000000
0.529000 0.000000
0.543000 0.000000
0.557100 0.000000
0.571100 0.000000
0.585200 0.000000
0.599200 0.000000
0.613300 0.000000
0.627300 0.000000
0.641400 0.000000
0.655400 0.000000
0.669500 0.000000
0.683500 0.000200
0.697600 0.003300
0.711600 0.010100
0.725700 0.020700
0.739700 0.036500
0.753800 0.053500
0.767800 0.151600
0.781900 0.299100
0.795900 0.418400
0.810000 0.487600
0.824000 0.524000
0.838100 0.546400
0.852100 0.558000
0.866200 0.569000
0.880200 0.588300
0.894300 0.610800
0.908300 0.626700
0.922400 0.644700
0.936400 0.654900
0.950500 0.659500
0.964500 0.661300
0.978600 0.662700
0.992600 0.665500
1.006700 0.668200
1.020700 0.666000
1.034800 0.666700
1.048800 0.672100
1.062900 0.681100
1.076900 0.690800
1.091000 0.700900
1.105100 0.709800
1.119100 0.717300
1.133200 0.723600
1.147200 0.728900
1.161300 0.734400
1.175300 0.738100
1.189400 0.740900
1.203400 0.744500
1.217500 0.748400
1.231500 0.752800
1.245600 0.757800
1.259600 0.763300
1.273700 0.769200
1.287700 0.775500
1.301800 0.782100
1.315800 0.788900
1.329900 0.796200
1.343900 0.805900
1.358000 0.816300
1.372000 0.826600
1.386100 0.836700
1.400100 0.846100
1.414200 0.854200
1.428200 0.861600
1.442300 0.868300
1.456300 0.874500
1.470400 0.879800
1.484400 0.885100
1.498500 0.890800
1.512500 0.897500
1.526600 0.904800
1.540600 0.912400
1.554700 0.920700
1.568700 0.930400
1.582800 0.941400
1.596800 0.953500
1.610900 0.966100
1.624900 0.978600
1.639000 0.990900
1.653000 1.003200
1.667100 1.015700
1.681100 1.029500
1.695200 1.043500
1.709200 1.057800
1.723300 1.072400
1.737300 1.088600
1.751400 1.107800
1.765400 1.129500
1.779500 1.155400
1.793500 1.188600
1.807600 1.227100
1.821600 1.286700
1.835700 1.365300
1.849700 1.457500
1.863800 1.563300
1.877800 1.760000
1.891900 1.866000
1.905900 1.979600
1.920000 2.156800
1.934000 2.332500
1.948100 2.556000
1.962100 3.383100
1.976200 3.526700
1.990300 3.055500
2.004300 2.742300
2.018400 2.699300
2.032400 2.859400
2.046500 2.898900
2.060500 2.811200
2.074600 3.127800
2.088600 3.548000
2.102700 3.960200
2.116700 4.282300
2.130800 4.307500
2.144800 4.309500
2.158900 4.328900
2.172900 4.455100
2.187000 4.639300
2.201000 4.761000
2.215100 4.882700
2.229100 4.896700
2.243200 4.818400
2.257200 4.601500
2.271300 4.331500
2.285300 3.879800
2.299400 3.624100
2.313400 3.450200
2.327500 3.310600
2.341500 3.178300
2.355600 3.041800
2.369600 2.944700
2.383700 2.858000
2.397700 2.777500
2.411800 2.723800
2.425800 2.636900
2.439900 2.550500
2.453900 2.476200
2.468000 2.421900
2.482000 2.400900
2.496100 2.403300
2.510100 2.412800
2.524200 2.394500
2.538200 2.338100
2.552300 2.319500
2.566300 2.267100
2.580400 2.244300
2.594400 2.225900
2.608500 2.185700
2.622500 2.156000
2.636600 2.143500
2.650600 2.130400
2.664700 2.116100
2.678700 2.078000
2.692800 2.066300
2.706800 2.062500
2.720900 2.070900
2.734900 2.088600
2.749000 2.122700
2.763000 2.156600
2.777100 2.216800
2.791100 2.416600
2.805200 2.666100
2.819200 2.969000
2.833300 3.187300
2.847300 3.487500
2.861400 3.801500
2.875500 4.111800
2.889500 4.336100
2.903600 4.344200
2.917600 4.335600
2.931700 4.429200
2.945700 4.572100
2.959800 5.225400
2.973800 8.412900
2.987900 9.779400
3.001900 6.361800
3.016000 6.043400
3.030000 5.747900
3.044100 5.110100
3.058100 4.784700
3.072200 4.505600
3.086200 4.414800
3.100300 4.339700
3.114300 4.533200
3.128400 4.889700
3.142400 4.882300
3.156500 4.900000
3.170500 5.022000
3.184600 5.195100
3.198600 5.082600
3.212700 4.996600
3.226700 4.652200
3.240800 4.504100
3.254800 4.267100
3.268900 4.004900
3.282900 3.836200
3.297000 3.424500
3.311000 2.958800
3.325100 2.334800
3.339100 2.232600
3.353200 2.329200
3.367200 2.469800
3.381300 2.843500
3.395300 3.509400
3.409400 4.120400
3.423400 4.595300
3.437500 4.995700
3.451500 5.207500
3.465600 5.640100
3.479600 6.096100
3.493700 6.473200
3.507700 6.118000
3.521800 5.780100
3.535800 5.651600
3.549900 5.726400
3.563900 5.377500
3.578000 5.405500
3.592000 5.659800
3.606100 6.182700
3.620100 6.414400
3.634200 7.705100
3.648200 10.033900
3.662300 10.625500
3.676300 10.679900
3.690400 10.090500
3.704400 9.518100
3.718500 9.289200
3.732500 9.444100
3.746600 9.315900
3.760700 8.701000
3.774700 7.783500
3.788800 6.304700
3.802800 6.132700
3.816900 6.471800
3.830900 7.161300
3.845000 8.788500
3.859000 7.861400
3.873100 7.154900
3.887100 6.354000
3.901200 6.718800
3.915200 8.027000
3.929300 8.301400
3.943300 6.848000
3.957400 6.654800
3.971400 8.146400
3.985500 7.222500
3.999500 6.184200
4.013600 5.976000
4.027600 5.901000
4.041700 5.695100
4.055700 7.023500
4.069800 6.047100
4.083800 5.620800
4.097900 4.912300
4.111900 4.570100
4.126000 4.285800
4.140000 3.860600
4.154100 3.711100
4.168100 3.354200
4.182200 2.888500
4.196200 2.493600
4.210300 2.362200
4.224300 2.260000
4.238400 2.169100
4.252400 2.079100
4.266500 2.001400
4.280500 1.937100
4.294600 1.876400
4.308600 1.825100
4.322700 1.776000
4.336700 1.719400
4.350800 1.668800
4.364800 1.627800
4.378900 1.594900
4.392900 1.565400
4.407000 1.545600
4.421000 1.535700
4.435100 1.533400
4.449100 1.539400
4.463200 1.563200
4.477200 1.582200
4.491300 1.581600
4.505300 1.575300
4.519400 1.564000
4.533400 1.534800
4.547500 1.494100
4.561500 1.444900
4.575600 1.393300
4.589600 1.345700
4.603700 1.305000
4.617700 1.271300
4.631800 1.245000
4.645900 1.223500
4.659900 1.216000
4.674000 1.221100
4.688000 1.220200
4.702100 1.213500
4.716100 1.237900
4.730200 1.285400
4.744200 4.697700
4.758300 3.752400
4.772300 3.640700
4.786400 3.745600
4.800400 3.715300
4.814500 3.613900
4.828500 3.737800
4.842600 3.509200
4.856600 3.384300
4.870700 2.769700
4.884700 2.233400
4.898800 2.634700
4.912800 4.361600
4.926900 3.597700
4.940900 3.355500
4.955000 3.220200
4.969000 3.028200
4.983100 2.921800
4.997100 2.870100
5.011200 2.839100
5.025200 2.825600
5.039300 2.822300
5.053300 2.817000
5.067400 2.815200
5.081400 2.803000
5.095500 2.780400
5.109500 2.746500
5.123600 2.717800
5.137600 2.710100
5.151700 2.707800
5.165700 2.717500
5.179800 2.732500
5.193800 2.747600
5.207900 2.762600
5.221900 2.780300
5.236000 2.806100
5.250000 2.882100
5.264100 2.937900
5.278100 3.041800
5.292200 3.197000
5.306200 3.292400
5.320300 3.206400
5.334300 3.098400
5.348400 2.993600
5.362400 2.886700
5.376500 2.758500
5.390500 2.623200
5.404600 2.516900
5.418600 2.423900
5.432700 2.344700
5.446700 2.270400
5.460800 2.211000
5.474800 2.178700
5.488900 2.204000
5.502900 2.094700
5.517000 1.992100
5.531100 1.916100
5.545100 1.874400
5.559200 1.835300
5.573200 1.874200
5.587300 1.745100
5.601300 1.695300
5.615400 1.664700
5.629400 1.635300
5.643500 1.607500
5.657500 1.581200
5.671600 1.559400
5.685600 1.541600
5.699700 1.521400
5.713700 1.506600
5.727800 1.454100
5.741800 1.420400
5.755900 1.387900
5.769900 1.354800
5.784000 1.313600
5.798000 1.265200
5.812100 1.202700
5.826100 1.153400
5.840200 1.099700
5.854200 1.037200
5.868300 0.980800
5.882300 0.928400
5.896400 0.887700
5.910400 0.850000
5.924500 0.815200
5.938500 0.781900
5.952600 0.754400
5.966600 0.732700
5.980700 0.715100
5.994700 0.701300
6.008800 0.691400
6.022800 0.688300
6.036900 0.689100
6.050900 0.688700
6.065000 0.683800
6.079000 0.673200
6.093100 0.662600
6.107100 0.653900
6.121200 0.652500
6.135200 0.647300
6.149300 0.641700
6.163300 0.637600
6.177400 0.640100
6.191400 0.647900
6.205500 0.659900
6.219500 0.676300
6.233600 0.667100
6.247600 0.658300
6.261700 0.654200
6.275700 0.656900
6.289800 0.666600
6.303800 0.680800
6.317900 0.698500
6.331900 0.716800
6.346000 0.733100
6.360000 0.749700
6.374100 0.770300
6.388100 0.798900
6.402200 0.832900
6.416300 0.863400
6.430300 0.888800
6.444400 0.917200
6.458400 0.948600
6.472500 0.982300
6.486500 1.016100
6.500600 1.049300
6.514600 1.081900
6.528700 1.116900
6.542700 1.158200
6.556800 1.215900
6.570800 1.264800
6.584900 1.297500
6.598900 1.288500
6.613000 1.303100
6.627000 1.319400
6.641100 1.339600
6.655100 1.362400
6.669200 1.384800
6.683200 1.402800
6.697300 1.416100
6.711300 1.427700
6.725400 1.438500
6.739400 1.446000
6.753500 1.452000
6.767500 1.458000
6.781600 1.450400
6.795600 1.453300
6.809700 1.460400
6.823700 1.468100
6.837800 1.474800
6.851800 1.480800
6.865900 1.486000
6.879900 1.490300
6.894000 1.493100
6.908000 1.491600
6.922100 1.489400
6.936100 1.488100
6.950200 1.493100
6.964200 1.500800
6.978300 1.509900
6.992300 1.520000
7.006400 1.529900
7.020400 1.546600
7.034500 1.560000
