set title 'mp-632442 - Density of States'
set xlabel 'Energy (eV)'
set ylabel 'DOS (states/eV)'
set grid
set xrange [-10:10]
set yrange [0:3.866]
set xzeroaxis lt -1
set terminal png size 800,600
set output 'mp-632442_dos_gnuplot.png'
plot '-' using 1:2 with lines title 'DOS'
-9.027700 0.000000
-9.005600 0.000000
-8.983400 0.000000
-8.961200 0.000000
-8.939100 0.000000
-8.916900 0.000000
-8.894800 0.000000
-8.872600 0.000000
-8.850400 0.000000
-8.828300 0.000000
-8.806100 0.000000
-8.784000 0.000000
-8.761800 0.000000
-8.739600 0.000000
-8.717500 0.000000
-8.695300 0.000000
-8.673100 0.000000
-8.651000 0.000000
-8.628800 0.000000
-8.606700 0.000000
-8.584500 0.000000
-8.562300 0.000000
-8.540200 0.000000
-8.518000 0.000000
-8.495900 0.000000
-8.473700 0.000000
-8.451500 0.000000
-8.429400 0.000000
-8.407200 0.000000
-8.385100 0.000000
-8.362900 0.000000
-8.340700 0.000000
-8.318600 0.000000
-8.296400 0.000000
-8.274200 0.000000
-8.252100 0.000000
-8.229900 0.000000
-8.207800 0.000000
-8.185600 0.000000
-8.163400 0.000000
-8.141300 0.000000
-8.119100 0.000000
-8.097000 0.000000
-8.074800 0.000000
-8.052600 0.000000
-8.030500 0.000000
-8.008300 0.000000
-7.986100 0.000000
-7.964000 0.000000
-7.941800 0.000000
-7.919700 0.000000
-7.897500 0.000000
-7.875300 0.000000
-7.853200 0.000000
-7.831000 0.000000
-7.808900 0.000000
-7.786700 0.000000
-7.764500 0.000000
-7.742400 0.000000
-7.720200 0.000000
-7.698000 0.000000
-7.675900 0.000000
-7.653700 0.000000
-7.631600 0.000000
-7.609400 0.000000
-7.587200 0.000000
-7.565100 0.000000
-7.542900 0.000000
-7.520800 0.000000
-7.498600 0.000000
-7.476400 0.000000
-7.454300 0.000000
-7.432100 0.000000
-7.409900 0.000000
-7.387800 0.000000
-7.365600 0.000000
-7.343500 0.000000
-7.321300 0.000000
-7.299100 0.000000
-7.277000 0.000000
-7.254800 0.000000
-7.232700 0.000000
-7.210500 0.000000
-7.188300 0.000000
-7.166200 0.000000
-7.144000 0.000000
-7.121800 0.000000
-7.099700 0.000000
-7.077500 0.000000
-7.055400 0.000000
-7.033200 0.000000
-7.011000 0.000600
-6.988900 0.087500
-6.966700 0.254500
-6.944600 0.311600
-6.922400 0.369000
-6.900200 0.437900
-6.878100 0.501000
-6.855900 0.557100
-6.833700 0.615400
-6.811600 0.669100
-6.789400 0.725500
-6.767300 0.785800
-6.745100 0.854600
-6.722900 0.930400
-6.700800 1.011500
-6.678600 1.113900
-6.656500 1.309200
-6.634300 1.384800
-6.612100 1.395600
-6.590000 1.468000
-6.567800 1.541000
-6.545700 1.643200
-6.523500 1.811100
-6.501300 1.797700
-6.479200 1.823400
-6.457000 1.869400
-6.434800 1.923300
-6.412700 1.633900
-6.390500 1.452600
-6.368400 1.394200
-6.346200 1.333700
-6.324000 1.265600
-6.301900 1.185800
-6.279700 1.157800
-6.257600 1.139600
-6.235400 1.118800
-6.213200 1.091400
-6.191100 1.065500
-6.168900 1.041300
-6.146700 1.013200
-6.124600 0.987100
-6.102400 0.980700
-6.080300 0.973500
-6.058100 0.967200
-6.035900 0.960300
-6.013800 0.952200
-5.991600 0.942300
-5.969500 0.931100
-5.947300 0.921200
-5.925100 0.910400
-5.903000 0.902000
-5.880800 0.902600
-5.858600 0.903300
-5.836500 0.904400
-5.814300 0.905600
-5.792200 0.906700
-5.770000 0.907800
-5.747800 0.908800
-5.725700 0.913900
-5.703500 0.920600
-5.681400 0.927800
-5.659200 0.935500
-5.637000 0.944900
-5.614900 0.956100
-5.592700 0.969400
-5.570500 0.986200
-5.548400 1.010000
-5.526200 1.032400
-5.504100 1.057000
-5.481900 1.085900
-5.459700 1.129000
-5.437600 1.209200
-5.415400 1.289000
-5.393300 1.368800
-5.371100 1.487200
-5.348900 1.666100
-5.326800 1.979200
-5.304600 2.192800
-5.282400 2.548300
-5.260300 2.507700
-5.238100 1.102800
-5.216000 0.155600
-5.193800 0.000000
-5.171600 0.000000
-5.149500 0.000000
-5.127300 0.000000
-5.105200 0.000000
-5.083000 0.000000
-5.060800 0.000000
-5.038700 0.000000
-5.016500 0.000000
-4.994300 0.000000
-4.972200 0.000000
-4.950000 0.000000
-4.927900 0.000000
-4.905700 0.000000
-4.883500 0.000000
-4.861400 0.000000
-4.839200 0.000000
-4.817100 0.000000
-4.794900 0.000000
-4.772700 0.000000
-4.750600 0.000000
-4.728400 0.000000
-4.706200 0.000000
-4.684100 0.000000
-4.661900 0.000000
-4.639800 0.000000
-4.617600 0.000000
-4.595400 0.000000
-4.573300 0.000000
-4.551100 0.000000
-4.529000 0.000000
-4.506800 0.000000
-4.484600 0.125200
-4.462500 0.232200
-4.440300 0.292800
-4.418200 0.455500
-4.396000 0.790100
-4.373800 0.865000
-4.351700 0.842100
-4.329500 0.863400
-4.307300 0.879100
-4.285200 0.904000
-4.263000 0.934200
-4.240900 0.952800
-4.218700 0.979400
-4.196500 1.011100
-4.174400 1.118900
-4.152200 1.170500
-4.130100 1.182600
-4.107900 1.183800
-4.085700 1.181500
-4.063600 1.170300
-4.041400 1.160000
-4.019200 1.152800
-3.997100 1.144500
-3.974900 1.147500
-3.952800 1.154200
-3.930600 1.161100
-3.908400 1.166800
-3.886300 1.167700
-3.864100 1.171300
-3.842000 1.171800
-3.819800 1.174700
-3.797600 1.177600
-3.775500 1.177800
-3.753300 1.180500
-3.731100 1.183900
-3.709000 1.188000
-3.686800 1.193300
-3.664700 1.199000
-3.642500 1.205000
-3.620300 1.213400
-3.598200 1.229900
-3.576000 1.252800
-3.553900 1.256800
-3.531700 1.239500
-3.509500 1.209800
-3.487400 1.160200
-3.465200 1.137100
-3.443000 1.122000
-3.420900 1.107400
-3.398700 1.098700
-3.376600 1.098700
-3.354400 1.101700
-3.332200 1.106100
-3.310100 1.109100
-3.287900 1.113800
-3.265800 1.125100
-3.243600 1.137400
-3.221400 1.152100
-3.199300 1.195000
-3.177100 1.324500
-3.154900 1.492600
-3.132800 1.976200
-3.110600 1.977800
-3.088500 1.878100
-3.066300 1.872000
-3.044100 1.806500
-3.022000 1.730100
-2.999800 1.706800
-2.977700 1.684200
-2.955500 1.696900
-2.933300 1.695300
-2.911200 1.700800
-2.889000 1.620800
-2.866800 1.345400
-2.844700 0.943700
-2.822500 0.675100
-2.800400 0.408100
-2.778200 0.173300
-2.756000 0.021300
-2.733900 0.144600
-2.711700 0.269300
-2.689600 0.337300
-2.667400 0.415900
-2.645200 0.520900
-2.623100 0.618700
-2.600900 0.689800
-2.578800 0.738200
-2.556600 0.761800
-2.534400 0.765200
-2.512300 0.765200
-2.490100 0.760500
-2.467900 0.762200
-2.445800 0.767200
-2.423600 0.766900
-2.401500 0.773700
-2.379300 0.783600
-2.357100 0.790600
-2.335000 0.796000
-2.312800 0.797500
-2.290700 0.797100
-2.268500 0.793400
-2.246300 0.792700
-2.224200 0.794200
-2.202000 0.799700
-2.179800 0.805900
-2.157700 0.812700
-2.135500 0.820200
-2.113400 0.828100
-2.091200 0.836200
-2.069000 0.842700
-2.046900 0.848800
-2.024700 0.854000
-2.002600 0.857800
-1.980400 0.862300
-1.958200 0.868000
-1.936100 0.875900
-1.913900 0.887800
-1.891700 0.902800
-1.869600 0.918800
-1.847400 0.936300
-1.825300 0.955100
-1.803100 0.975200
-1.780900 0.998400
-1.758800 1.024400
-1.736600 1.053600
-1.714500 1.088800
-1.692300 1.128900
-1.670100 1.175800
-1.648000 1.188500
-1.625800 1.195400
-1.603600 1.219200
-1.581500 1.228800
-1.559300 1.214900
-1.537200 1.187500
-1.515000 1.110900
-1.492800 1.052700
-1.470700 1.046100
-1.448500 1.036100
-1.426400 1.009500
-1.404200 0.981400
-1.382000 0.974300
-1.359900 0.971000
-1.337700 0.974900
-1.315500 0.978200
-1.293400 0.979200
-1.271200 0.981100
-1.249100 0.981800
-1.226900 0.993100
-1.204700 1.014500
-1.182600 1.039800
-1.160400 1.068700
-1.138300 1.104400
-1.116100 1.151800
-1.093900 1.240300
-1.071800 1.233500
-1.049600 1.220100
-1.027400 1.192800
-1.005300 1.123100
-0.983100 1.057600
-0.961000 0.974600
-0.938800 0.951200
-0.916600 0.932500
-0.894500 0.911600
-0.872300 0.888900
-0.850200 0.872200
-0.828000 0.864500
-0.805800 0.861300
-0.783700 0.862000
-0.761500 0.870800
-0.739300 0.941400
-0.717200 0.939100
-0.695000 0.919800
-0.672900 0.851300
-0.650700 0.710800
-0.628500 0.618200
-0.606400 0.567500
-0.584200 0.522300
-0.562100 0.468000
-0.539900 0.420900
-0.517700 0.368300
-0.495600 0.312100
-0.473400 0.273300
-0.451300 0.274400
-0.429100 0.103300
-0.406900 0.018900
-0.384800 0.001100
-0.362600 0.013200
-0.340400 0.041200
-0.318300 0.084900
-0.296100 0.145500
-0.274000 0.227800
-0.251800 0.325500
-0.229600 0.400400
-0.207500 0.431500
-0.185300 0.455500
-0.163200 0.514700
-0.141000 0.557800
-0.118800 0.611800
-0.096700 0.645900
-0.074500 0.572100
-0.052300 0.559800
-0.030200 0.581100
-0.008000 0.618800
0.014100 0.666300
0.036300 0.710900
0.058500 0.756900
0.080600 0.804200
0.102800 0.850000
0.124900 0.891200
0.147100 0.925100
0.169300 0.959100
0.191400 0.990700
0.213600 1.022600
0.235800 1.070700
0.257900 1.147500
0.280100 1.262000
0.302200 1.328300
0.324400 1.370400
0.346600 1.390200
0.368700 1.365400
0.390900 1.364100
0.413000 1.370600
0.435200 1.373900
0.457400 1.371500
0.479500 1.357100
0.501700 1.328000
0.523900 1.307700
0.546000 1.299800
0.568200 1.300900
0.590300 1.333500
0.612500 1.445100
0.634700 1.620600
0.656800 1.639000
0.679000 1.705200
0.701100 1.781800
0.723300 1.938900
0.745500 1.964400
0.767600 2.055400
0.789800 2.114700
0.812000 2.139600
0.834100 2.182900
0.856300 2.244200
0.878400 2.297500
0.900600 2.264800
0.922800 2.313800
0.944900 2.363200
0.967100 2.245100
0.989200 2.119300
1.011400 2.010700
1.033600 1.909800
1.055700 1.824200
1.077900 1.750200
1.100100 1.676900
1.122200 1.592100
1.144400 1.506300
1.166500 1.439100
1.188700 1.401500
1.210900 1.381200
1.233000 1.381600
1.255200 1.402300
1.277300 1.435900
1.299500 1.457100
1.321700 1.493900
1.343800 1.526100
1.366000 1.564700
1.388100 1.618500
1.410300 1.764200
1.432500 1.853500
1.454600 1.931500
1.476800 2.041400
1.499000 2.107300
1.521100 2.075200
1.543300 2.167700
1.565400 2.244800
1.587600 2.323800
1.609800 2.268300
1.631900 2.225100
1.654100 2.200200
1.676200 2.226900
1.698400 2.193400
1.720600 2.203600
1.742700 2.194600
1.764900 2.166100
1.787100 2.114400
1.809200 2.081900
1.831400 2.030400
1.853500 1.907700
1.875700 1.770900
1.897900 1.659900
1.920000 1.562500
1.942200 1.473100
1.964300 1.407200
1.986500 1.338800
2.008700 1.267500
2.030800 1.193000
2.053000 1.144700
2.075200 1.059600
2.097300 1.069600
2.119500 1.117300
2.141600 1.223300
2.163800 1.273100
2.186000 1.332700
2.208100 1.387600
2.230300 1.429700
2.252400 1.490700
2.274600 1.556400
2.296800 1.626400
2.318900 1.709500
2.341100 1.825500
2.363300 1.923900
2.385400 2.017300
2.407600 2.101200
2.429700 2.250900
2.451900 2.522400
2.474100 2.885700
2.496200 2.924000
2.518400 2.956600
2.540500 2.978000
2.562700 2.931300
2.584900 2.756100
2.607000 2.641600
2.629200 2.617100
2.651400 2.503400
2.673500 2.325100
2.695700 2.173800
2.717800 2.042400
2.740000 1.955100
2.762200 1.942300
2.784300 1.917400
2.806500 1.860200
2.828600 1.867400
2.850800 1.883700
2.873000 1.867700
2.895100 1.843000
2.917300 1.800800
2.939500 1.709000
2.961600 1.618600
2.983800 1.576000
3.005900 1.566200
3.028100 1.587000
3.050300 1.655100
3.072400 1.785700
3.094600 1.903000
3.116700 2.142700
3.138900 2.448800
3.161100 2.511000
3.183200 2.545600
3.205400 2.629900
3.227500 2.733700
3.249700 2.768900
3.271900 2.739300
3.294000 2.679400
3.316200 2.652800
3.338400 2.617300
3.360500 2.638700
3.382700 2.669800
3.404800 2.665500
3.427000 2.618200
3.449200 2.541800
3.471300 2.490200
3.493500 2.420800
3.515600 2.307800
3.537800 2.247700
3.560000 2.279200
3.582100 2.333800
3.604300 2.342700
3.626500 2.401600
3.648600 2.459900
3.670800 2.505200
3.692900 2.507500
3.715100 2.422300
3.737300 2.355800
3.759400 2.351900
3.781600 2.370200
3.803700 2.376500
3.825900 2.388800
3.848100 2.422800
3.870200 2.451600
3.892400 2.413700
3.914600 2.350900
3.936700 2.333300
3.958900 2.369900
3.981000 2.396100
4.003200 2.412500
4.025400 2.418100
4.047500 2.455200
4.069700 2.490000
4.091800 2.542900
4.114000 2.637400
4.136200 2.794000
4.158300 2.841200
4.180500 2.873300
4.202700 2.959700
4.224800 3.095700
4.247000 3.220300
4.269100 3.191000
4.291300 3.129000
4.313500 3.177100
4.335600 3.155200
4.357800 3.039800
4.379900 3.057000
4.402100 2.961600
4.424300 2.917700
4.446400 2.881600
4.468600 2.851500
4.490800 2.943500
4.512900 2.947000
4.535100 2.962800
4.557200 2.955600
4.579400 2.990900
4.601600 3.081800
4.623700 3.078000
4.645900 3.033500
4.668000 3.062200
4.690200 3.060600
4.712400 3.101200
4.734500 3.094500
4.756700 3.148100
4.778900 3.259000
4.801000 3.378200
4.823200 3.514800
4.845300 3.445900
4.867500 3.356300
4.889700 3.323000
4.911800 3.337800
4.934000 3.451300
4.956100 3.460500
4.978300 3.273600
5.000500 3.084000
5.022600 2.721500
5.044800 2.555600
5.067000 2.464100
5.089100 2.371000
5.111300 2.200700
5.133400 2.130300
5.155600 1.984000
5.177800 1.910600
5.199900 1.879800
5.222100 1.908100
5.244200 1.918700
5.266400 1.951300
5.288600 2.008100
5.310700 2.058500
5.332900 2.121800
5.355000 2.141400
5.377200 2.219000
5.399400 2.279000
5.421500 2.305900
5.443700 2.270900
5.465900 2.301500
5.488000 2.321500
5.510200 2.382700
5.532300 2.433700
5.554500 2.564400
5.576700 2.540600
5.598800 2.339200
5.621000 2.110000
5.643100 1.930700
5.665300 1.800500
5.687500 1.697000
5.709600 1.632700
5.731800 1.598300
5.754000 1.585500
5.776100 1.580500
5.798300 1.614800
5.820400 1.638800
5.842600 1.657300
5.864800 1.686100
5.886900 1.745100
5.909100 1.832800
5.931200 1.894200
5.953400 1.978300
5.975600 2.142000
5.997700 2.205100
6.019900 2.233700
6.042100 2.313000
6.064200 2.345600
6.086400 2.390400
6.108500 2.417200
6.130700 2.463500
6.152900 2.519700
6.175000 2.606500
6.197200 2.714600
6.219300 2.776300
6.241500 2.765900
6.263700 2.802900
6.285800 2.851500
6.308000 2.882000
6.330200 2.849300
6.352300 2.920000
6.374500 2.821400
6.396600 2.814000
6.418800 2.795300
6.441000 2.769200
6.463100 2.636900
6.485300 2.512400
6.507400 2.496100
6.529600 2.480700
6.551800 2.493600
6.573900 2.493300
6.596100 2.478800
6.618300 2.460400
6.640400 2.462500
6.662600 2.468400
6.684700 2.497600
6.706900 2.526900
6.729100 2.483600
6.751200 2.469500
6.773400 2.489400
6.795500 2.487200
6.817700 2.513700
6.839900 2.561900
6.862000 2.605600
6.884200 2.678000
6.906400 2.703000
6.928500 2.592200
6.950700 2.427500
6.972800 2.197800
6.995000 2.085400
7.017200 2.053900
7.039300 1.965300
7.061500 1.783000
7.083600 1.679200
7.105800 1.509600
7.128000 1.476500
7.150100 1.493400
7.172300 1.507000
7.194400 1.508300
7.216600 1.522500
7.238800 1.526600
7.260900 1.468000
7.283100 1.445700
7.305300 1.447900
7.327400 1.471600
7.349600 1.505800
7.371700 1.550500
7.393900 1.615000
7.416100 1.682000
7.438200 1.753100
7.460400 1.839600
7.482500 1.806300
7.504700 1.815700
7.526900 1.817900
7.549000 1.822900
7.571200 1.828800
7.593400 1.827600
7.615500 1.886100
7.637700 1.887100
7.659800 1.853200
7.682000 1.847800
7.704200 1.835600
7.726300 1.824600
7.748500 1.813900
7.770600 1.806500
7.792800 1.837500
7.815000 1.884400
7.837100 1.940500
7.859300 2.023100
7.881500 2.123800
7.903600 2.186800
7.925800 2.147300
7.947900 2.086600
7.970100 2.080800
7.992300 2.035500
8.014400 1.970200
8.036600 1.965300
8.058700 1.959600
8.080900 1.918100
8.103100 1.836300
8.125200 1.828100
8.147400 1.837600
8.169600 1.805300
8.191700 1.642800
8.213900 1.561100
8.236000 1.493300
8.258200 1.426200
8.280400 1.380800
8.302500 1.375300
8.324700 1.438800
8.346800 1.201100
8.369000 0.904900
8.391200 0.796900
8.413300 0.708100
8.435500 0.665700
8.457700 0.628700
8.479800 0.603800
8.502000 0.582500
8.524100 0.565000
8.546300 0.517700
8.568500 0.449900
8.590600 0.405600
8.612800 0.367400
8.634900 0.333000
8.657100 0.298600
8.679300 0.283600
8.701400 0.220800
8.723600 0.207600
8.745800 0.205100
8.767900 0.186900
8.790100 0.168600
8.812200 0.166000
8.834400 0.174800
8.856600 0.221000
8.878700 0.258100
8.900900 0.284500
8.923000 0.310600
8.945200 0.339000
8.967400 0.371900
8.989500 0.409000
9.011700 0.456500
9.033900 0.517200
9.056000 0.579100
9.078200 0.632900
9.100300 0.672900
9.122500 0.714500
9.144700 0.744000
9.166800 0.782200
9.189000 0.855500
9.211100 0.910300
9.233300 0.894700
9.255500 0.863900
9.277600 0.854700
9.299800 0.858000
9.321900 0.874500
9.344100 0.896900
9.366300 0.922400
9.388400 0.949000
9.410600 0.981100
9.432800 1.014700
9.454900 1.052200
9.477100 1.088700
9.499200 1.122600
9.521400 1.172600
9.543600 1.210900
9.565700 1.266900
9.587900 1.295000
9.610000 1.310800
9.632200 1.311000
9.654400 1.326000
9.676500 1.337000
9.698700 1.346700
9.720900 1.333600
9.743000 1.367500
9.765200 1.424000
9.787300 1.474500
9.809500 1.530700
9.831700 1.602200
9.853800 1.718900
9.876000 1.776600
9.898100 1.851100
9.920300 1.931600
9.942500 2.023700
9.964600 2.074300
9.986800 2.078200
10.009000 2.094200
10.031100 2.101200
10.053300 2.158000
10.075400 2.249800
10.097600 2.379200
10.119800 2.512700
10.141900 2.598600
10.164100 2.643600
10.186200 2.640100
10.208400 2.533400
10.230600 2.456900
10.252700 2.352600
10.274900 2.301200
10.297100 2.182300
10.319200 2.122300
10.341400 2.108800
10.363500 2.016000
10.385700 1.891500
10.407900 1.809700
10.430000 1.785800
10.452200 1.784600
10.474300 1.748000
10.496500 1.720200
10.518700 1.693200
10.540800 1.665500
10.563000 1.647900
10.585200 1.634200
10.607300 1.621200
10.629500 1.644500
10.651600 1.576000
10.673800 1.565300
10.696000 1.564500
10.718100 1.578600
10.740300 1.594900
10.762400 1.604300
10.784600 1.593600
10.806800 1.588000
10.828900 1.583000
10.851100 1.584100
10.873300 1.599500
10.895400 1.629100
10.917600 1.674900
10.939700 1.740600
10.961900 1.843600
10.984100 1.961100
11.006200 2.078300
11.028400 2.213200
11.050500 2.229900
11.072700 2.265200
11.094900 2.299900
11.117000 2.342100
11.139200 2.381700
11.161300 2.417800
11.183500 2.465000
11.205700 2.475400
11.227800 2.532900
11.250000 2.539000
11.272200 2.584600
11.294300 2.647600
11.316500 2.713800
11.338600 2.728000
11.360800 2.810500
11.383000 2.824600
11.405100 2.853000
11.427300 2.863200
11.449400 2.902000
11.471600 2.729300
11.493800 2.600000
11.515900 2.465300
11.538100 2.350500
11.560300 2.336400
11.582400 2.346500
11.604600 2.309500
11.626700 2.273000
11.648900 2.254000
11.671100 2.311700
11.693200 2.357200
11.715400 2.361100
11.737500 2.383400
11.759700 2.450300
11.781900 2.532400
11.804000 2.606500
11.826200 2.628900
11.848400 2.580600
11.870500 2.562800
11.892700 2.598000
11.914800 2.651600
11.937000 2.664500
11.959200 2.595100
11.981300 2.529200
12.003500 2.484200
12.025600 2.482000
12.047800 2.481300
12.070000 2.482800
12.092100 2.444700
12.114300 2.403600
12.136500 2.382700
12.158600 2.383800
12.180800 2.398100
12.202900 2.403000
12.225100 2.427700
12.247300 2.476400
12.269400 2.523800
12.291600 2.545500
12.313700 2.586400
12.335900 2.648900
12.358100 2.713500
12.380200 2.779800
12.402400 2.874900
12.424600 2.923300
12.446700 2.969200
12.468900 2.969000
12.491000 2.939900
12.513200 2.920100
12.535400 2.927100
12.557500 2.889700
12.579700 2.802000
12.601800 2.777800
12.624000 2.798400
12.646200 2.857200
12.668300 2.849400
12.690500 2.781700
12.712700 2.739000
12.734800 2.726800
12.757000 2.708700
12.779100 2.657700
12.801300 2.633700
12.823500 2.579800
12.845600 2.531100
12.867800 2.428900
12.889900 2.425600
12.912100 2.453000
12.934300 2.512100
12.956400 2.566500
12.978600 2.588000
13.000800 2.482500
13.022900 2.518300
13.045100 2.546800
13.067200 2.592300
13.089400 2.561400
13.111600 2.513100
13.133700 2.612400
13.155900 2.842200
13.178000 2.983800
13.200200 3.067400
13.222400 2.947000
13.244500 2.782100
13.266700 2.674800
13.288800 2.613900
13.311000 2.692600
13.333200 3.047600
13.355300 3.115400
13.377500 2.946000
13.399700 2.884000
13.421800 2.868900
13.444000 2.904500
13.466100 2.914200
13.488300 2.959000
13.510500 3.016100
13.532600 3.120100
13.554800 3.460600
13.576900 3.426700
13.599100 3.461500
13.621300 3.351500
13.643400 3.174300
13.665600 3.041000
13.687800 2.924400
13.709900 2.775400
13.732100 2.756300
13.754200 2.623100
13.776400 2.555300
13.798600 2.542700
13.820700 2.537000
13.842900 2.631900
13.865000 2.791900
13.887200 2.866400
13.909400 3.054500
13.931500 3.276800
13.953700 3.483700
13.975900 3.651100
13.998000 3.755600
14.020200 3.765100
14.042300 3.806800
14.064500 3.745200
14.086700 3.660700
14.108800 3.629400
14.131000 3.603600
14.153100 3.514900
14.175300 3.441500
14.197500 3.341000
14.219600 3.298200
14.241800 3.166800
14.264000 3.142700
14.286100 3.158600
14.308300 3.123500
14.330400 3.172900
14.352600 3.182300
14.374800 3.167200
14.396900 3.188200
14.419100 3.322500
14.441200 3.473300
14.463400 3.533200
