set title 'mp-1120447 - Density of States'
set xlabel 'Energy (eV)'
set ylabel 'DOS (states/eV)'
set grid
set xrange [-10:10]
set yrange [0:6.757]
set xzeroaxis lt -1
set terminal png size 800,600
set output 'mp-1120447_dos_gnuplot.png'
plot '-' using 1:2 with lines title 'DOS'
-8.495400 0.000000
-8.480900 0.000000
-8.466400 0.000000
-8.451900 0.000000
-8.437400 0.000000
-8.422900 0.000000
-8.408300 0.000000
-8.393800 0.000000
-8.379300 0.000000
-8.364800 0.000000
-8.350300 0.000000
-8.335800 0.000000
-8.321300 0.000000
-8.306800 0.000000
-8.292300 0.000000
-8.277700 0.000000
-8.263200 0.000000
-8.248700 0.000000
-8.234200 0.000000
-8.219700 0.000000
-8.205200 0.000000
-8.190700 0.000000
-8.176200 0.000000
-8.161700 0.000000
-8.147100 0.000000
-8.132600 0.000000
-8.118100 0.000000
-8.103600 0.000000
-8.089100 0.000000
-8.074600 0.000000
-8.060100 0.000000
-8.045600 0.000000
-8.031100 0.000000
-8.016500 0.000000
-8.002000 0.000000
-7.987500 0.000000
-7.973000 0.000000
-7.958500 0.000000
-7.944000 0.000000
-7.929500 0.000000
-7.915000 0.000000
-7.900500 0.000000
-7.885900 0.000000
-7.871400 0.000000
-7.856900 0.000000
-7.842400 0.000000
-7.827900 0.000000
-7.813400 0.000000
-7.798900 0.000000
-7.784400 0.000000
-7.769900 0.000000
-7.755300 0.000000
-7.740800 0.000000
-7.726300 0.000000
-7.711800 0.000000
-7.697300 0.000000
-7.682800 0.000000
-7.668300 0.000000
-7.653800 0.000000
-7.639300 0.000000
-7.624700 0.000000
-7.610200 0.000000
-7.595700 0.000000
-7.581200 0.000000
-7.566700 0.000000
-7.552200 0.000000
-7.537700 0.000000
-7.523200 0.000000
-7.508700 0.000000
-7.494100 0.000000
-7.479600 0.000000
-7.465100 0.000000
-7.450600 0.000000
-7.436100 0.000000
-7.421600 0.000000
-7.407100 0.000000
-7.392600 0.000000
-7.378100 0.000000
-7.363500 0.000000
-7.349000 0.000000
-7.334500 0.000000
-7.320000 0.000000
-7.305500 0.000000
-7.291000 0.000000
-7.276500 0.000000
-7.262000 0.000000
-7.247500 0.000000
-7.232900 0.000000
-7.218400 0.000000
-7.203900 0.000000
-7.189400 0.000000
-7.174900 0.000200
-7.160400 0.032400
-7.145900 0.119100
-7.131400 0.259700
-7.116900 0.401200
-7.102300 0.466900
-7.087800 0.476800
-7.073300 0.513100
-7.058800 0.563400
-7.044300 0.615400
-7.029800 0.667500
-7.015300 0.717600
-7.000800 0.764000
-6.986300 0.805500
-6.971700 0.843000
-6.957200 0.878800
-6.942700 0.916900
-6.928200 0.947900
-6.913700 0.984500
-6.899200 1.022200
-6.884700 1.059500
-6.870200 1.096700
-6.855700 1.134800
-6.841100 1.175300
-6.826600 1.218000
-6.812100 1.262800
-6.797600 1.309600
-6.783100 1.357400
-6.768600 1.405600
-6.754100 1.453000
-6.739600 1.501900
-6.725100 1.560100
-6.710500 1.660300
-6.696000 1.766000
-6.681500 1.863400
-6.667000 1.927400
-6.652500 1.945700
-6.638000 1.966800
-6.623500 1.997800
-6.609000 2.027900
-6.594500 2.044000
-6.579900 2.136400
-6.565400 2.037500
-6.550900 2.042400
-6.536400 2.048400
-6.521900 2.052500
-6.507400 2.056700
-6.492900 2.054800
-6.478400 2.061500
-6.463900 2.066900
-6.449300 2.071100
-6.434800 2.079800
-6.420300 2.099000
-6.405800 2.124400
-6.391300 2.194200
-6.376800 2.247000
-6.362300 2.232500
-6.347800 2.177800
-6.333300 2.148400
-6.318700 2.148100
-6.304200 2.151700
-6.289700 2.140400
-6.275200 2.115200
-6.260700 2.078100
-6.246200 2.023500
-6.231700 1.951100
-6.217200 1.892700
-6.202700 1.841500
-6.188100 1.794900
-6.173600 1.750600
-6.159100 1.722600
-6.144600 1.720700
-6.130100 1.717700
-6.115600 1.610000
-6.101100 1.452900
-6.086600 1.355800
-6.072100 1.290900
-6.057500 1.239900
-6.043000 1.202900
-6.028500 1.172000
-6.014000 1.134200
-5.999500 1.087100
-5.985000 1.041500
-5.970500 0.999400
-5.956000 0.966200
-5.941500 0.937100
-5.926900 0.915900
-5.912400 1.106500
-5.897900 1.135500
-5.883400 1.063600
-5.868900 1.080300
-5.854400 1.095300
-5.839900 1.113500
-5.825400 1.141700
-5.810900 1.175000
-5.796300 1.173000
-5.781800 1.153700
-5.767300 1.150400
-5.752800 1.157500
-5.738300 1.201500
-5.723800 1.224700
-5.709300 1.202200
-5.694800 1.161700
-5.680300 1.121600
-5.665700 1.062700
-5.651200 1.014200
-5.636700 0.950600
-5.622200 0.897200
-5.607700 0.881600
-5.593200 0.875100
-5.578700 0.881400
-5.564200 0.894100
-5.549700 0.908500
-5.535100 0.922700
-5.520600 0.936200
-5.506100 0.949300
-5.491600 0.962200
-5.477100 0.975300
-5.462600 0.987900
-5.448100 1.001300
-5.433600 1.015200
-5.419100 1.034100
-5.404500 1.063000
-5.390000 1.102700
-5.375500 1.168500
-5.361000 1.205300
-5.346500 1.265700
-5.332000 1.374300
-5.317500 1.395400
-5.303000 1.416600
-5.288500 1.401000
-5.273900 1.385500
-5.259400 1.375900
-5.244900 1.373300
-5.230400 1.382200
-5.215900 1.397500
-5.201400 1.409000
-5.186900 1.414900
-5.172400 1.421900
-5.157900 1.429700
-5.143300 1.438800
-5.128800 1.450500
-5.114300 1.465400
-5.099800 1.485000
-5.085300 1.494000
-5.070800 1.468900
-5.056300 1.430100
-5.041800 1.389000
-5.027300 1.354500
-5.012700 1.326600
-4.998200 1.305200
-4.983700 1.289000
-4.969200 1.272900
-4.954700 1.256200
-4.940200 1.243000
-4.925700 1.232000
-4.911200 1.222500
-4.896700 1.214400
-4.882100 1.207300
-4.867600 1.201100
-4.853100 1.196400
-4.838600 1.192900
-4.824100 1.190600
-4.809600 1.189300
-4.795100 1.189200
-4.780600 1.190500
-4.766100 1.193300
-4.751500 1.197500
-4.737000 1.203100
-4.722500 1.209700
-4.708000 1.217200
-4.693500 1.225800
-4.679000 1.236000
-4.664500 1.247800
-4.650000 1.261300
-4.635500 1.276700
-4.620900 1.294600
-4.606400 1.314200
-4.591900 1.335400
-4.577400 1.362400
-4.562900 1.397300
-4.548400 1.444800
-4.533900 1.533300
-4.519400 1.606200
-4.504900 1.670200
-4.490300 1.728400
-4.475800 1.770000
-4.461300 1.814200
-4.446800 1.845800
-4.432300 1.764300
-4.417800 1.662400
-4.403300 1.572800
-4.388800 1.511900
-4.374300 1.490200
-4.359700 1.487100
-4.345200 1.529200
-4.330700 1.621500
-4.316200 1.712600
-4.301700 1.867300
-4.287200 2.112800
-4.272700 2.195000
-4.258200 2.269700
-4.243700 2.327400
-4.229100 2.592600
-4.214600 2.381600
-4.200100 2.123600
-4.185600 1.992700
-4.171100 1.949400
-4.156600 1.949400
-4.142100 1.952800
-4.127600 1.958000
-4.113100 1.975100
-4.098500 1.999900
-4.084000 2.027200
-4.069500 2.041700
-4.055000 2.038100
-4.040500 2.034400
-4.026000 2.037900
-4.011500 2.065800
-3.997000 2.100500
-3.982500 2.143500
-3.967900 2.185600
-3.953400 2.223800
-3.938900 2.265500
-3.924400 2.320400
-3.909900 2.409900
-3.895400 2.459500
-3.880900 2.520500
-3.866400 2.600500
-3.851900 2.691200
-3.837300 2.722800
-3.822800 2.703300
-3.808300 2.749700
-3.793800 2.556800
-3.779300 2.532300
-3.764800 2.524600
-3.750300 2.543400
-3.735800 2.468500
-3.721300 2.420500
-3.706700 2.349900
-3.692200 2.294700
-3.677700 2.260400
-3.663200 2.225400
-3.648700 2.177700
-3.634200 2.075600
-3.619700 1.987100
-3.605200 1.916400
-3.590700 1.851000
-3.576100 1.783200
-3.561600 1.722700
-3.547100 1.703100
-3.532600 1.701200
-3.518100 1.702800
-3.503600 1.740400
-3.489100 1.805400
-3.474600 1.881900
-3.460100 1.963300
-3.445500 2.028000
-3.431000 1.974700
-3.416500 1.897200
-3.402000 1.842600
-3.387500 1.800700
-3.373000 1.779900
-3.358500 1.769800
-3.344000 1.771600
-3.329500 1.771700
-3.314900 1.776100
-3.300400 1.785900
-3.285900 1.812200
-3.271400 1.837000
-3.256900 1.871800
-3.242400 1.903600
-3.227900 1.914200
-3.213400 1.926000
-3.198900 1.939100
-3.184300 1.950300
-3.169800 1.971600
-3.155300 2.100300
-3.140800 2.395100
-3.126300 2.229100
-3.111800 2.296300
-3.097300 2.390500
-3.082800 2.536400
-3.068300 2.736100
-3.053700 2.932600
-3.039200 2.815800
-3.024700 2.842400
-3.010200 2.954900
-2.995700 3.017000
-2.981200 3.178800
-2.966700 3.235500
-2.952200 3.258000
-2.937700 3.299600
-2.923100 3.368300
-2.908600 3.497400
-2.894100 3.745800
-2.879600 3.827100
-2.865100 3.569900
-2.850600 3.472400
-2.836100 3.328300
-2.821600 3.207700
-2.807100 3.149300
-2.792500 3.082300
-2.778000 3.023500
-2.763500 2.968800
-2.749000 2.923300
-2.734500 2.918400
-2.720000 2.846800
-2.705500 2.795800
-2.691000 2.769200
-2.676500 2.775900
-2.661900 2.744000
-2.647400 2.713700
-2.632900 2.708000
-2.618400 2.700300
-2.603900 2.640100
-2.589400 2.570900
-2.574900 2.505400
-2.560400 2.446200
-2.545900 2.391700
-2.531300 2.347000
-2.516800 2.312500
-2.502300 2.287900
-2.487800 2.263000
-2.473300 2.235800
-2.458800 2.215400
-2.444300 2.213400
-2.429800 2.212200
-2.415300 2.200200
-2.400700 2.193600
-2.386200 2.191000
-2.371700 2.180900
-2.357200 2.176700
-2.342700 2.182700
-2.328200 2.194400
-2.313700 2.206300
-2.299200 2.217300
-2.284700 2.223400
-2.270100 2.226300
-2.255600 2.220400
-2.241100 2.204000
-2.226600 2.185900
-2.212100 2.176700
-2.197600 2.175000
-2.183100 2.148800
-2.168600 2.105600
-2.154100 2.092900
-2.139500 2.083200
-2.125000 2.069900
-2.110500 2.046700
-2.096000 2.030300
-2.081500 2.022200
-2.067000 2.016900
-2.052500 2.005500
-2.038000 2.008900
-2.023500 2.006100
-2.008900 2.009900
-1.994400 2.010700
-1.979900 2.026900
-1.965400 2.047800
-1.950900 2.043300
-1.936400 2.036800
-1.921900 2.031600
-1.907400 2.028500
-1.892900 2.025400
-1.878300 2.021200
-1.863800 2.020000
-1.849300 2.024800
-1.834800 2.029400
-1.820300 2.035300
-1.805800 2.042300
-1.791300 2.033900
-1.776800 2.042200
-1.762300 2.063800
-1.747700 2.081000
-1.733200 2.085700
-1.718700 2.081700
-1.704200 2.078100
-1.689700 2.084000
-1.675200 2.158600
-1.660700 2.196200
-1.646200 2.176400
-1.631700 2.122100
-1.617100 2.071400
-1.602600 2.090100
-1.588100 2.102900
-1.573600 2.057900
-1.559100 2.049800
-1.544600 2.053900
-1.530100 2.066500
-1.515600 2.086800
-1.501100 2.106100
-1.486500 2.115000
-1.472000 2.143700
-1.457500 2.179900
-1.443000 2.200600
-1.428500 2.209000
-1.414000 2.217500
-1.399500 2.234200
-1.385000 2.251800
-1.370500 2.270600
-1.355900 2.291100
-1.341400 2.317800
-1.326900 2.324800
-1.312400 2.315500
-1.297900 2.291800
-1.283400 2.247100
-1.268900 2.204200
-1.254400 2.177700
-1.239900 2.177600
-1.225300 2.228900
-1.210800 2.306900
-1.196300 2.342600
-1.181800 2.122900
-1.167300 1.978600
-1.152800 1.827100
-1.138300 1.677700
-1.123800 1.626400
-1.109300 1.603400
-1.094700 1.566800
-1.080200 1.527800
-1.065700 1.499000
-1.051200 1.474400
-1.036700 1.467800
-1.022200 1.459900
-1.007700 1.455500
-0.993200 1.461200
-0.978700 1.501200
-0.964100 1.541200
-0.949600 1.568400
-0.935100 1.625100
-0.920600 1.714500
-0.906100 1.752800
-0.891600 1.751000
-0.877100 1.712100
-0.862600 1.651800
-0.848100 1.589100
-0.833500 1.532300
-0.819000 1.497600
-0.804500 1.473600
-0.790000 1.449700
-0.775500 1.431300
-0.761000 1.505500
-0.746500 1.473000
-0.732000 1.435600
-0.717500 1.466700
-0.702900 1.547800
-0.688400 1.656800
-0.673900 1.780400
-0.659400 1.839800
-0.644900 1.839500
-0.630400 1.856200
-0.615900 1.922600
-0.601400 2.014600
-0.586900 2.130200
-0.572300 2.260100
-0.557800 2.386000
-0.543300 2.495300
-0.528800 2.610400
-0.514300 2.680000
-0.499800 2.657800
-0.485300 2.764000
-0.470800 2.955200
-0.456300 2.989200
-0.441700 3.083500
-0.427200 3.156500
-0.412700 3.070800
-0.398200 3.088200
-0.383700 3.053400
-0.369200 2.970600
-0.354700 2.923800
-0.340200 2.909300
-0.325700 2.913800
-0.311100 2.949500
-0.296600 3.060200
-0.282100 3.326100
-0.267600 3.570200
-0.253100 3.821800
-0.238600 4.040800
-0.224100 4.325600
-0.209600 4.245500
-0.195100 4.136200
-0.180500 4.278400
-0.166000 4.355300
-0.151500 4.295800
-0.137000 4.203200
-0.122500 4.142200
-0.108000 4.047400
-0.093500 3.929100
-0.079000 3.860200
-0.064400 3.744900
-0.049900 3.407400
-0.035400 3.280300
-0.020900 3.277400
-0.006400 3.143900
0.008100 2.898000
0.022600 2.689200
0.037100 2.303700
0.051600 2.095600
0.066200 2.014200
0.080700 2.001800
0.095200 1.980900
0.109700 1.944300
0.124200 1.872100
0.138700 1.771400
0.153200 1.694500
0.167700 1.623400
0.182200 1.565300
0.196800 1.481400
0.211300 1.329700
0.225800 1.230100
0.240300 1.222100
0.254800 1.212700
0.269300 1.204300
0.283800 1.196900
0.298300 1.190900
0.312800 1.186100
0.327400 1.201000
0.341900 1.223300
0.356400 1.235700
0.370900 1.244100
0.385400 1.257400
0.399900 1.273900
0.414400 1.294400
0.428900 1.316000
0.443400 1.338000
0.458000 1.358400
0.472500 1.381600
0.487000 1.411200
0.501500 1.442300
0.516000 1.473000
0.530500 1.506300
0.545000 1.546000
0.559500 1.604000
0.574000 1.663600
0.588600 1.717500
0.603100 1.784100
0.617600 1.868600
0.632100 1.961500
0.646600 2.032100
0.661100 2.092000
0.675600 2.181300
0.690100 2.349100
0.704600 2.444900
0.719200 2.498700
0.733700 2.522000
0.748200 2.523200
0.762700 2.523000
0.777200 2.526900
0.791700 2.588300
0.806200 2.621200
0.820700 2.717200
0.835200 2.712100
0.849800 2.639200
0.864300 2.563500
0.878800 2.515100
0.893300 2.471500
0.907800 2.433800
0.922300 2.404700
0.936800 2.385200
0.951300 2.424900
0.965800 2.482900
0.980400 2.483000
0.994900 2.505400
1.009400 2.522100
1.023900 2.521200
1.038400 2.537900
1.052900 2.703900
1.067400 2.946300
1.081900 3.077200
1.096400 3.110300
1.111000 3.176200
1.125500 3.124000
1.140000 3.040600
1.154500 2.948700
1.169000 2.911000
1.183500 2.903000
1.198000 2.926500
1.212500 2.961100
1.227000 2.972400
1.241600 2.968400
1.256100 2.950700
1.270600 2.941400
1.285100 2.974600
1.299600 3.042000
1.314100 3.125100
1.328600 3.227300
1.343100 3.256900
1.357600 3.262500
1.372200 3.241400
1.386700 3.249600
1.401200 3.302600
1.415700 3.397900
1.430200 3.494700
1.444700 3.541500
1.459200 3.553700
1.473700 3.544600
1.488200 3.583400
1.502800 3.637500
1.517300 3.725800
1.531800 3.726900
1.546300 3.609500
1.560800 3.440000
1.575300 3.441300
1.589800 3.446200
1.604300 3.460100
1.618800 3.460000
1.633400 3.493100
1.647900 3.559600
1.662400 3.537900
1.676900 3.531800
1.691400 3.591000
1.705900 3.626100
1.720400 3.591100
1.734900 3.518000
1.749400 3.424200
1.764000 3.345400
1.778500 3.281200
1.793000 3.197100
1.807500 3.096700
1.822000 3.034400
1.836500 3.146200
1.851000 3.282200
1.865500 3.511100
1.880000 3.651300
1.894600 3.763300
1.909100 3.847900
1.923600 3.920200
1.938100 4.029300
1.952600 4.116500
1.967100 4.162300
1.981600 4.191100
1.996100 4.203200
2.010600 4.203200
2.025200 4.169000
2.039700 4.148700
2.054200 4.156600
2.068700 4.222600
2.083200 4.224900
2.097700 4.194300
2.112200 4.179800
2.126700 4.057400
2.141200 3.953700
2.155800 3.991300
2.170300 3.797400
2.184800 3.696300
2.199300 3.652600
2.213800 3.662900
2.228300 3.609900
2.242800 3.479500
2.257300 3.355100
2.271800 3.268700
2.286400 3.238300
2.300900 3.261500
2.315400 3.340500
2.329900 3.393200
2.344400 3.466300
2.358900 3.535800
2.373400 3.611200
2.387900 3.814400
2.402400 3.898800
2.417000 3.959200
2.431500 3.962600
2.446000 3.940600
2.460500 3.966800
2.475000 3.844000
2.489500 3.849500
2.504000 3.962100
2.518500 3.983500
2.533000 3.952700
2.547600 3.828100
2.562100 3.737600
2.576600 3.759500
2.591100 3.788900
2.605600 4.088300
2.620100 4.303900
2.634600 4.386000
2.649100 4.575000
2.663600 4.668400
2.678200 4.688300
2.692700 4.630900
2.707200 4.323700
2.721700 4.303600
2.736200 4.277400
2.750700 4.184400
2.765200 4.147600
2.779700 4.098700
2.794200 4.071400
2.808800 4.096000
2.823300 4.014100
2.837800 3.807300
2.852300 3.753800
2.866800 3.690500
2.881300 3.610500
2.895800 3.569200
2.910300 3.523700
2.924800 3.513700
2.939400 3.536100
2.953900 3.629100
2.968400 3.684500
2.982900 3.744300
2.997400 3.810400
3.011900 3.932900
3.026400 4.066800
3.040900 4.157900
3.055400 4.165900
3.070000 4.090300
3.084500 4.142500
3.099000 4.233400
3.113500 4.445500
3.128000 4.253000
3.142500 4.371300
3.157000 4.026300
3.171500 3.907800
3.186000 3.855700
3.200600 3.877300
3.215100 4.025100
3.229600 4.112300
3.244100 4.042500
3.258600 3.927100
3.273100 4.024800
3.287600 4.196600
3.302100 4.380900
3.316600 4.420400
3.331200 4.472600
3.345700 4.571400
3.360200 4.604900
3.374700 4.662600
3.389200 4.748100
3.403700 4.827200
3.418200 4.902600
3.432700 4.917500
3.447200 4.904200
3.461800 4.854900
3.476300 4.774000
3.490800 4.662100
3.505300 4.623900
3.519800 4.655300
3.534300 4.763900
3.548800 4.879700
3.563300 4.910400
3.577800 5.039900
3.592400 4.879000
3.606900 4.794100
3.621400 4.723200
3.635900 4.654600
3.650400 4.594000
3.664900 4.533200
3.679400 4.475700
3.693900 4.479000
3.708400 4.562000
3.723000 4.726800
3.737500 4.814400
3.752000 4.736400
3.766500 4.865600
3.781000 4.974400
3.795500 5.032500
3.810000 5.043200
3.824500 4.995200
3.839000 4.888000
3.853600 4.752500
3.868100 4.646500
3.882600 4.575000
3.897100 4.521100
3.911600 4.422100
3.926100 4.320400
3.940600 4.364300
3.955100 4.395300
3.969600 4.404000
3.984200 4.419800
3.998700 4.372900
4.013200 4.406600
4.027700 4.361500
4.042200 4.316200
4.056700 4.267500
4.071200 4.259200
4.085700 4.244100
4.100200 4.226700
4.114800 4.201600
4.129300 4.196000
4.143800 4.278400
4.158300 4.336800
4.172800 4.468800
4.187300 4.605600
4.201800 4.716700
4.216300 4.860000
4.230800 4.851200
4.245400 4.964700
4.259900 5.117300
4.274400 4.944100
4.288900 4.814300
4.303400 4.765900
4.317900 4.743100
4.332400 4.667600
4.346900 4.539700
4.361400 4.402400
4.376000 4.274300
4.390500 4.254900
4.405000 4.231200
4.419500 4.136200
4.434000 3.938200
4.448500 3.708200
4.463000 3.522900
4.477500 3.355600
4.492000 3.231400
4.506600 3.219900
4.521100 3.225500
4.535600 3.197100
4.550100 3.167300
4.564600 3.205200
4.579100 3.229000
4.593600 3.163200
4.608100 3.187800
4.622600 3.245700
4.637200 3.326800
4.651700 3.410900
4.666200 3.554900
4.680700 3.666500
4.695200 3.731400
4.709700 3.872600
4.724200 3.975200
4.738700 3.950500
4.753200 3.895200
4.767800 3.820400
4.782300 3.756600
4.796800 3.733900
4.811300 3.710600
4.825800 3.728000
4.840300 3.671900
4.854800 3.393500
4.869300 3.217100
4.883800 3.182800
4.898400 3.141000
4.912900 3.075300
4.927400 3.021000
4.941900 2.991400
4.956400 2.955300
4.970900 2.900800
4.985400 2.821000
4.999900 2.697900
5.014400 2.638900
5.029000 2.570900
5.043500 2.474000
5.058000 2.386400
5.072500 2.340600
5.087000 2.311100
5.101500 2.285900
5.116000 2.267800
5.130500 2.258600
5.145000 2.245100
5.159600 2.224300
5.174100 2.200200
5.188600 2.124500
5.203100 2.061800
5.217600 2.004500
5.232100 1.965800
5.246600 1.937700
5.261100 1.917500
5.275600 1.903400
5.290200 1.885100
5.304700 1.869500
5.319200 1.855800
5.333700 1.841700
5.348200 1.814000
5.362700 1.797500
5.377200 1.779400
5.391700 1.772200
5.406200 1.765200
5.420800 1.757900
5.435300 1.747700
5.449800 1.701700
5.464300 1.601300
5.478800 1.503700
5.493300 1.440600
5.507800 1.392000
5.522300 1.373100
5.536800 1.363500
5.551400 1.364300
5.565900 1.344000
5.580400 1.308800
5.594900 1.292900
5.609400 1.290700
5.623900 1.293500
5.638400 1.300300
5.652900 1.310100
5.667400 1.317900
5.682000 1.331500
5.696500 1.346800
5.711000 1.365700
5.725500 1.384200
5.740000 1.393300
5.754500 1.394200
5.769000 1.392100
5.783500 1.388300
5.798000 1.378700
5.812600 1.361100
5.827100 1.344700
5.841600 1.331200
5.856100 1.332300
5.870600 1.375500
5.885100 1.505300
5.899600 1.617400
5.914100 1.674200
5.928600 1.711700
5.943200 1.739200
5.957700 1.752900
5.972200 1.738400
5.986700 1.762300
6.001200 1.822000
6.015700 1.880600
6.030200 1.940500
6.044700 2.006900
6.059200 2.081100
6.073800 2.166900
6.088300 2.250100
6.102800 2.313700
6.117300 2.354900
6.131800 2.375300
6.146300 2.369100
6.160800 2.339400
6.175300 2.289400
6.189800 2.215700
6.204400 2.115100
6.218900 2.042600
6.233400 2.023100
6.247900 2.010600
6.262400 2.004200
6.276900 2.003300
6.291400 2.009400
6.305900 2.020700
6.320400 2.038000
6.335000 2.061900
6.349500 2.093400
6.364000 2.126400
6.378500 2.155300
6.393000 2.185800
6.407500 2.218800
6.422000 2.448200
6.436500 2.422700
6.451000 2.376900
6.465600 2.391800
6.480100 2.412800
6.494600 2.434500
6.509100 2.468000
6.523600 2.511500
6.538100 2.553000
6.552600 2.604400
6.567100 2.691500
6.581600 2.793200
6.596200 2.885500
6.610700 3.010400
6.625200 3.189100
6.639700 3.378100
6.654200 3.541900
6.668700 3.690100
6.683200 3.862900
6.697700 4.073700
6.712200 4.319500
6.726800 4.386500
6.741300 4.367300
6.755800 4.261400
6.770300 4.157000
6.784800 4.055500
6.799300 4.011000
6.813800 3.963100
6.828300 3.945500
6.842800 3.870700
6.857400 3.725400
6.871900 3.690500
6.886400 3.672300
6.900900 3.612200
6.915400 3.487600
