set title 'mp-142 - Density of States'
set xlabel 'Energy (eV)'
set ylabel 'DOS (states/eV)'
set grid
set xrange [-10:10]
set yrange [0:2.712]
set xzeroaxis lt -1
set terminal png size 800,600
set output 'mp-142_dos_gnuplot.png'
plot '-' using 1:2 with lines title 'DOS'
-15.053500 0.000000
-15.023100 0.000000
-14.992700 0.000000
-14.962300 0.000000
-14.931900 0.000000
-14.901400 0.000000
-14.871000 0.000000
-14.840600 0.000000
-14.810200 0.000000
-14.779800 0.000000
-14.749400 0.000000
-14.718900 0.000000
-14.688500 0.000000
-14.658100 0.000000
-14.627700 0.000000
-14.597300 0.000000
-14.566900 0.000000
-14.536400 0.000000
-14.506000 0.000000
-14.475600 0.000000
-14.445200 0.000000
-14.414800 0.000000
-14.384400 0.000000
-14.353900 0.000000
-14.323500 0.000000
-14.293100 0.000000
-14.262700 0.000000
-14.232300 0.000000
-14.201900 0.000000
-14.171500 0.000000
-14.141000 0.000000
-14.110600 0.000000
-14.080200 0.000000
-14.049800 0.000000
-14.019400 0.000000
-13.989000 0.000000
-13.958500 0.000000
-13.928100 0.000000
-13.897700 0.000000
-13.867300 0.000000
-13.836900 0.000000
-13.806500 0.000000
-13.776000 0.000000
-13.745600 0.000000
-13.715200 0.000000
-13.684800 0.000000
-13.654400 0.000000
-13.624000 0.000000
-13.593500 0.000000
-13.563100 0.000000
-13.532700 0.000000
-13.502300 0.000000
-13.471900 0.000000
-13.441500 0.000000
-13.411000 0.000000
-13.380600 0.000000
-13.350200 0.000000
-13.319800 0.000000
-13.289400 0.000000
-13.259000 0.000000
-13.228600 0.000000
-13.198100 0.000000
-13.167700 0.000000
-13.137300 0.000000
-13.106900 0.000000
-13.076500 0.000000
-13.046100 0.000000
-13.015600 0.000000
-12.985200 0.000000
-12.954800 0.000000
-12.924400 0.000000
-12.894000 0.000000
-12.863600 0.000000
-12.833100 0.000000
-12.802700 0.000000
-12.772300 0.000000
-12.741900 0.000000
-12.711500 0.000000
-12.681100 0.000000
-12.650600 0.000000
-12.620200 0.000000
-12.589800 0.000000
-12.559400 0.000000
-12.529000 0.000000
-12.498600 0.000000
-12.468100 0.000000
-12.437700 0.000000
-12.407300 0.000000
-12.376900 0.000000
-12.346500 0.000000
-12.316100 0.000000
-12.285600 9.530600
-12.255200 36.295000
-12.224800 104.348600
-12.194400 81.983300
-12.164000 116.949700
-12.133600 84.278800
-12.103200 63.415000
-12.072700 33.040100
-12.042300 59.787400
-12.011900 50.412200
-11.981500 81.022700
-11.951100 79.737700
-11.920700 103.637700
-11.890200 80.112500
-11.859800 52.931500
-11.829400 91.669200
-11.799000 116.263600
-11.768600 67.571900
-11.738200 32.300400
-11.707700 0.000000
-11.677300 0.000000
-11.646900 0.000000
-11.616500 0.000000
-11.586100 0.000000
-11.555700 0.000000
-11.525200 0.000000
-11.494800 0.000000
-11.464400 0.000000
-11.434000 0.000000
-11.403600 0.000000
-11.373200 0.000000
-11.342700 0.000000
-11.312300 0.000000
-11.281900 0.000000
-11.251500 0.000000
-11.221100 0.000000
-11.190700 0.000000
-11.160300 0.000000
-11.129800 0.000000
-11.099400 0.000000
-11.069000 0.000000
-11.038600 0.000000
-11.008200 0.000000
-10.977800 0.000000
-10.947300 0.000000
-10.916900 0.000000
-10.886500 0.000000
-10.856100 0.000000
-10.825700 0.000000
-10.795300 0.000000
-10.764800 0.000000
-10.734400 0.000000
-10.704000 0.000000
-10.673600 0.000000
-10.643200 0.000000
-10.612800 0.000000
-10.582300 0.000000
-10.551900 0.000000
-10.521500 0.000000
-10.491100 0.000000
-10.460700 0.000000
-10.430300 0.000000
-10.399800 0.000000
-10.369400 0.000000
-10.339000 0.000000
-10.308600 0.000000
-10.278200 0.000000
-10.247800 0.000000
-10.217400 0.000000
-10.186900 0.000000
-10.156500 0.000000
-10.126100 0.000000
-10.095700 0.000000
-10.065300 0.000000
-10.034900 0.000000
-10.004400 0.000000
-9.974000 0.000000
-9.943600 0.000000
-9.913200 0.000000
-9.882800 0.000000
-9.852400 0.000000
-9.821900 0.000000
-9.791500 0.000000
-9.761100 0.000000
-9.730700 0.000000
-9.700300 0.000000
-9.669900 0.000000
-9.639400 0.000000
-9.609000 0.000000
-9.578600 0.000000
-9.548200 0.000000
-9.517800 0.000000
-9.487400 0.000000
-9.456900 0.000000
-9.426500 0.000000
-9.396100 0.000000
-9.365700 0.000000
-9.335300 0.000000
-9.304900 0.000000
-9.274400 0.000000
-9.244000 0.000000
-9.213600 0.000000
-9.183200 0.000000
-9.152800 0.000000
-9.122400 0.000000
-9.092000 0.000000
-9.061500 0.000000
-9.031100 0.000000
-9.000700 0.000000
-8.970300 0.000000
-8.939900 0.000000
-8.909500 0.000000
-8.879000 0.000000
-8.848600 0.000000
-8.818200 0.000000
-8.787800 0.000000
-8.757400 0.000000
-8.727000 0.000000
-8.696500 0.000000
-8.666100 0.000000
-8.635700 0.000000
-8.605300 0.000000
-8.574900 0.000000
-8.544500 0.000000
-8.514000 0.000000
-8.483600 0.000000
-8.453200 0.000000
-8.422800 0.000000
-8.392400 0.000000
-8.362000 0.000000
-8.331500 0.000000
-8.301100 0.000000
-8.270700 0.000000
-8.240300 0.000000
-8.209900 0.000000
-8.179500 0.000000
-8.149100 0.000000
-8.118600 0.000000
-8.088200 0.000000
-8.057800 0.000000
-8.027400 0.000000
-7.997000 0.000000
-7.966600 0.000000
-7.936100 0.000000
-7.905700 0.012500
-7.875300 0.068700
-7.844900 0.151500
-7.814500 0.173800
-7.784100 0.178100
-7.753600 0.206000
-7.723200 0.235200
-7.692800 0.265600
-7.662400 0.290400
-7.632000 0.302300
-7.601600 0.307700
-7.571100 0.319700
-7.540700 0.335000
-7.510300 0.351100
-7.479900 0.367100
-7.449500 0.383000
-7.419100 0.399700
-7.388600 0.417000
-7.358200 0.429800
-7.327800 0.437300
-7.297400 0.446000
-7.267000 0.456500
-7.236600 0.466600
-7.206200 0.476600
-7.175700 0.486800
-7.145300 0.497400
-7.114900 0.508900
-7.084500 0.521200
-7.054100 0.533800
-7.023700 0.546700
-6.993200 0.559400
-6.962800 0.570600
-6.932400 0.580100
-6.902000 0.588000
-6.871600 0.596500
-6.841200 0.605200
-6.810700 0.614500
-6.780300 0.624000
-6.749900 0.633700
-6.719500 0.643800
-6.689100 0.654200
-6.658700 0.665100
-6.628200 0.676200
-6.597800 0.687600
-6.567400 0.699200
-6.537000 0.711000
-6.506600 0.723700
-6.476200 0.737700
-6.445700 0.760800
-6.415300 0.820100
-6.384900 0.875500
-6.354500 0.862100
-6.324100 0.888600
-6.293700 0.895600
-6.263200 0.893000
-6.232800 0.886700
-6.202400 0.879900
-6.172000 0.876800
-6.141600 0.878200
-6.111200 0.872200
-6.080800 0.856500
-6.050300 0.848000
-6.019900 0.846700
-5.989500 0.846300
-5.959100 0.844400
-5.928700 0.840400
-5.898300 0.843900
-5.867800 0.848800
-5.837400 0.844400
-5.807000 0.837700
-5.776600 0.877700
-5.746200 0.928400
-5.715800 0.910200
-5.685300 0.926900
-5.654900 0.948600
-5.624500 0.969800
-5.594100 0.974800
-5.563700 0.964800
-5.533300 0.942900
-5.502800 0.915600
-5.472400 0.892000
-5.442000 0.873500
-5.411600 0.855600
-5.381200 0.838800
-5.350800 0.812600
-5.320300 0.795200
-5.289900 0.792600
-5.259500 0.789200
-5.229100 0.788400
-5.198700 0.790800
-5.168300 0.795100
-5.137900 0.801600
-5.107400 0.810600
-5.077000 0.822300
-5.046600 0.831200
-5.016200 0.827900
-4.985800 0.834400
-4.955400 0.858400
-4.924900 0.888600
-4.894500 0.938200
-4.864100 0.960800
-4.833700 0.958100
-4.803300 0.947200
-4.772900 0.941000
-4.742400 0.934600
-4.712000 0.930100
-4.681600 0.910300
-4.651200 0.909800
-4.620800 0.910800
-4.590400 0.913500
-4.559900 0.918100
-4.529500 0.942000
-4.499100 0.944900
-4.468700 0.951500
-4.438300 0.962300
-4.407900 0.977000
-4.377400 1.001600
-4.347000 1.051400
-4.316600 1.068600
-4.286200 1.090900
-4.255800 1.096000
-4.225400 1.128700
-4.195000 1.186300
-4.164500 1.229400
-4.134100 1.386000
-4.103700 1.142100
-4.073300 1.182000
-4.042900 1.174400
-4.012500 1.196700
-3.982000 1.218800
-3.951600 1.268000
-3.921200 1.289200
-3.890800 1.279600
-3.860400 1.316200
-3.830000 1.335000
-3.799500 1.242800
-3.769100 1.186600
-3.738700 1.143400
-3.708300 1.110200
-3.677900 1.058900
-3.647500 0.974400
-3.617000 0.963700
-3.586600 0.959600
-3.556200 0.935300
-3.525800 0.837700
-3.495400 0.803500
-3.465000 0.734500
-3.434500 0.700900
-3.404100 0.674900
-3.373700 0.646500
-3.343300 0.632900
-3.312900 0.726900
-3.282500 0.827800
-3.252100 0.767500
-3.221600 0.807200
-3.191200 0.852600
-3.160800 1.056800
-3.130400 1.011500
-3.100000 1.040400
-3.069600 1.090100
-3.039100 1.147300
-3.008700 1.154700
-2.978300 1.134200
-2.947900 1.119200
-2.917500 1.134900
-2.887100 1.199500
-2.856600 1.224200
-2.826200 1.240900
-2.795800 1.236300
-2.765400 1.205100
-2.735000 1.196200
-2.704600 1.182800
-2.674100 1.168700
-2.643700 1.165100
-2.613300 1.168400
-2.582900 1.176000
-2.552500 1.237100
-2.522100 1.334100
-2.491600 1.409800
-2.461200 1.430000
-2.430800 1.374400
-2.400400 1.321200
-2.370000 1.310000
-2.339600 1.301800
-2.309100 1.305800
-2.278700 1.377200
-2.248300 1.332400
-2.217900 1.318700
-2.187500 1.323000
-2.157100 1.319100
-2.126700 1.319100
-2.096200 1.331000
-2.065800 1.324700
-2.035400 1.290000
-2.005000 1.277000
-1.974600 1.264200
-1.944200 1.254700
-1.913700 1.271500
-1.883300 1.289400
-1.852900 1.274100
-1.822500 1.258400
-1.792100 1.250700
-1.761700 1.248300
-1.731200 1.242600
-1.700800 1.234000
-1.670400 1.226900
-1.640000 1.221600
-1.609600 1.219100
-1.579200 1.214700
-1.548700 1.201100
-1.518300 1.177200
-1.487900 1.162100
-1.457500 1.148300
-1.427100 1.131400
-1.396700 1.112600
-1.366200 1.081500
-1.335800 1.058600
-1.305400 1.039800
-1.275000 1.019000
-1.244600 0.998400
-1.214200 0.979500
-1.183800 0.959500
-1.153300 0.978700
-1.122900 0.980500
-1.092500 0.967400
-1.062100 0.959800
-1.031700 0.946400
-1.001300 0.929300
-0.970800 0.911200
-0.940400 0.896600
-0.910000 0.888500
-0.879600 0.883100
-0.849200 0.878000
-0.818800 0.879100
-0.788300 0.881700
-0.757900 0.878800
-0.727500 0.870400
-0.697100 0.864600
-0.666700 0.861600
-0.636300 0.854100
-0.605800 0.852800
-0.575400 0.972000
-0.545000 1.006600
-0.514600 1.056300
-0.484200 1.152800
-0.453800 1.242700
-0.423300 1.281500
-0.392900 1.304600
-0.362500 1.339800
-0.332100 1.371700
-0.301700 1.399500
-0.271300 1.412900
-0.240900 1.439500
-0.210400 1.474800
-0.180000 1.475700
-0.149600 1.503800
-0.119200 1.541600
-0.088800 1.543100
-0.058400 1.501900
-0.027900 1.454400
0.002500 1.417800
0.032900 1.391200
0.063300 1.362500
0.093700 1.337000
0.124100 1.316500
0.154600 1.301900
0.185000 1.285700
0.215400 1.277000
0.245800 1.274500
0.276200 1.278200
0.306600 1.287400
0.337100 1.302900
0.367500 1.321700
0.397900 1.343000
0.428300 1.363800
0.458700 1.371400
0.489100 1.383800
0.519600 1.354600
0.550000 1.350900
0.580400 1.355400
0.610800 1.361500
0.641200 1.376900
0.671600 1.397000
0.702100 1.403100
0.732500 1.416200
0.762900 1.433300
0.793300 1.451100
0.823700 1.469800
0.854100 1.490200
0.884500 1.512500
0.915000 1.540100
0.945400 1.574400
0.975800 1.613200
1.006200 1.614800
1.036600 1.612100
1.067000 1.622800
1.097500 1.657300
1.127900 1.708600
1.158300 1.772100
1.188700 1.849800
1.219100 1.931600
1.249500 2.043600
1.280000 2.083900
1.310400 2.110200
1.340800 2.142700
1.371200 2.181500
1.401600 2.202400
1.432000 2.180600
1.462500 2.177700
1.492900 2.186300
1.523300 2.196500
1.553700 2.206700
1.584100 2.234700
1.614500 2.273300
1.645000 2.257600
1.675400 2.226300
1.705800 2.199700
1.736200 2.180700
1.766600 2.130800
1.797000 2.056500
1.827400 1.983400
1.857900 1.922600
1.888300 1.851200
1.918700 1.791000
1.949100 1.731900
1.979500 1.667300
2.009900 1.611000
2.040400 1.567200
2.070800 1.531900
2.101200 1.507800
2.131600 1.495000
2.162000 1.485400
2.192400 1.486800
2.222900 1.520400
2.253300 1.585400
2.283700 1.621700
2.314100 1.640300
2.344500 1.643300
2.374900 1.621400
2.405400 1.587900
2.435800 1.521500
2.466200 1.435400
2.496600 1.332800
2.527000 1.248100
2.557400 1.161500
2.587900 1.100300
2.618300 1.040900
2.648700 0.993200
2.679100 0.931300
2.709500 0.874200
2.739900 0.791200
2.770300 0.733800
2.800800 0.711700
2.831200 0.681200
2.861600 0.636000
2.892000 0.604800
2.922400 0.572400
2.952800 0.542700
2.983300 0.497500
3.013700 0.440600
3.044100 0.408200
3.074500 0.396700
3.104900 0.405400
3.135300 0.431900
3.165800 0.476700
3.196200 0.537900
3.226600 0.608400
3.257000 0.691600
3.287400 0.738300
3.317800 0.786500
3.348300 0.873700
3.378700 1.011400
3.409100 1.193200
3.439500 1.397100
3.469900 1.591400
3.500300 1.716300
3.530800 1.778000
3.561200 1.780100
3.591600 1.753100
3.622000 1.744000
3.652400 1.767000
3.682800 1.820200
3.713300 1.904300
3.743700 1.991000
3.774100 2.098700
3.804500 2.223000
3.834900 2.290600
3.865300 2.307400
3.895700 2.320700
3.926200 2.347700
3.956600 2.382700
3.987000 2.398700
4.017400 2.391900
4.047800 2.371900
4.078200 2.385100
4.108700 2.322100
4.139100 2.263800
4.169500 2.211500
4.199900 2.100800
4.230300 2.013800
4.260700 1.966900
4.291200 1.919600
4.321600 1.880400
4.352000 1.856500
4.382400 1.816500
4.412800 1.768400
4.443200 1.860800
4.473700 1.692800
4.504100 1.696100
4.534500 1.656100
4.564900 1.626900
4.595300 1.599400
4.625700 1.585800
4.656200 1.577200
4.686600 1.567300
4.717000 1.553500
4.747400 1.536000
4.777800 1.524100
4.808200 1.505800
4.838600 1.482200
4.869100 1.504900
4.899500 1.478800
4.929900 1.455900
4.960300 1.459300
4.990700 1.476200
5.021100 1.525900
5.051600 1.543600
5.082000 1.576200
5.112400 1.669800
5.142800 1.757900
5.173200 1.841000
5.203600 1.897600
5.234100 1.690800
5.264500 1.661800
5.294900 1.702300
5.325300 1.745600
5.355700 1.802000
5.386100 1.803700
5.416600 1.774100
5.447000 1.720800
5.477400 1.732200
5.507800 1.759800
5.538200 1.791800
5.568600 1.825400
5.599100 1.888600
5.629500 1.975700
5.659900 2.085600
5.690300 2.128900
5.720700 2.188300
5.751100 2.252800
5.781500 2.248900
5.812000 2.232200
5.842400 2.186100
5.872800 2.171400
5.903200 2.084600
5.933600 2.045100
5.964000 2.015700
5.994500 1.972000
6.024900 1.933900
6.055300 1.890400
6.085700 1.840200
6.116100 1.774300
6.146500 1.713500
6.177000 1.659500
6.207400 1.625100
6.237800 1.603600
6.268200 1.597400
6.298600 1.610700
6.329000 1.651600
6.359500 1.711300
6.389900 1.749700
6.420300 1.813000
6.450700 1.877800
6.481100 1.962400
6.511500 2.081900
6.542000 2.220600
6.572400 2.280200
6.602800 2.264300
6.633200 2.320400
6.663600 2.343600
6.694000 2.247600
6.724500 2.146000
6.754900 1.992800
6.785300 1.913600
6.815700 1.846300
6.846100 1.802200
6.876500 1.802800
6.906900 1.772400
6.937400 1.762300
6.967800 1.747100
6.998200 1.719000
7.028600 1.721100
7.059000 1.727700
7.089400 1.752400
7.119900 1.799700
7.150300 1.862100
7.180700 1.950200
7.211100 2.048800
7.241500 2.135900
7.271900 2.191700
7.302400 2.226200
7.332800 2.237500
7.363200 2.238000
7.393600 2.245400
7.424000 2.254400
7.454400 2.271000
7.484900 2.284600
7.515300 2.293400
7.545700 2.294100
7.576100 2.287500
7.606500 2.287800
7.636900 2.322400
7.667400 2.299200
7.697800 2.293800
7.728200 2.288500
7.758600 2.291200
7.789000 2.319600
7.819400 2.349000
7.849800 2.357500
7.880300 2.343300
7.910700 2.341800
7.941100 2.358400
7.971500 2.309200
8.001900 2.255800
8.032300 2.190600
8.062800 2.176200
8.093200 2.040600
8.123600 1.975300
8.154000 1.889600
8.184400 1.845900
8.214800 1.803100
8.245300 1.768500
8.275700 1.750100
8.306100 1.762300
8.336500 1.769300
8.366900 1.776100
8.397300 1.761800
8.427800 1.756700
8.458200 1.757100
8.488600 1.762700
8.519000 1.773100
8.549400 1.801800
8.579800 1.811400
8.610300 1.814100
8.640700 1.819300
8.671100 1.832000
8.701500 1.848600
8.731900 1.872100
8.762300 1.919400
8.792700 1.987000
8.823200 2.044400
8.853600 2.092700
8.884000 2.141600
8.914400 2.425000
8.944800 2.360000
8.975200 2.384900
9.005700 2.391800
9.036100 2.400000
9.066500 2.391100
9.096900 2.379400
9.127300 2.416500
9.157700 2.465900
9.188200 2.420300
9.218600 2.361500
9.249000 2.303800
9.279400 2.265700
9.309800 2.258100
9.340200 2.173700
9.370700 2.094300
9.401100 2.015300
9.431500 1.943900
9.461900 1.889700
9.492300 1.829200
9.522700 1.813900
9.553200 1.772400
9.583600 1.763100
9.614000 1.738700
9.644400 1.749700
9.674800 1.768600
9.705200 1.798100
9.735600 1.843900
9.766100 1.892500
9.796500 1.917700
9.826900 1.955000
9.857300 1.951900
9.887700 1.937600
9.918100 1.931400
9.948600 1.949400
9.979000 1.962700
10.009400 1.958900
10.039800 2.006800
10.070200 2.068000
10.100600 2.110400
10.131100 2.170500
10.161500 2.206900
10.191900 2.221100
10.222300 2.225700
10.252700 2.207300
10.283100 2.229500
10.313600 2.200300
10.344000 2.154000
10.374400 2.052100
10.404800 1.999000
10.435200 1.965100
10.465600 1.941600
10.496100 1.931300
10.526500 1.940100
10.556900 1.966300
10.587300 2.035900
10.617700 2.082000
10.648100 2.134400
10.678600 2.168300
10.709000 2.195200
10.739400 2.218800
10.769800 2.173100
10.800200 2.172300
10.830600 2.226300
10.861000 2.386500
10.891500 2.359000
10.921900 2.314700
10.952300 2.302400
10.982700 2.319300
11.013100 2.392600
11.043500 2.415000
11.074000 2.379300
11.104400 2.367500
11.134800 2.405600
11.165200 2.449600
11.195600 2.486300
11.226000 2.531300
11.256500 2.594600
11.286900 2.667600
11.317300 2.789300
11.347700 2.705700
11.378100 2.630500
11.408500 2.569100
11.439000 2.515100
11.469400 2.458000
11.499800 2.401300
11.530200 2.328600
11.560600 2.284700
11.591000 2.309400
11.621500 2.621800
11.651900 2.348600
11.682300 2.146400
11.712700 1.987300
11.743100 1.931100
11.773500 1.921800
11.803900 1.893800
11.834400 1.877000
11.864800 1.857500
11.895200 1.877500
11.925600 1.946100
11.956000 2.041900
11.986400 2.018800
12.016900 2.058500
12.047300 2.100700
12.077700 2.150300
12.108100 2.220800
12.138500 2.294800
12.168900 2.440400
12.199400 2.468200
12.229800 2.439600
12.260200 2.452400
12.290600 2.435200
12.321000 2.474100
12.351400 2.497300
12.381900 2.626300
12.412300 2.740000
12.442700 2.819700
12.473100 2.972000
12.503500 3.000400
12.533900 2.997300
12.564400 2.852200
12.594800 2.761800
12.625200 2.698900
12.655600 2.676900
12.686000 2.640100
12.716400 2.544100
12.746800 2.495700
12.777300 2.462300
12.807700 2.287000
12.838100 2.178300
12.868500 2.124700
12.898900 2.096200
12.929300 2.104200
12.959800 2.092600
12.990200 2.167900
13.020600 2.237000
13.051000 2.228500
13.081400 2.181800
13.111800 2.270200
13.142300 2.422300
13.172700 2.632500
13.203100 2.477200
13.233500 2.433500
13.263900 2.421700
13.294300 2.397600
13.324800 2.343700
13.355200 2.322700
13.385600 2.292300
13.416000 2.276300
13.446400 2.261700
13.476800 2.370100
13.507300 2.293300
13.537700 2.233100
13.568100 2.169300
13.598500 2.141200
13.628900 2.075500
13.659300 2.008200
13.689800 1.980600
13.720200 1.931800
13.750600 1.924000
13.781000 1.937200
13.811400 1.946700
13.841800 1.973000
13.872200 1.988400
13.902700 2.005800
13.933100 2.056200
13.963500 2.136000
13.993900 2.239900
14.024300 2.300200
14.054700 2.238700
14.085200 2.212300
14.115600 2.209900
14.146000 2.226300
14.176400 2.250000
14.206800 2.139400
14.237200 2.233900
14.267700 2.323400
14.298100 2.481700
14.328500 2.588900
14.358900 2.598800
14.389300 2.496600
14.419700 2.441100
14.450200 2.419200
14.480600 2.410600
14.511000 2.411900
14.541400 2.421500
14.571800 2.472500
14.602200 2.514700
14.632700 2.454900
14.663100 2.343100
14.693500 2.242900
14.723900 2.195500
14.754300 2.228200
14.784700 2.284600
14.815100 2.259700
14.845600 2.162600
14.876000 2.145200
14.906400 2.134500
14.936800 2.206600
14.967200 2.342000
14.997600 2.522500
15.028100 2.617300
15.058500 2.607500
15.088900 2.700900
15.119300 2.743500
15.149700 2.666600
15.180100 2.554100
15.210600 2.445100
15.241000 2.510500
15.271400 2.518900
15.301800 2.533800
15.332200 2.531500
15.362600 2.549000
15.393100 2.538500
15.423500 2.481200
15.453900 2.432400
15.484300 2.410300
15.514700 2.323600
15.545100 2.291700
15.575600 2.287900
15.606000 2.275700
15.636400 2.273000
15.666800 2.343800
15.697200 2.346900
15.727600 2.321900
15.758000 2.287200
15.788500 2.243100
15.818900 2.235900
15.849300 2.274500
15.879700 2.339300
15.910100 2.354700
15.940500 2.369400
15.971000 2.407800
16.001400 2.463600
16.031800 2.521500
16.062200 2.577100
16.092600 2.631600
16.123000 2.729800
16.153500 2.809900
16.183900 2.838300
16.214300 2.684600
16.244700 2.585900
16.275100 2.528700
16.305500 2.477600
16.336000 2.430300
16.366400 2.396200
16.396800 2.403000
16.427200 2.432200
16.457600 2.468400
16.488000 2.451700
16.518500 2.465100
16.548900 2.489600
16.579300 2.513600
16.609700 2.549200
16.640100 2.559600
16.670500 2.563200
16.701000 2.532500
