set title 'mp-1187941 - Density of States'
set xlabel 'Energy (eV)'
set ylabel 'DOS (states/eV)'
set grid
set xrange [-10:10]
set yrange [0:36.835]
set xzeroaxis lt -1
set terminal png size 800,600
set output 'mp-1187941_dos_gnuplot.png'
plot '-' using 1:2 with lines title 'DOS'
-7.745700 0.000000
-7.719700 0.000000
-7.693700 0.000000
-7.667600 0.000000
-7.641600 0.000000
-7.615600 0.000000
-7.589600 0.000000
-7.563500 0.000000
-7.537500 0.000000
-7.511500 0.000000
-7.485500 0.000000
-7.459400 0.000000
-7.433400 0.000000
-7.407400 0.000000
-7.381400 0.000000
-7.355300 0.000000
-7.329300 0.000000
-7.303300 0.000000
-7.277300 0.000000
-7.251200 0.000000
-7.225200 0.000000
-7.199200 0.000000
-7.173200 0.000000
-7.147200 0.000000
-7.121100 0.000000
-7.095100 0.000000
-7.069100 0.000000
-7.043100 0.000000
-7.017000 0.000000
-6.991000 0.000000
-6.965000 0.000000
-6.939000 0.000000
-6.912900 0.000000
-6.886900 0.000000
-6.860900 0.000000
-6.834900 0.000000
-6.808800 0.000000
-6.782800 0.000000
-6.756800 0.000000
-6.730800 0.000000
-6.704700 0.000000
-6.678700 0.000000
-6.652700 0.000000
-6.626700 0.000000
-6.600700 0.000000
-6.574600 0.000000
-6.548600 0.000000
-6.522600 0.000000
-6.496600 0.000000
-6.470500 0.000000
-6.444500 0.000000
-6.418500 0.000000
-6.392500 0.000000
-6.366400 0.000000
-6.340400 0.000000
-6.314400 0.000000
-6.288400 0.000000
-6.262300 0.000000
-6.236300 0.000000
-6.210300 0.000000
-6.184300 0.000000
-6.158200 0.000000
-6.132200 0.000000
-6.106200 0.000000
-6.080200 0.000000
-6.054200 0.000000
-6.028100 0.000000
-6.002100 0.000000
-5.976100 0.000000
-5.950100 0.000000
-5.924000 0.000000
-5.898000 0.000000
-5.872000 0.000000
-5.846000 0.000000
-5.819900 0.000000
-5.793900 0.000000
-5.767900 0.000000
-5.741900 0.000000
-5.715800 0.000000
-5.689800 0.000000
-5.663800 0.000000
-5.637800 0.000000
-5.611700 0.000000
-5.585700 0.000000
-5.559700 0.000000
-5.533700 0.000000
-5.507700 0.000000
-5.481600 0.000200
-5.455600 0.001300
-5.429600 0.005900
-5.403600 0.017200
-5.377500 0.034300
-5.351500 0.054800
-5.325500 0.083400
-5.299500 0.129800
-5.273400 0.190600
-5.247400 0.223200
-5.221400 0.185300
-5.195400 0.113300
-5.169300 0.091300
-5.143300 0.159200
-5.117300 0.267400
-5.091300 0.321200
-5.065200 0.301800
-5.039200 0.287300
-5.013200 0.326400
-4.987200 0.362700
-4.961100 0.314000
-4.935100 0.217100
-4.909100 0.162700
-4.883100 0.175100
-4.857100 0.271100
-4.831000 0.414400
-4.805000 0.469200
-4.779000 0.407200
-4.753000 0.352400
-4.726900 0.378800
-4.700900 0.425500
-4.674900 0.383400
-4.648900 0.268000
-4.622800 0.233500
-4.596800 0.369400
-4.570800 0.555400
-4.544800 0.601400
-4.518700 0.520200
-4.492700 0.477700
-4.466700 0.509500
-4.440700 0.502300
-4.414600 0.399800
-4.388600 0.296400
-4.362600 0.269600
-4.336600 0.284500
-4.310600 0.342400
-4.284500 0.442700
-4.258500 0.487200
-4.232500 0.494000
-4.206500 0.610800
-4.180400 0.779700
-4.154400 0.762100
-4.128400 0.526800
-4.102400 0.316000
-4.076300 0.356800
-4.050300 0.657000
-4.024300 0.971600
-3.998300 1.000900
-3.972200 0.744700
-3.946200 0.489800
-3.920200 0.398900
-3.894200 0.371800
-3.868100 0.297200
-3.842100 0.224500
-3.816100 0.252200
-3.790100 0.406100
-3.764100 0.612300
-3.738000 0.721800
-3.712000 0.734700
-3.686000 0.835100
-3.660000 1.052500
-3.633900 1.166800
-3.607900 0.992100
-3.581900 0.627700
-3.555900 0.360400
-3.529800 0.376600
-3.503800 0.603600
-3.477800 0.771700
-3.451800 0.723500
-3.425700 0.630400
-3.399700 0.689100
-3.373700 0.772200
-3.347700 0.673900
-3.321600 0.485600
-3.295600 0.435100
-3.269600 0.611000
-3.243600 0.942500
-3.217600 1.141700
-3.191500 0.943600
-3.165500 0.542000
-3.139500 0.314500
-3.113500 0.317900
-3.087400 0.371100
-3.061400 0.377400
-3.035400 0.451600
-3.009400 0.733200
-2.983300 1.067600
-2.957300 1.133800
-2.931300 0.949300
-2.905300 0.838800
-2.879200 0.887100
-2.853200 0.861700
-2.827200 0.664300
-2.801200 0.482700
-2.775100 0.470100
-2.749100 0.590800
-2.723100 0.737700
-2.697100 0.842700
-2.671100 0.972300
-2.645000 1.188300
-2.619000 1.324200
-2.593000 1.179000
-2.567000 0.849600
-2.540900 0.655000
-2.514900 0.737300
-2.488900 0.899700
-2.462900 0.882200
-2.436800 0.663000
-2.410800 0.439800
-2.384800 0.355600
-2.358800 0.365900
-2.332700 0.420700
-2.306700 0.588500
-2.280700 0.854300
-2.254700 1.055600
-2.228600 1.155900
-2.202600 1.225200
-2.176600 1.180500
-2.150600 0.916600
-2.124600 0.605800
-2.098500 0.501100
-2.072500 0.585300
-2.046500 0.703400
-2.020500 0.839000
-1.994400 1.041800
-1.968400 1.264400
-1.942400 1.427800
-1.916400 1.434800
-1.890300 1.239400
-1.864300 1.006300
-1.838300 0.885700
-1.812300 0.782500
-1.786200 0.647700
-1.760200 0.647000
-1.734200 0.862400
-1.708200 1.173700
-1.682100 1.443700
-1.656100 1.608200
-1.630100 1.583100
-1.604100 1.297200
-1.578100 0.924200
-1.552000 0.786900
-1.526000 0.920200
-1.500000 1.059400
-1.474000 1.119800
-1.447900 1.218700
-1.421900 1.272600
-1.395900 1.099300
-1.369900 0.793400
-1.343800 0.641300
-1.317800 0.755100
-1.291800 1.026100
-1.265800 1.299000
-1.239700 1.447400
-1.213700 1.395200
-1.187700 1.197100
-1.161700 1.038600
-1.135600 0.958000
-1.109600 0.824400
-1.083600 0.695800
-1.057600 0.753400
-1.031600 0.903900
-1.005500 0.896000
-0.979500 0.769400
-0.953500 0.780500
-0.927500 1.036400
-0.901400 1.371300
-0.875400 1.523700
-0.849400 1.488600
-0.823400 1.442400
-0.797300 1.383200
-0.771300 1.226900
-0.745300 1.055000
-0.719300 0.993800
-0.693200 1.092100
-0.667200 1.343900
-0.641200 1.661600
-0.615200 1.873900
-0.589100 1.842000
-0.563100 1.660900
-0.537100 1.564600
-0.511100 1.605800
-0.485100 1.772500
-0.459000 2.127300
-0.433000 2.543500
-0.407000 2.706600
-0.381000 2.462800
-0.354900 2.065500
-0.328900 2.050700
-0.302900 2.599300
-0.276900 3.214800
-0.250800 3.396500
-0.224800 3.177400
-0.198800 2.781600
-0.172800 2.397200
-0.146700 2.299900
-0.120700 2.675400
-0.094700 3.351800
-0.068700 3.969200
-0.042600 4.298800
-0.016600 4.252600
0.009400 4.025400
0.035400 4.062000
0.061500 4.526500
0.087500 5.126700
0.113500 5.580800
0.139500 6.146700
0.165500 7.659700
0.191600 10.812900
0.217600 14.908000
0.243600 18.462100
0.269600 21.998300
0.295700 27.126700
0.321700 32.337200
0.347700 33.486800
0.373700 28.451500
0.399800 19.568900
0.425800 11.527800
0.451800 6.967100
0.477800 5.155800
0.503900 4.356300
0.529900 3.774500
0.555900 3.855200
0.581900 5.053800
0.608000 6.435000
0.634000 6.690000
0.660000 5.906400
0.686000 4.858000
0.712000 3.928000
0.738100 3.207100
0.764100 2.719200
0.790100 2.491200
0.816100 2.412100
0.842200 2.213500
0.868200 1.835200
0.894200 1.620200
0.920200 1.808500
0.946300 2.120300
0.972300 2.228000
0.998300 2.213600
1.024300 2.155000
1.050400 1.957300
1.076400 1.676400
1.102400 1.410000
1.128400 1.244700
1.154500 1.367700
1.180500 1.800500
1.206500 2.257400
1.232500 2.428900
1.258500 2.213100
1.284600 1.764700
1.310600 1.333800
1.336600 1.099300
1.362600 1.132100
1.388700 1.282400
1.414700 1.353100
1.440700 1.393300
1.466700 1.518400
1.492800 1.642900
1.518800 1.724900
1.544800 1.917200
1.570800 2.168800
1.596900 2.161700
1.622900 1.813200
1.648900 1.350400
1.674900 1.034800
1.701000 1.063000
1.727000 1.363800
1.753000 1.588400
1.779000 1.527800
1.805000 1.264100
1.831100 1.005500
1.857100 0.967700
1.883100 1.217000
1.909100 1.570300
1.935200 1.786700
1.961200 1.841000
1.987200 1.769600
2.013200 1.498800
2.039300 1.150800
2.065300 1.010300
2.091300 1.201400
2.117300 1.649600
2.143400 2.069300
2.169400 2.159100
2.195400 1.928300
2.221400 1.562200
2.247500 1.199300
2.273500 0.911000
2.299500 0.698100
2.325500 0.602700
2.351500 0.722900
2.377600 1.014500
2.403600 1.260200
2.429600 1.347800
2.455600 1.303900
2.481700 1.153700
2.507700 1.041000
2.533700 1.090200
2.559700 1.167300
2.585800 1.133200
2.611800 1.003300
2.637800 0.817100
2.663800 0.714800
2.689900 0.871800
2.715900 1.229800
2.741900 1.510400
2.767900 1.490000
2.794000 1.267900
2.820000 1.142000
2.846000 1.132900
2.872000 1.024700
2.898000 0.817000
2.924100 0.711200
2.950100 0.829800
2.976100 1.122200
3.002100 1.462700
3.028200 1.707200
3.054200 1.734200
3.080200 1.670800
3.106200 1.774800
3.132300 2.011000
3.158300 2.111300
3.184300 1.960200
3.210300 1.758200
3.236400 1.721600
3.262400 1.713600
3.288400 1.541400
3.314400 1.295300
3.340500 1.113400
3.366500 1.022100
3.392500 0.941600
3.418500 0.786300
3.444500 0.652600
3.470600 0.712000
3.496600 1.009700
3.522600 1.441900
3.548600 1.746100
3.574700 1.703800
3.600700 1.470600
3.626700 1.389700
3.652700 1.614400
3.678800 1.992400
3.704800 2.099900
3.730800 1.710300
3.756800 1.212800
3.782900 1.137800
3.808900 1.485600
3.834900 1.816900
3.860900 1.842000
3.887000 1.725700
3.913000 1.719100
3.939000 1.713600
3.965000 1.494600
3.991000 1.125300
4.017100 0.855600
4.043100 0.854900
4.069100 1.086500
4.095100 1.389000
4.121200 1.538500
4.147200 1.478800
4.173200 1.477900
4.199200 1.675700
4.225300 1.852400
4.251300 1.813500
4.277300 1.631900
4.303300 1.476400
4.329400 1.423200
4.355400 1.463200
4.381400 1.565600
4.407400 1.677900
4.433500 1.644900
4.459500 1.416900
4.485500 1.193200
4.511500 1.081200
4.537500 1.016900
4.563600 0.992500
4.589600 1.032300
4.615600 1.085700
4.641600 1.117400
4.667700 1.122300
4.693700 1.161700
4.719700 1.405700
4.745700 1.866600
4.771800 2.297200
4.797800 2.396000
4.823800 2.037500
4.849800 1.427500
4.875900 0.926800
4.901900 0.755800
4.927900 0.904700
4.953900 1.239000
4.980000 1.571900
5.006000 1.736200
5.032000 1.732100
5.058000 1.655600
5.084000 1.505800
5.110100 1.250400
5.136100 1.032000
5.162100 1.070600
5.188100 1.389600
5.214200 1.782500
5.240200 1.961600
5.266200 1.844700
5.292200 1.713700
5.318300 1.811400
5.344300 1.927500
5.370300 1.766000
5.396300 1.428300
5.422400 1.159500
5.448400 1.052300
5.474400 1.140600
5.500400 1.323900
5.526500 1.367500
5.552500 1.222800
5.578500 1.065900
5.604500 1.047600
5.630600 1.173900
5.656600 1.363500
5.682600 1.533600
5.708600 1.584000
5.734600 1.556000
5.760700 1.615400
5.786700 1.668700
5.812700 1.559600
5.838700 1.476300
5.864800 1.563200
5.890800 1.602800
5.916800 1.463300
5.942800 1.333200
5.968900 1.450200
5.994900 1.792400
6.020900 2.060000
6.046900 2.036700
6.073000 1.805900
6.099000 1.525200
6.125000 1.262900
6.151000 1.134400
6.177100 1.230100
6.203100 1.417600
6.229100 1.512200
6.255100 1.527100
6.281100 1.546200
6.307200 1.498500
6.333200 1.319400
6.359200 1.141200
6.385200 1.120700
6.411300 1.325200
6.437300 1.658600
6.463300 1.777300
6.489300 1.542200
6.515400 1.313700
6.541400 1.316800
6.567400 1.366100
6.593400 1.401500
6.619500 1.524600
6.645500 1.708500
6.671500 1.833200
6.697500 1.819700
6.723600 1.731200
6.749600 1.641500
6.775600 1.524900
6.801600 1.355900
6.827600 1.199400
6.853700 1.236000
6.879700 1.499600
6.905700 1.695300
6.931700 1.639500
6.957800 1.531300
6.983800 1.578500
7.009800 1.703400
7.035800 1.751200
7.061900 1.727700
7.087900 1.700300
7.113900 1.696300
7.139900 1.723400
7.166000 1.789000
7.192000 1.864700
7.218000 1.891300
7.244000 1.906400
7.270100 1.926600
7.296100 1.779200
7.322100 1.452600
7.348100 1.225100
7.374100 1.226300
7.400200 1.352500
7.426200 1.468800
7.452200 1.491500
7.478200 1.533000
7.504300 1.735600
7.530300 1.945200
7.556300 1.972500
7.582300 1.909600
7.608400 1.867800
7.634400 1.775600
7.660400 1.542600
7.686400 1.221000
7.712500 1.015600
7.738500 1.122800
7.764500 1.465000
7.790500 1.684400
7.816600 1.612300
7.842600 1.495200
7.868600 1.596200
7.894600 1.784300
7.920600 1.773400
7.946700 1.652100
7.972700 1.679800
7.998700 1.834600
8.024700 1.961500
8.050800 2.062400
8.076800 2.171200
8.102800 2.222600
8.128800 2.201700
8.154900 2.101700
8.180900 1.886200
8.206900 1.590500
8.232900 1.284000
8.259000 1.059400
8.285000 0.980700
8.311000 0.987100
8.337000 0.992500
8.363100 1.020200
8.389100 1.155700
8.415100 1.432400
8.441100 1.750200
8.467100 2.001400
8.493200 2.218700
8.519200 2.369900
8.545200 2.333900
8.571200 2.048800
8.597300 1.611700
8.623300 1.285200
8.649300 1.159700
8.675300 1.085100
8.701400 1.084400
8.727400 1.313400
8.753400 1.641600
8.779400 1.773100
8.805500 1.672000
8.831500 1.602200
8.857500 1.738800
8.883500 1.961500
8.909600 2.085300
8.935600 2.036400
8.961600 1.937600
8.987600 2.015400
9.013600 2.227500
9.039700 2.320700
9.065700 2.274900
9.091700 2.271400
9.117700 2.341500
9.143800 2.312000
9.169800 2.104100
9.195800 1.904300
9.221800 1.877400
9.247900 1.940500
9.273900 1.852900
9.299900 1.477600
9.325900 1.037500
9.352000 0.891000
9.378000 1.160300
9.404000 1.691900
9.430000 2.111700
9.456100 2.135300
9.482100 1.960900
9.508100 1.998800
9.534100 2.190700
9.560100 2.085200
9.586200 1.725200
9.612200 1.613300
9.638200 1.766500
9.664200 1.729700
9.690300 1.431000
9.716300 1.231100
9.742300 1.302100
9.768300 1.515300
9.794400 1.654200
9.820400 1.591600
9.846400 1.470200
9.872400 1.524400
9.898500 1.752600
9.924500 1.915800
9.950500 1.821100
9.976500 1.592100
10.002600 1.523100
10.028600 1.706700
10.054600 2.024400
10.080600 2.335200
10.106600 2.443100
10.132700 2.185800
10.158700 1.739900
10.184700 1.543500
10.210700 1.832700
10.236800 2.423700
10.262800 2.881100
10.288800 2.976700
10.314800 2.869000
10.340900 2.675000
10.366900 2.355300
10.392900 1.991600
10.418900 1.816500
10.445000 1.949700
10.471000 2.248400
10.497000 2.397300
10.523000 2.194600
10.549100 1.861700
10.575100 1.658400
10.601100 1.493400
10.627100 1.419400
10.653100 1.670100
10.679200 2.104100
10.705200 2.375200
10.731200 2.347200
10.757200 2.085100
10.783300 1.818200
10.809300 1.703400
10.835300 1.662800
10.861300 1.663400
10.887400 1.766000
10.913400 1.915800
10.939400 2.010500
10.965400 2.056100
10.991500 2.121600
11.017500 2.244900
11.043500 2.380200
11.069500 2.385100
11.095600 2.189000
11.121600 1.920500
11.147600 1.707300
11.173600 1.503600
11.199700 1.301700
11.225700 1.265100
11.251700 1.486200
11.277700 1.760300
11.303700 1.834000
11.329800 1.785000
11.355800 1.837000
11.381800 2.052800
11.407800 2.381000
11.433900 2.651500
11.459900 2.627200
11.485900 2.361300
11.511900 2.152400
11.538000 2.060500
11.564000 1.912500
11.590000 1.729200
11.616000 1.731400
11.642100 1.949400
11.668100 2.126900
11.694100 2.092900
11.720100 1.933100
11.746200 1.807800
11.772200 1.885800
11.798200 2.173100
11.824200 2.407900
11.850200 2.378100
11.876300 2.131300
11.902300 1.871300
11.928300 1.822700
11.954300 2.164600
11.980400 2.813900
12.006400 3.230900
12.032400 3.013900
12.058400 2.481400
12.084500 2.126100
12.110500 1.994600
12.136500 1.873600
12.162500 1.652800
12.188600 1.406400
12.214600 1.207200
12.240600 1.050700
12.266600 1.096800
12.292700 1.568600
12.318700 2.295200
12.344700 2.780900
12.370700 2.788600
12.396700 2.402600
12.422800 1.842500
12.448800 1.473700
12.474800 1.388800
12.500800 1.339700
12.526900 1.325900
12.552900 1.517000
12.578900 1.750100
12.604900 1.816900
12.631000 1.820900
12.657000 1.844600
12.683000 1.801400
12.709000 1.691500
12.735100 1.595400
12.761100 1.523100
12.787100 1.502500
12.813100 1.575700
12.839200 1.657600
12.865200 1.623900
12.891200 1.520400
12.917200 1.590000
12.943200 2.010400
12.969300 2.617000
12.995300 3.091500
13.021300 3.307300
13.047300 3.213800
13.073400 2.844800
13.099400 2.535900
13.125400 2.529200
13.151400 2.695200
13.177500 2.739000
13.203500 2.466900
13.229500 2.007600
13.255500 1.611500
13.281600 1.429400
13.307600 1.489900
13.333600 1.652600
13.359600 1.817900
13.385700 1.973100
13.411700 1.976700
13.437700 1.817400
13.463700 1.738400
13.489700 1.767800
13.515800 1.792500
13.541800 1.943300
13.567800 2.266900
13.593800 2.384200
13.619900 2.037800
13.645900 1.584800
13.671900 1.428100
13.697900 1.533600
13.724000 1.718200
13.750000 1.854800
13.776000 1.801800
13.802000 1.548400
13.828100 1.345500
13.854100 1.402500
13.880100 1.698600
13.906100 2.144300
13.932200 2.595000
13.958200 2.788200
13.984200 2.507300
14.010200 1.886800
14.036200 1.403800
14.062300 1.399700
14.088300 1.756500
14.114300 2.103100
14.140300 2.210000
14.166400 2.077600
14.192400 1.790500
14.218400 1.527000
14.244400 1.537900
14.270500 1.854700
14.296500 2.236700
14.322500 2.485500
14.348500 2.513500
14.374600 2.307500
14.400600 2.007900
14.426600 1.816900
14.452600 1.829700
14.478700 1.996100
14.504700 2.118600
14.530700 2.074900
14.556700 2.019200
14.582700 2.053600
14.608800 2.023800
14.634800 1.833400
14.660800 1.671900
14.686800 1.867000
14.712900 2.371000
14.738900 2.580300
14.764900 2.215200
14.790900 1.763700
14.817000 1.607100
14.843000 1.639500
14.869000 1.682300
14.895000 1.693100
14.921100 1.735600
14.947100 1.850300
14.973100 1.922400
14.999100 1.830700
15.025200 1.586500
15.051200 1.291900
15.077200 1.205900
15.103200 1.527200
15.129200 2.094400
15.155300 2.550900
15.181300 2.598600
15.207300 2.232100
15.233300 1.818700
15.259400 1.662500
15.285400 1.739200
15.311400 1.928500
15.337400 2.102800
15.363500 2.112100
15.389500 2.037400
15.415500 2.095400
15.441500 2.179100
15.467600 2.095200
15.493600 1.987900
15.519600 1.982100
15.545600 1.910500
15.571700 1.700100
15.597700 1.530900
15.623700 1.551300
15.649700 1.756700
15.675700 2.026700
15.701800 2.192800
15.727800 2.212800
15.753800 2.225900
15.779800 2.362000
15.805900 2.586100
15.831900 2.772700
15.857900 2.753800
15.883900 2.498000
15.910000 2.330100
15.936000 2.426000
15.962000 2.444800
15.988000 2.137300
16.014100 1.796000
16.040100 1.732200
16.066100 1.805100
16.092100 1.820600
16.118200 1.856400
16.144200 1.954400
16.170200 1.997100
16.196200 1.930800
16.222200 1.794600
16.248300 1.658800
16.274300 1.610600
16.300300 1.652300
16.326300 1.686600
16.352400 1.703600
16.378400 1.775400
16.404400 1.803200
16.430400 1.672900
16.456500 1.509100
16.482500 1.433400
16.508500 1.378600
16.534500 1.296000
16.560600 1.246500
16.586600 1.250300
16.612600 1.316800
16.638600 1.504500
16.664700 1.794100
16.690700 1.985500
16.716700 1.891300
16.742700 1.692400
16.768800 1.721000
16.794800 1.970100
16.820800 2.193700
16.846800 2.217300
16.872800 2.002400
16.898900 1.727800
16.924900 1.722300
16.950900 2.094600
16.976900 2.584700
17.003000 2.854600
17.029000 2.810200
17.055000 2.636100
17.081000 2.521900
17.107100 2.369900
17.133100 2.039100
17.159100 1.685200
17.185100 1.514400
17.211200 1.605800
17.237200 1.977000
17.263200 2.372900
17.289200 2.424300
17.315300 2.257600
17.341300 2.192800
17.367300 2.212500
17.393300 2.265500
17.419300 2.377000
17.445400 2.411000
17.471400 2.164600
17.497400 1.704100
17.523400 1.410600
17.549500 1.563500
17.575500 2.048900
17.601500 2.433600
17.627500 2.335900
17.653600 1.907900
17.679600 1.593700
17.705600 1.597500
17.731600 1.890700
17.757700 2.254800
17.783700 2.340400
17.809700 2.063900
17.835700 1.780000
17.861800 1.773600
17.887800 1.891400
17.913800 1.899600
17.939800 1.770600
17.965800 1.668800
17.991900 1.802000
18.017900 2.133400
18.043900 2.372300
18.069900 2.282400
18.096000 2.011000
18.122000 1.962500
18.148000 2.198200
18.174000 2.361500
18.200100 2.289300
18.226100 2.303800
18.252100 2.666400
18.278100 3.055800
18.304200 3.012800
18.330200 2.612400
18.356200 2.279800
18.382200 2.262200
18.408300 2.531300
18.434300 2.832400
18.460300 2.791000
18.486300 2.437800
18.512300 2.316000
18.538400 2.540300
18.564400 2.578300
18.590400 2.326900
18.616400 2.315200
18.642500 2.668400
18.668500 2.915200
18.694500 2.770900
18.720500 2.370100
18.746600 1.990100
18.772600 1.871200
18.798600 2.103400
18.824600 2.632200
18.850700 3.114300
18.876700 3.048200
18.902700 2.436800
18.928700 1.782000
18.954800 1.455800
18.980800 1.485900
19.006800 1.799200
19.032800 2.307100
19.058800 2.866500
19.084900 3.312600
19.110900 3.372100
19.136900 2.907000
19.162900 2.227700
19.189000 1.694100
19.215000 1.391500
19.241000 1.400700
19.267000 1.770600
19.293100 2.202900
19.319100 2.327100
19.345100 2.134600
19.371100 1.854900
19.397200 1.657700
19.423200 1.630500
19.449200 1.815000
19.475200 2.166500
19.501300 2.572800
19.527300 2.904700
19.553300 3.091400
19.579300 3.121100
19.605300 2.998300
19.631400 2.863200
19.657400 2.938300
19.683400 3.121200
19.709400 3.045700
19.735500 2.685600
