set title 'mp-1226058 - Density of States'
set xlabel 'Energy (eV)'
set ylabel 'DOS (states/eV)'
set grid
set xrange [-10:10]
set yrange [0:19.352]
set xzeroaxis lt -1
set terminal png size 800,600
set output 'mp-1226058_dos_gnuplot.png'
plot '-' using 1:2 with lines title 'DOS'
-23.353000 0.000000
-23.312300 0.000000
-23.271500 0.000000
-23.230800 0.000000
-23.190000 0.000000
-23.149300 0.000000
-23.108500 0.000000
-23.067800 0.000000
-23.027000 0.000000
-22.986300 0.000000
-22.945500 0.000000
-22.904800 0.000000
-22.864000 0.000000
-22.823300 0.000000
-22.782500 0.000000
-22.741800 0.000000
-22.701000 0.000000
-22.660300 0.000000
-22.619500 0.000000
-22.578800 0.000000
-22.538000 0.000000
-22.497300 0.000000
-22.456500 0.000000
-22.415800 0.000000
-22.375000 0.000000
-22.334200 0.000000
-22.293500 0.000000
-22.252700 0.000000
-22.212000 0.000000
-22.171200 0.000000
-22.130500 0.000000
-22.089700 0.000000
-22.049000 0.000000
-22.008200 0.000000
-21.967500 0.000000
-21.926700 0.000000
-21.886000 0.000000
-21.845200 0.000000
-21.804500 0.000000
-21.763700 0.000000
-21.723000 0.000000
-21.682200 0.000000
-21.641500 0.000000
-21.600700 0.000000
-21.560000 0.000000
-21.519200 0.000000
-21.478500 0.000000
-21.437700 0.000000
-21.397000 0.000000
-21.356200 0.000000
-21.315500 0.000000
-21.274700 0.000000
-21.234000 0.000000
-21.193200 0.000000
-21.152500 0.000000
-21.111700 0.000000
-21.071000 0.000000
-21.030200 0.000000
-20.989500 0.000000
-20.948700 0.000000
-20.907900 0.000000
-20.867200 0.000000
-20.826400 0.000000
-20.785700 0.000000
-20.744900 0.000000
-20.704200 0.000000
-20.663400 0.000000
-20.622700 0.000000
-20.581900 0.000000
-20.541200 0.000000
-20.500400 0.000000
-20.459700 0.000000
-20.418900 0.000000
-20.378200 0.000000
-20.337400 0.000000
-20.296700 0.000000
-20.255900 0.000000
-20.215200 0.000000
-20.174400 0.000000
-20.133700 0.000000
-20.092900 0.000000
-20.052200 0.000000
-20.011400 0.000000
-19.970700 0.000000
-19.929900 0.000000
-19.889200 0.000000
-19.848400 0.000000
-19.807700 0.000000
-19.766900 0.000000
-19.726200 0.000000
-19.685400 0.000000
-19.644700 1.512200
-19.603900 2.286400
-19.563100 2.729500
-19.522400 3.727800
-19.481600 7.578500
-19.440900 7.529600
-19.400100 6.857100
-19.359400 10.048000
-19.318600 12.579700
-19.277900 24.804500
-19.237100 29.925700
-19.196400 26.132300
-19.155600 23.687300
-19.114900 27.730300
-19.074100 36.645000
-19.033400 9.126800
-18.992600 2.976900
-18.951900 2.013500
-18.911100 1.586300
-18.870400 0.000000
-18.829600 0.000000
-18.788900 0.000000
-18.748100 0.000000
-18.707400 0.000000
-18.666600 0.000000
-18.625900 0.000000
-18.585100 0.000000
-18.544400 0.000000
-18.503600 0.000000
-18.462900 0.000000
-18.422100 0.000000
-18.381400 0.000000
-18.340600 0.000000
-18.299900 0.000000
-18.259100 0.000000
-18.218400 0.000000
-18.177600 0.000000
-18.136800 0.000000
-18.096100 0.000000
-18.055300 0.000000
-18.014600 0.000000
-17.973800 0.000000
-17.933100 0.000000
-17.892300 0.000000
-17.851600 0.000000
-17.810800 0.000000
-17.770100 0.000000
-17.729300 0.000000
-17.688600 0.000000
-17.647800 0.000000
-17.607100 0.000000
-17.566300 0.000000
-17.525600 0.000000
-17.484800 0.000000
-17.444100 0.000000
-17.403300 0.000000
-17.362600 0.000000
-17.321800 0.000000
-17.281100 0.000000
-17.240300 0.000000
-17.199600 0.000000
-17.158800 0.000000
-17.118100 0.000000
-17.077300 0.000000
-17.036600 0.000000
-16.995800 0.000000
-16.955100 0.000000
-16.914300 0.000000
-16.873600 0.000000
-16.832800 0.000000
-16.792100 0.000000
-16.751300 0.000000
-16.710500 0.000000
-16.669800 0.000000
-16.629000 0.000000
-16.588300 0.000000
-16.547500 0.000000
-16.506800 0.000000
-16.466000 0.000000
-16.425300 0.000000
-16.384500 0.000000
-16.343800 0.000000
-16.303000 0.000000
-16.262300 0.000000
-16.221500 0.000000
-16.180800 0.000000
-16.140000 0.000000
-16.099300 0.000000
-16.058500 0.000000
-16.017800 0.000000
-15.977000 0.000000
-15.936300 0.000000
-15.895500 0.000000
-15.854800 0.000000
-15.814000 0.000000
-15.773300 0.000000
-15.732500 0.000000
-15.691800 0.000000
-15.651000 0.000000
-15.610300 0.000000
-15.569500 0.000000
-15.528800 0.000000
-15.488000 0.000000
-15.447300 0.000000
-15.406500 0.000000
-15.365700 0.000000
-15.325000 0.000000
-15.284200 0.000000
-15.243500 0.000000
-15.202700 0.000000
-15.162000 0.000000
-15.121200 0.000000
-15.080500 0.000000
-15.039700 0.000000
-14.999000 0.000000
-14.958200 0.000000
-14.917500 0.000000
-14.876700 0.000000
-14.836000 0.000000
-14.795200 0.000000
-14.754500 0.000000
-14.713700 0.000000
-14.673000 0.000000
-14.632200 0.000000
-14.591500 0.000000
-14.550700 0.000000
-14.510000 0.000000
-14.469200 0.000000
-14.428500 0.000000
-14.387700 0.000000
-14.347000 0.000000
-14.306200 0.000000
-14.265500 0.000000
-14.224700 0.000000
-14.184000 0.000000
-14.143200 0.000000
-14.102500 0.000000
-14.061700 0.000000
-14.021000 0.000000
-13.980200 0.000000
-13.939400 0.000000
-13.898700 0.000000
-13.857900 0.000000
-13.817200 0.000000
-13.776400 0.000000
-13.735700 0.000000
-13.694900 0.000000
-13.654200 0.000000
-13.613400 0.000000
-13.572700 0.000000
-13.531900 0.000000
-13.491200 0.000000
-13.450400 0.000000
-13.409700 0.000000
-13.368900 0.000000
-13.328200 0.000000
-13.287400 0.000000
-13.246700 0.000000
-13.205900 0.000000
-13.165200 0.000000
-13.124400 0.000000
-13.083700 0.000000
-13.042900 0.000000
-13.002200 0.000000
-12.961400 0.000000
-12.920700 0.000000
-12.879900 0.000000
-12.839200 0.000000
-12.798400 0.000000
-12.757700 0.000000
-12.716900 0.000000
-12.676200 0.000000
-12.635400 0.000000
-12.594700 0.000000
-12.553900 0.000000
-12.513100 0.000000
-12.472400 0.000000
-12.431600 0.000000
-12.390900 0.000000
-12.350100 0.000000
-12.309400 0.000000
-12.268600 0.000000
-12.227900 0.000000
-12.187100 0.000000
-12.146400 0.000000
-12.105600 0.000000
-12.064900 0.000000
-12.024100 0.000000
-11.983400 0.000000
-11.942600 0.000000
-11.901900 0.000000
-11.861100 0.000000
-11.820400 0.000000
-11.779600 0.000000
-11.738900 0.000000
-11.698100 0.000000
-11.657400 0.000000
-11.616600 0.000000
-11.575900 0.000000
-11.535100 0.000000
-11.494400 0.000000
-11.453600 0.000000
-11.412900 0.000000
-11.372100 0.000000
-11.331400 0.000000
-11.290600 0.000000
-11.249900 0.000000
-11.209100 0.000000
-11.168300 0.000000
-11.127600 0.000000
-11.086800 0.000000
-11.046100 0.000000
-11.005300 0.000000
-10.964600 0.000000
-10.923800 0.000000
-10.883100 0.000000
-10.842300 0.000000
-10.801600 0.000000
-10.760800 0.000000
-10.720100 0.000000
-10.679300 0.000000
-10.638600 0.000000
-10.597800 0.000000
-10.557100 0.000000
-10.516300 0.000000
-10.475600 0.000000
-10.434800 0.000000
-10.394100 0.000000
-10.353300 0.000000
-10.312600 0.000000
-10.271800 0.000000
-10.231100 0.000000
-10.190300 0.000000
-10.149600 0.000000
-10.108800 0.000000
-10.068100 0.000000
-10.027300 0.000000
-9.986600 0.000000
-9.945800 0.000000
-9.905100 0.000000
-9.864300 0.000000
-9.823600 0.000000
-9.782800 0.000000
-9.742000 0.000000
-9.701300 0.000000
-9.660500 0.000000
-9.619800 0.000000
-9.579000 0.000000
-9.538300 0.000000
-9.497500 0.000000
-9.456800 0.000000
-9.416000 0.000000
-9.375300 0.000000
-9.334500 0.000000
-9.293800 0.000000
-9.253000 0.000000
-9.212300 0.000000
-9.171500 0.000000
-9.130800 0.000000
-9.090000 0.000000
-9.049300 0.000000
-9.008500 0.000000
-8.967800 0.000000
-8.927000 0.000000
-8.886300 0.000000
-8.845500 0.000000
-8.804800 0.000000
-8.764000 0.000000
-8.723300 0.000000
-8.682500 0.000000
-8.641800 0.000000
-8.601000 0.207700
-8.560300 0.260800
-8.519500 0.313800
-8.478800 0.241700
-8.438000 0.241500
-8.397200 0.241400
-8.356500 0.251800
-8.315700 0.265000
-8.275000 0.278200
-8.234200 0.251300
-8.193500 0.246700
-8.152700 0.242100
-8.112000 0.243700
-8.071200 0.248000
-8.030500 0.252400
-7.989700 0.256700
-7.949000 0.261000
-7.908200 0.265400
-7.867500 0.252200
-7.826700 0.249100
-7.786000 0.246000
-7.745200 0.245200
-7.704500 0.246600
-7.663700 0.248000
-7.623000 0.249400
-7.582200 0.250800
-7.541500 0.252200
-7.500700 0.254200
-7.460000 0.257100
-7.419200 0.259900
-7.378500 0.253400
-7.337700 0.251000
-7.297000 0.248600
-7.256200 0.246700
-7.215500 0.246900
-7.174700 0.247100
-7.134000 0.247500
-7.093200 0.248100
-7.052500 0.248700
-7.011700 0.249400
-6.970900 0.250900
-6.930200 0.252400
-6.889400 0.253900
-6.848700 0.255400
-6.807900 0.256900
-6.767200 0.258400
-6.726400 0.251800
-6.685700 0.249800
-6.644900 0.247800
-6.604200 0.247700
-6.563400 0.247900
-6.522700 0.248100
-6.481900 0.248300
-6.441200 0.248500
-6.400400 0.248700
-6.359700 0.249400
-6.318900 0.250100
-6.278200 0.250900
-6.237400 0.251700
-6.196700 0.252500
-6.155900 0.253300
-6.115200 0.254200
-6.074400 0.255200
-6.033700 0.256200
-5.992900 0.252900
-5.952200 0.251800
-5.911400 0.250600
-5.870700 0.249800
-5.829900 0.249800
-5.789200 0.249900
-5.748400 0.249900
-5.707700 0.249900
-5.666900 0.250000
-5.626200 0.250100
-5.585400 0.250500
-5.544600 0.251000
-5.503900 0.251600
-5.463100 0.252200
-5.422400 0.252900
-5.381600 0.253500
-5.340900 0.254100
-5.300100 0.254800
-5.259400 0.255400
-5.218600 0.256300
-5.177900 0.257100
-5.137100 0.257900
-5.096400 0.255200
-5.055600 0.254500
-5.014900 0.253800
-4.974100 0.253800
-4.933400 0.253800
-4.892600 0.253900
-4.851900 0.254100
-4.811100 0.254300
-4.770400 0.254600
-4.729600 0.255100
-4.688900 0.255600
-4.648100 0.256100
-4.607400 0.256600
-4.566600 0.257200
-4.525900 0.257700
-4.485100 0.258200
-4.444400 0.258700
-4.403600 0.259200
-4.362900 0.259900
-4.322100 0.260500
-4.281400 0.261200
-4.240600 0.261800
-4.199800 0.262400
-4.159100 0.264100
-4.118300 0.265500
-4.077600 0.266800
-4.036800 0.268100
-3.996100 0.269200
-3.955300 0.270200
-3.914600 0.271300
-3.873800 0.272400
-3.833100 0.273600
-3.792300 0.274700
-3.751600 0.275700
-3.710800 0.276700
-3.670100 0.277800
-3.629300 0.278800
-3.588600 0.279800
-3.547800 0.280900
-3.507100 0.281900
-3.466300 0.283000
-3.425600 0.284000
-3.384800 0.285100
-3.344100 0.286300
-3.303300 0.287400
-3.262600 0.288500
-3.221800 0.436700
-3.181100 0.422700
-3.140300 0.408700
-3.099600 0.311500
-3.058800 0.305000
-3.018100 0.298500
-2.977300 0.292000
-2.936600 0.285500
-2.895800 0.279000
-2.855100 0.245500
-2.814300 0.241500
-2.773500 0.237400
-2.732800 0.291600
-2.692000 0.318100
-2.651300 0.349400
-2.610500 0.385300
-2.569800 0.387400
-2.529000 0.414900
-2.488300 0.427000
-2.447500 0.436700
-2.406800 0.424600
-2.366000 0.428000
-2.325300 0.423400
-2.284500 0.421400
-2.243800 0.421100
-2.203000 0.419900
-2.162300 0.466500
-2.121500 0.477400
-2.080800 0.496500
-2.040000 0.491200
-1.999300 0.501900
-1.958500 0.513400
-1.917800 0.519200
-1.877000 0.529800
-1.836300 0.540900
-1.795500 0.552500
-1.754800 0.552400
-1.714000 0.559900
-1.673300 0.567700
-1.632500 0.612600
-1.591800 0.628800
-1.551000 0.643600
-1.510300 0.637300
-1.469500 0.635400
-1.428700 0.636300
-1.388000 0.634700
-1.347200 0.637900
-1.306500 0.640600
-1.265700 0.641400
-1.225000 9.252900
-1.184200 0.832000
-1.143500 0.844900
-1.102700 0.777600
-1.062000 0.787000
-1.021200 0.796800
-0.980500 0.806900
-0.939700 0.876100
-0.899000 0.901900
-0.858200 0.904000
-0.817500 0.901100
-0.776700 0.911100
-0.736000 0.925800
-0.695200 0.942800
-0.654500 0.961700
-0.613700 0.981400
-0.573000 0.990600
-0.532200 1.006800
-0.491500 1.010000
-0.450700 1.027300
-0.410000 1.043400
-0.369200 1.060700
-0.328500 1.078300
-0.287700 1.096600
-0.247000 1.155600
-0.206200 1.185000
-0.165500 1.213000
-0.124700 1.225700
-0.084000 1.259800
-0.043200 1.289400
-0.002400 1.318600
0.038300 1.344600
0.079100 1.363300
0.119800 1.385000
0.160600 1.406300
0.201300 1.432700
0.242100 1.461600
0.282800 1.489500
0.323600 1.517900
0.364300 1.495500
0.405100 1.485000
0.445800 1.467800
0.486600 1.433300
0.527300 1.498700
0.568100 1.524400
0.608800 1.545400
0.649600 1.580300
0.690300 1.618100
0.731100 1.671800
0.771800 1.757100
0.812600 1.986800
0.853300 2.199000
0.894100 2.210600
0.934800 2.265600
0.975600 2.416800
1.016300 3.134900
1.057100 3.234200
1.097800 4.820000
1.138600 4.516500
1.179300 4.075100
1.220100 4.560500
1.260800 4.840300
1.301600 5.008400
1.342300 6.495500
1.383100 6.697400
1.423900 6.437300
1.464600 6.940600
1.505400 7.801200
1.546100 7.745600
1.586900 9.248100
1.627600 8.313600
1.668400 8.462100
1.709100 8.445400
1.749900 6.895400
1.790600 6.350600
1.831400 6.505200
1.872100 6.532000
1.912900 7.571000
1.953600 7.360200
1.994400 9.391500
2.035100 10.421000
2.075900 10.717300
2.116600 12.042900
2.157400 12.085700
2.198100 10.090200
2.238900 14.107200
2.279600 11.414000
2.320400 10.884600
2.361100 11.208000
2.401900 9.472100
2.442600 9.787800
2.483400 12.452900
2.524100 12.175900
2.564900 11.046100
2.605600 10.901200
2.646400 12.091600
2.687100 11.800900
2.727900 15.033700
2.768700 11.732500
2.809400 10.034000
2.850200 10.347100
2.890900 10.286400
2.931700 9.497200
2.972400 9.136300
3.013200 10.382000
3.053900 8.933000
3.094700 7.536500
3.135400 6.653700
3.176200 6.598000
3.216900 7.475200
3.257700 6.389600
3.298400 6.254000
3.339200 7.818100
3.379900 8.940100
3.420700 8.285000
3.461400 9.555000
3.502200 8.662300
3.542900 7.334700
3.583700 9.822100
3.624400 10.392700
3.665200 10.920400
3.705900 11.260300
3.746700 10.340400
3.787400 12.393400
3.828200 12.192000
3.868900 12.187900
3.909700 12.027700
3.950400 13.643600
3.991200 10.041700
4.031900 12.355900
4.072700 12.849900
4.113400 11.373500
4.154200 11.866300
4.195000 14.355900
4.235700 15.544100
4.276500 13.054000
4.317200 11.288800
4.358000 12.506400
4.398700 11.567800
4.439500 13.187300
4.480200 17.593000
4.521000 16.720400
4.561700 14.048200
4.602500 14.597800
4.643200 12.894000
4.684000 11.951900
4.724700 11.745800
4.765500 12.500200
4.806200 12.162200
4.847000 12.996800
4.887700 11.438100
4.928500 8.519700
4.969200 5.906000
5.010000 5.128100
5.050700 5.000200
5.091500 4.690900
5.132200 4.529900
5.173000 4.032800
5.213700 3.937700
5.254500 3.894300
5.295200 3.892500
5.336000 3.861700
5.376700 3.856000
5.417500 3.859200
5.458200 3.527300
5.499000 3.743500
5.539800 2.319300
5.580500 2.036000
5.621300 1.786000
5.662000 1.578400
5.702800 1.539000
5.743500 1.515100
5.784300 1.465400
5.825000 1.434400
5.865800 1.435300
5.906500 1.485300
5.947300 1.501400
5.988000 1.510300
6.028800 1.513500
6.069500 1.513200
6.110300 1.580400
6.151000 1.617100
6.191800 1.650100
6.232500 1.669000
6.273300 1.744800
6.314000 1.773200
6.354800 1.795700
6.395500 1.829400
6.436300 1.808900
6.477000 1.802800
6.517800 1.731500
6.558500 1.644500
6.599300 1.618700
6.640000 1.642300
6.680800 2.096500
6.721500 1.655800
6.762300 1.602900
6.803000 1.588000
6.843800 1.554900
6.884500 1.548600
6.925300 1.538100
6.966100 1.517700
7.006800 1.501000
7.047600 1.481400
7.088300 1.463600
7.129100 1.466600
7.169800 1.463600
7.210600 1.515700
7.251300 1.512700
7.292100 1.484800
7.332800 1.463100
7.373600 1.440100
7.414300 1.525200
7.455100 1.483700
7.495800 1.305800
7.536600 1.208000
7.577300 1.100200
7.618100 1.065000
7.658800 1.037200
7.699600 1.051200
7.740300 1.082100
7.781100 1.114800
7.821800 1.145400
7.862600 1.146800
7.903300 1.085200
7.944100 1.107000
7.984800 1.169500
8.025600 1.160900
8.066300 1.150000
8.107100 1.049600
8.147800 1.039200
8.188600 1.030400
8.229300 1.008400
8.270100 0.998000
8.310800 0.993900
8.351600 0.998000
8.392400 1.006000
8.433100 1.057500
8.473900 1.111800
8.514600 1.168000
8.555400 2.022000
8.596100 1.848300
8.636900 1.951800
8.677600 2.050600
8.718400 2.109200
8.759100 2.068400
8.799900 2.063200
8.840600 1.842800
8.881400 1.761100
8.922100 1.821800
8.962900 1.861300
9.003600 1.928700
9.044400 1.879100
9.085100 1.724200
9.125900 1.577000
9.166600 1.542200
9.207400 1.530600
9.248100 1.715100
9.288900 1.663800
9.329600 1.668800
9.370400 1.928400
9.411100 1.583200
9.451900 1.530100
9.492600 1.679600
9.533400 1.757900
9.574100 1.819800
9.614900 1.862100
9.655600 1.839000
9.696400 1.927100
9.737200 1.921200
9.777900 2.154200
9.818700 2.219900
9.859400 2.143800
9.900200 1.740100
9.940900 1.781200
9.981700 1.970000
10.022400 1.441100
10.063200 1.467100
10.103900 1.563400
10.144700 1.716900
10.185400 1.801200
10.226200 1.608400
10.266900 1.602200
10.307700 1.617600
10.348400 1.708400
10.389200 1.769200
10.429900 1.885600
10.470700 1.872900
10.511400 2.051000
10.552200 2.201100
10.592900 2.234800
10.633700 2.198900
10.674400 2.171000
10.715200 2.129300
10.755900 1.943200
10.796700 1.891700
10.837400 1.958400
10.878200 2.056700
10.918900 1.937700
10.959700 1.928500
11.000400 1.949200
11.041200 1.929200
11.081900 1.825500
11.122700 1.753200
11.163500 1.722900
11.204200 1.681200
11.245000 1.712900
11.285700 1.731000
11.326500 1.622500
11.367200 1.716500
11.408000 1.821400
11.448700 1.608800
11.489500 1.496600
11.530200 1.465000
11.571000 1.475500
11.611700 1.478700
11.652500 1.486500
11.693200 1.496100
11.734000 1.523700
11.774700 1.476700
11.815500 1.481300
11.856200 1.601800
11.897000 1.521300
11.937700 1.461400
11.978500 1.446400
12.019200 1.455700
12.060000 1.415500
12.100700 1.307500
12.141500 1.277500
12.182200 1.257500
12.223000 1.246800
12.263700 1.228400
12.304500 1.206300
12.345200 1.340700
12.386000 1.384000
12.426700 1.513100
12.467500 1.533900
12.508300 1.649900
12.549000 1.745300
12.589800 1.801200
12.630500 1.910500
12.671300 1.893100
12.712000 1.832800
12.752800 1.750900
12.793500 1.804500
12.834300 1.891400
12.875000 1.960500
12.915800 1.847000
12.956500 1.607600
12.997300 1.601500
13.038000 1.705800
13.078800 1.775800
13.119500 1.774100
13.160300 1.782900
13.201000 1.807200
13.241800 1.786400
13.282500 1.895400
13.323300 1.858300
13.364000 1.786400
13.404800 1.700700
13.445500 1.648100
13.486300 1.617800
13.527000 1.591200
13.567800 1.575900
13.608500 1.552700
13.649300 1.561400
13.690000 1.587100
13.730800 1.606000
13.771500 1.656800
13.812300 1.651000
13.853000 1.686900
13.893800 1.711800
13.934600 1.774200
13.975300 1.732100
14.016100 1.675700
14.056800 1.656400
14.097600 1.589500
14.138300 1.549200
14.179100 1.772100
14.219800 1.382400
14.260600 1.352400
14.301300 1.323900
14.342100 1.323800
14.382800 1.440700
14.423600 1.501900
14.464300 1.562200
14.505100 1.628500
14.545800 1.718100
14.586600 1.894400
14.627300 1.855300
14.668100 1.942300
14.708800 1.856700
14.749600 1.974400
14.790300 2.034800
14.831100 2.063200
14.871800 2.105700
14.912600 2.112600
14.953300 2.025700
14.994100 1.931900
15.034800 1.727000
15.075600 1.571800
15.116300 1.399000
15.157100 1.428000
15.197800 1.443500
15.238600 1.426600
15.279300 1.450000
15.320100 2.011900
15.360900 2.298100
15.401600 1.995200
15.442400 1.834300
15.483100 1.758500
15.523900 1.773200
15.564600 1.688300
15.605400 1.647100
15.646100 1.625300
15.686900 1.595100
15.727600 1.566300
15.768400 1.538900
15.809100 1.771700
15.849900 1.655500
15.890600 1.711000
15.931400 1.696600
15.972100 1.759000
16.012900 1.860500
16.053600 1.911100
16.094400 1.898100
16.135100 1.938400
16.175900 1.846700
16.216600 1.754400
16.257400 1.729800
16.298100 1.936200
16.338900 1.911500
16.379600 2.157600
16.420400 2.362300
16.461100 2.075600
16.501900 2.097100
16.542600 2.224400
16.583400 2.194900
16.624100 2.239800
16.664900 2.226000
16.705700 2.533000
16.746400 2.227700
16.787200 2.234200
16.827900 2.393300
16.868700 2.223200
16.909400 2.214200
16.950200 2.163900
16.990900 2.067700
17.031700 2.148900
17.072400 2.396100
17.113200 2.396000
17.153900 2.034700
17.194700 1.949100
17.235400 1.926700
17.276200 1.946100
17.316900 2.022000
17.357700 2.093200
17.398400 2.066300
17.439200 2.122000
17.479900 2.173200
17.520700 2.292700
17.561400 2.470600
17.602200 2.453300
17.642900 2.355100
17.683700 2.340500
17.724400 2.386100
17.765200 2.314000
17.805900 2.258600
17.846700 2.255600
17.887400 2.284400
17.928200 2.300200
17.968900 2.118700
18.009700 2.085300
18.050400 2.047600
18.091200 1.985700
18.132000 1.983600
18.172700 2.038900
18.213500 2.010900
18.254200 1.995600
18.295000 1.968500
18.335700 1.935900
18.376500 1.960300
18.417200 2.022100
18.458000 2.149900
18.498700 2.024100
18.539500 2.050000
18.580200 2.131900
