set title 'mp-20132 - Density of States'
set xlabel 'Energy (eV)'
set ylabel 'DOS (states/eV)'
set grid
set xrange [-10:10]
set yrange [0:30.378]
set xzeroaxis lt -1
set terminal png size 800,600
set output 'mp-20132_dos_gnuplot.png'
plot '-' using 1:2 with lines title 'DOS'
-11.728800 0.000000
-11.712300 0.000000
-11.695800 0.000000
-11.679300 0.000000
-11.662900 0.000000
-11.646400 0.000000
-11.629900 0.000000
-11.613400 0.000000
-11.596900 0.000000
-11.580500 0.000000
-11.564000 0.000000
-11.547500 0.000000
-11.531000 0.000000
-11.514500 0.000000
-11.498000 0.000000
-11.481600 0.000000
-11.465100 0.000000
-11.448600 0.000000
-11.432100 0.000000
-11.415600 0.000000
-11.399200 0.000000
-11.382700 0.000000
-11.366200 0.000000
-11.349700 0.000000
-11.333200 0.000000
-11.316700 0.000000
-11.300300 0.000000
-11.283800 0.000000
-11.267300 0.000000
-11.250800 0.000000
-11.234300 0.000000
-11.217800 0.000000
-11.201400 0.000000
-11.184900 0.000000
-11.168400 0.000000
-11.151900 0.000000
-11.135400 0.000000
-11.119000 0.000000
-11.102500 0.000000
-11.086000 0.000000
-11.069500 0.000000
-11.053000 0.000000
-11.036500 0.000000
-11.020100 0.000000
-11.003600 0.000000
-10.987100 0.000000
-10.970600 0.000000
-10.954100 0.000000
-10.937700 0.000000
-10.921200 0.000000
-10.904700 0.000000
-10.888200 0.000000
-10.871700 0.000000
-10.855200 0.000000
-10.838800 0.000000
-10.822300 0.000000
-10.805800 0.000000
-10.789300 0.000000
-10.772800 0.000000
-10.756400 0.000000
-10.739900 0.000000
-10.723400 0.000000
-10.706900 0.000000
-10.690400 0.000000
-10.673900 0.000000
-10.657500 0.000000
-10.641000 0.000000
-10.624500 0.000000
-10.608000 0.000000
-10.591500 0.000000
-10.575100 0.000000
-10.558600 0.000000
-10.542100 0.000000
-10.525600 0.000000
-10.509100 0.000000
-10.492600 0.000000
-10.476200 0.000000
-10.459700 0.000000
-10.443200 0.000000
-10.426700 0.000000
-10.410200 0.000000
-10.393800 0.000000
-10.377300 0.000000
-10.360800 0.000000
-10.344300 0.000000
-10.327800 0.000000
-10.311300 0.000000
-10.294900 0.000000
-10.278400 0.000000
-10.261900 0.000000
-10.245400 0.000000
-10.228900 1.819800
-10.212500 22.729100
-10.196000 49.699400
-10.179500 74.872900
-10.163000 69.944900
-10.146500 75.857000
-10.130000 78.992200
-10.113600 58.661700
-10.097100 50.766100
-10.080600 30.529400
-10.064100 33.794000
-10.047600 0.000000
-10.031100 0.000000
-10.014700 0.000000
-9.998200 0.000000
-9.981700 0.000000
-9.965200 0.000000
-9.948700 0.000000
-9.932300 0.000000
-9.915800 0.000000
-9.899300 0.000000
-9.882800 0.000000
-9.866300 0.000000
-9.849800 0.000000
-9.833400 0.000000
-9.816900 0.000000
-9.800400 0.000000
-9.783900 0.000000
-9.767400 0.000000
-9.751000 0.000000
-9.734500 0.000000
-9.718000 0.000000
-9.701500 0.000000
-9.685000 0.000000
-9.668500 0.000000
-9.652100 0.000000
-9.635600 0.000000
-9.619100 0.000000
-9.602600 0.000000
-9.586100 0.000000
-9.569700 0.000000
-9.553200 0.000000
-9.536700 0.000000
-9.520200 0.000000
-9.503700 0.000000
-9.487200 0.000000
-9.470800 0.000000
-9.454300 0.000000
-9.437800 0.000000
-9.421300 0.000000
-9.404800 0.000000
-9.388400 0.000000
-9.371900 0.000000
-9.355400 0.000000
-9.338900 0.000000
-9.322400 0.000000
-9.305900 0.000000
-9.289500 0.000000
-9.273000 0.000000
-9.256500 0.000000
-9.240000 0.000000
-9.223500 0.000000
-9.207100 0.000000
-9.190600 0.000000
-9.174100 0.000000
-9.157600 0.000000
-9.141100 0.000000
-9.124600 0.000000
-9.108200 0.000000
-9.091700 0.000000
-9.075200 0.000000
-9.058700 0.000000
-9.042200 0.000000
-9.025800 0.000000
-9.009300 0.000000
-8.992800 0.000000
-8.976300 0.000000
-8.959800 0.000000
-8.943300 0.000000
-8.926900 0.000000
-8.910400 0.000000
-8.893900 0.000000
-8.877400 0.000000
-8.860900 0.000000
-8.844400 0.000000
-8.828000 0.000000
-8.811500 0.000000
-8.795000 0.000000
-8.778500 0.000000
-8.762000 0.000000
-8.745600 0.000000
-8.729100 0.000000
-8.712600 0.000000
-8.696100 0.000000
-8.679600 0.000000
-8.663100 0.000000
-8.646700 0.000000
-8.630200 0.000000
-8.613700 0.000000
-8.597200 0.000000
-8.580700 0.000000
-8.564300 0.000000
-8.547800 0.000000
-8.531300 0.000000
-8.514800 0.000000
-8.498300 0.000000
-8.481800 0.000000
-8.465400 0.000000
-8.448900 0.000000
-8.432400 0.000000
-8.415900 0.000000
-8.399400 0.000000
-8.383000 0.000000
-8.366500 0.000000
-8.350000 0.000000
-8.333500 0.000000
-8.317000 0.000000
-8.300500 0.000000
-8.284100 0.000000
-8.267600 0.000000
-8.251100 0.000000
-8.234600 0.000000
-8.218100 0.000000
-8.201700 0.000000
-8.185200 0.000000
-8.168700 0.000000
-8.152200 0.000000
-8.135700 0.000000
-8.119200 0.000000
-8.102800 0.000000
-8.086300 0.000000
-8.069800 0.000000
-8.053300 0.000000
-8.036800 0.000000
-8.020400 0.000000
-8.003900 0.000000
-7.987400 0.000000
-7.970900 0.000000
-7.954400 0.000000
-7.937900 0.000000
-7.921500 0.000000
-7.905000 0.000000
-7.888500 0.000000
-7.872000 0.000000
-7.855500 0.000000
-7.839100 0.000000
-7.822600 0.000000
-7.806100 0.000000
-7.789600 0.000000
-7.773100 0.000000
-7.756600 0.000000
-7.740200 0.000000
-7.723700 0.000000
-7.707200 0.000000
-7.690700 0.000000
-7.674200 0.000000
-7.657700 0.000000
-7.641300 0.000000
-7.624800 0.000000
-7.608300 0.000000
-7.591800 0.000000
-7.575300 0.000000
-7.558900 0.000000
-7.542400 0.000000
-7.525900 0.000000
-7.509400 0.000000
-7.492900 0.000000
-7.476400 0.000000
-7.460000 0.000000
-7.443500 0.000000
-7.427000 0.000000
-7.410500 0.000000
-7.394000 0.000000
-7.377600 0.000000
-7.361100 0.000000
-7.344600 0.000000
-7.328100 0.000000
-7.311600 0.000000
-7.295100 0.000000
-7.278700 0.000000
-7.262200 0.000000
-7.245700 0.000000
-7.229200 0.000000
-7.212700 0.000000
-7.196300 0.000000
-7.179800 0.000000
-7.163300 0.000000
-7.146800 0.000000
-7.130300 0.000000
-7.113800 0.000000
-7.097400 0.000000
-7.080900 0.000000
-7.064400 0.000000
-7.047900 0.000000
-7.031400 0.000000
-7.015000 0.000000
-6.998500 0.000000
-6.982000 0.000000
-6.965500 0.000000
-6.949000 0.000000
-6.932500 0.000000
-6.916100 0.000000
-6.899600 0.000000
-6.883100 0.000000
-6.866600 0.000000
-6.850100 0.000000
-6.833700 0.000000
-6.817200 0.000000
-6.800700 0.000000
-6.784200 0.000000
-6.767700 0.000000
-6.751200 0.000000
-6.734800 0.000000
-6.718300 0.000000
-6.701800 0.000000
-6.685300 0.000000
-6.668800 0.000000
-6.652400 0.000000
-6.635900 0.000000
-6.619400 0.000000
-6.602900 0.000000
-6.586400 0.000000
-6.569900 0.000000
-6.553500 0.000000
-6.537000 0.000000
-6.520500 0.000000
-6.504000 0.000000
-6.487500 0.000000
-6.471000 0.000000
-6.454600 0.000000
-6.438100 0.000000
-6.421600 0.000000
-6.405100 0.000000
-6.388600 0.000000
-6.372200 0.000000
-6.355700 0.000000
-6.339200 0.000000
-6.322700 0.000000
-6.306200 0.000000
-6.289700 0.000000
-6.273300 0.000000
-6.256800 0.000000
-6.240300 0.000000
-6.223800 0.000000
-6.207300 0.000000
-6.190900 0.000000
-6.174400 0.000000
-6.157900 0.000000
-6.141400 0.000000
-6.124900 0.000000
-6.108400 0.000000
-6.092000 0.000000
-6.075500 0.000000
-6.059000 0.000000
-6.042500 0.000000
-6.026000 0.000000
-6.009600 0.000000
-5.993100 0.000000
-5.976600 0.000000
-5.960100 0.000000
-5.943600 0.000000
-5.927100 0.000000
-5.910700 0.000000
-5.894200 0.000000
-5.877700 0.000000
-5.861200 0.000000
-5.844700 0.000000
-5.828300 0.000000
-5.811800 0.000000
-5.795300 0.000000
-5.778800 0.000000
-5.762300 0.000000
-5.745800 0.000000
-5.729400 0.000000
-5.712900 0.000000
-5.696400 0.000000
-5.679900 0.000000
-5.663400 0.000000
-5.647000 0.000000
-5.630500 0.000000
-5.614000 0.000000
-5.597500 0.000000
-5.581000 0.000000
-5.564500 0.000000
-5.548100 0.000000
-5.531600 0.000000
-5.515100 0.000000
-5.498600 0.000000
-5.482100 0.000000
-5.465700 0.000000
-5.449200 0.000000
-5.432700 0.000000
-5.416200 0.000000
-5.399700 0.000000
-5.383200 0.000000
-5.366800 0.000000
-5.350300 0.000000
-5.333800 0.000000
-5.317300 0.000000
-5.300800 0.000000
-5.284300 0.000000
-5.267900 0.000000
-5.251400 0.000000
-5.234900 0.000000
-5.218400 0.000000
-5.201900 0.000000
-5.185500 0.000000
-5.169000 0.000000
-5.152500 0.000000
-5.136000 0.000000
-5.119500 0.000000
-5.103000 0.000000
-5.086600 0.000000
-5.070100 0.000000
-5.053600 0.000000
-5.037100 0.000000
-5.020600 0.000000
-5.004200 0.000000
-4.987700 0.000000
-4.971200 0.000000
-4.954700 0.000000
-4.938200 0.000000
-4.921700 0.000000
-4.905300 0.000000
-4.888800 0.000000
-4.872300 0.000000
-4.855800 0.000000
-4.839300 0.000000
-4.822900 0.000000
-4.806400 0.000000
-4.789900 0.000000
-4.773400 0.000000
-4.756900 0.000000
-4.740400 0.000000
-4.724000 0.000000
-4.707500 0.000000
-4.691000 0.000000
-4.674500 0.000000
-4.658000 0.000000
-4.641600 0.000000
-4.625100 0.000000
-4.608600 0.000000
-4.592100 0.000000
-4.575600 0.000000
-4.559100 0.000000
-4.542700 0.000000
-4.526200 0.000000
-4.509700 0.000000
-4.493200 0.000000
-4.476700 0.000000
-4.460300 0.000000
-4.443800 0.000000
-4.427300 0.000000
-4.410800 0.000000
-4.394300 0.000000
-4.377800 0.000000
-4.361400 0.000200
-4.344900 0.011800
-4.328400 0.040600
-4.311900 0.077300
-4.295400 0.074400
-4.278900 0.084000
-4.262500 0.095000
-4.246000 0.106700
-4.229500 0.118700
-4.213000 0.128900
-4.196500 0.135800
-4.180100 0.141000
-4.163600 0.145800
-4.147100 0.151900
-4.130600 0.158700
-4.114100 0.166000
-4.097600 0.173400
-4.081200 0.180900
-4.064700 0.187500
-4.048200 0.194100
-4.031700 0.199200
-4.015200 0.204600
-3.998800 0.210200
-3.982300 0.215800
-3.965800 0.220800
-3.949300 0.226300
-3.932800 0.232000
-3.916300 0.237800
-3.899900 0.243800
-3.883400 0.249900
-3.866900 0.256000
-3.850400 0.261900
-3.833900 0.268100
-3.817500 0.274000
-3.801000 0.279700
-3.784500 0.285400
-3.768000 0.291700
-3.751500 0.298100
-3.735000 0.304600
-3.718600 0.311400
-3.702100 0.318100
-3.685600 0.324900
-3.669100 0.331900
-3.652600 0.339200
-3.636200 0.346800
-3.619700 0.354600
-3.603200 0.362900
-3.586700 0.371500
-3.570200 0.380400
-3.553700 0.389800
-3.537300 0.400200
-3.520800 0.411200
-3.504300 0.422800
-3.487800 0.435300
-3.471300 0.448600
-3.454900 0.462900
-3.438400 0.478100
-3.421900 0.494400
-3.405400 0.511800
-3.388900 0.530500
-3.372400 0.551900
-3.356000 0.576200
-3.339500 0.605800
-3.323000 0.643300
-3.306500 0.686600
-3.290000 0.738500
-3.273600 0.809400
-3.257100 1.912200
-3.240600 2.848300
-3.224100 3.156400
-3.207600 3.307900
-3.191100 3.459600
-3.174700 3.493600
-3.158200 3.674500
-3.141700 3.886200
-3.125200 4.128500
-3.108700 4.467300
-3.092200 5.292100
-3.075800 5.648000
-3.059300 5.431800
-3.042800 5.340600
-3.026300 5.044600
-3.009800 4.892400
-2.993400 4.398400
-2.976900 3.988700
-2.960400 3.794800
-2.943900 3.786400
-2.927400 4.030900
-2.910900 3.711200
-2.894500 3.310800
-2.878000 2.470700
-2.861500 2.133300
-2.845000 1.865200
-2.828500 1.897900
-2.812100 1.719800
-2.795600 2.614900
-2.779100 3.369000
-2.762600 5.991100
-2.746100 12.005800
-2.729600 13.296700
-2.713200 15.806200
-2.696700 16.639700
-2.680200 17.831800
-2.663700 13.649600
-2.647200 11.590800
-2.630800 12.001900
-2.614300 12.673800
-2.597800 15.330500
-2.581300 25.392600
-2.564800 27.616600
-2.548300 23.165000
-2.531900 21.866700
-2.515400 23.678400
-2.498900 22.179600
-2.482400 20.287800
-2.465900 13.730600
-2.449500 18.397900
-2.433000 17.664800
-2.416500 14.468000
-2.400000 16.129700
-2.383500 14.240800
-2.367000 7.868500
-2.350600 7.696800
-2.334100 7.725900
-2.317600 8.029700
-2.301100 8.520100
-2.284600 8.784900
-2.268200 7.780100
-2.251700 6.489100
-2.235200 6.193900
-2.218700 5.677300
-2.202200 5.346400
-2.185700 5.287100
-2.169300 5.004800
-2.152800 5.104400
-2.136300 1.445200
-2.119800 0.745700
-2.103300 0.712400
-2.086900 0.678600
-2.070400 0.661100
-2.053900 0.647700
-2.037400 0.638100
-2.020900 0.631200
-2.004400 0.624900
-1.988000 0.619900
-1.971500 0.616000
-1.955000 0.613300
-1.938500 0.611300
-1.922000 0.609200
-1.905500 0.606300
-1.889100 0.602800
-1.872600 0.599200
-1.856100 0.594600
-1.839600 0.582100
-1.823100 0.573900
-1.806700 0.569700
-1.790200 0.568700
-1.773700 0.571400
-1.757200 0.573100
-1.740700 0.573500
-1.724200 0.570900
-1.707800 0.568900
-1.691300 0.568800
-1.674800 0.568900
-1.658300 0.569200
-1.641800 0.569800
-1.625400 0.570500
-1.608900 0.571300
-1.592400 0.572200
-1.575900 0.573200
-1.559400 0.574400
-1.542900 0.576000
-1.526500 0.577900
-1.510000 0.584000
-1.493500 0.598200
-1.477000 0.588500
-1.460500 0.576200
-1.444100 0.574300
-1.427600 0.574600
-1.411100 0.575400
-1.394600 0.576200
-1.378100 0.577200
-1.361600 0.578800
-1.345200 0.580200
-1.328700 0.580500
-1.312200 0.579800
-1.295700 0.579100
-1.279200 0.578400
-1.262800 0.577900
-1.246300 0.577300
-1.229800 0.576900
-1.213300 0.576600
-1.196800 0.576400
-1.180300 0.576400
-1.163900 0.576700
-1.147400 0.577500
-1.130900 0.578600
-1.114400 0.579900
-1.097900 0.581300
-1.081500 0.583000
-1.065000 0.584900
-1.048500 0.587000
-1.032000 0.589100
-1.015500 0.591000
-0.999000 0.593200
-0.982600 0.595000
-0.966100 0.596700
-0.949600 0.598300
-0.933100 0.600000
-0.916600 0.601600
-0.900200 0.603400
-0.883700 0.604500
-0.867200 0.605000
-0.850700 0.605700
-0.834200 0.606700
-0.817700 0.608000
-0.801300 0.609400
-0.784800 0.610900
-0.768300 0.612400
-0.751800 0.613900
-0.735300 0.615200
-0.718800 0.617000
-0.702400 0.619300
-0.685900 0.621800
-0.669400 0.624100
-0.652900 0.626400
-0.636400 0.628700
-0.620000 0.631200
-0.603500 0.633800
-0.587000 0.636600
-0.570500 0.639300
-0.554000 0.642100
-0.537500 0.644900
-0.521100 0.648100
-0.504600 0.651800
-0.488100 0.656300
-0.471600 0.663000
-0.455100 0.670100
-0.438700 0.677500
-0.422200 0.685100
-0.405700 0.692700
-0.389200 0.698600
-0.372700 0.702000
-0.356200 0.703100
-0.339800 0.702400
-0.323300 0.700000
-0.306800 0.695500
-0.290300 0.691200
-0.273800 0.690100
-0.257400 0.690400
-0.240900 0.690800
-0.224400 0.691000
-0.207900 0.690400
-0.191400 0.689800
-0.174900 0.690000
-0.158500 0.691100
-0.142000 0.694000
-0.125500 0.701600
-0.109000 0.714400
-0.092500 0.698600
-0.076100 0.692600
-0.059600 0.695500
-0.043100 0.693900
-0.026600 0.686400
-0.010100 0.678100
0.006400 0.675500
0.022800 0.673900
0.039300 0.672800
0.055800 0.672200
0.072300 0.672100
0.088800 0.672800
0.105200 0.673700
0.121700 0.675000
0.138200 0.676900
0.154700 0.679100
0.171200 0.681000
0.187700 0.682800
0.204100 0.684600
0.220600 0.686300
0.237100 0.688000
0.253600 0.690300
0.270100 0.692900
0.286500 0.696300
0.303000 0.700900
0.319500 0.706700
0.336000 0.714600
0.352500 0.736600
0.369000 0.761700
0.385400 0.789900
0.401900 0.819000
0.418400 0.900600
0.434900 0.874200
0.451400 0.885500
0.467900 0.897000
0.484300 0.908700
0.500800 0.916700
0.517300 0.906600
0.533800 0.908400
0.550300 0.911200
0.566700 0.907100
0.583200 0.892500
0.599700 0.881000
0.616200 0.875900
0.632700 0.862600
0.649200 0.856600
0.665600 0.854600
0.682100 0.866700
0.698600 0.873800
0.715100 0.868200
0.731600 0.859500
0.748000 0.857400
0.764500 0.857300
0.781000 0.858500
0.797500 0.856800
0.814000 0.852200
0.830500 0.844200
0.846900 0.832000
0.863400 0.822900
0.879900 0.818600
0.896400 0.819200
0.912900 0.821500
0.929300 0.857100
0.945800 0.867500
0.962300 0.831900
0.978800 0.824600
0.995300 0.819700
1.011800 0.815600
1.028200 0.811500
1.044700 0.814200
1.061200 0.809200
1.077700 0.795400
1.094200 0.756000
1.110600 0.697400
1.127100 0.674400
1.143600 0.669000
1.160100 0.667900
1.176600 0.670900
1.193100 0.675800
1.209500 0.680600
1.226000 0.682700
1.242500 0.677500
1.259000 0.675900
1.275500 0.675700
1.291900 0.678100
1.308400 0.680900
1.324900 0.684200
1.341400 0.687700
1.357900 0.691900
1.374400 0.696800
1.390800 0.701100
1.407300 0.705900
1.423800 0.710700
1.440300 0.713700
1.456800 0.714900
1.473200 0.722100
1.489700 0.725800
1.506200 0.725500
1.522700 0.723700
1.539200 0.722500
1.555700 0.719900
1.572100 0.715900
1.588600 0.708800
1.605100 0.698100
1.621600 0.686300
1.638100 0.673600
1.654600 0.661600
1.671000 0.650400
1.687500 0.644500
1.704000 0.640700
1.720500 0.637600
1.737000 0.634200
1.753400 0.629700
1.769900 0.623700
1.786400 0.617400
1.802900 0.614100
1.819400 0.612400
1.835900 0.611800
1.852300 0.611600
1.868800 0.615600
1.885300 0.622800
1.901800 0.632800
1.918300 0.674800
1.934700 0.663000
1.951200 0.652100
1.967700 0.656400
1.984200 0.662000
2.000700 0.662000
2.017200 0.657100
2.033600 0.651600
2.050100 0.645300
2.066600 0.636000
2.083100 0.628800
2.099600 0.621200
2.116000 0.613900
2.132500 0.608100
2.149000 0.604500
2.165500 0.604800
2.182000 0.607000
2.198500 0.609700
2.214900 0.614200
2.231400 0.620000
2.247900 0.624700
2.264400 0.629000
2.280900 0.636800
2.297300 0.648200
2.313800 0.657500
2.330300 0.656500
2.346800 0.648700
2.363300 0.638500
2.379800 0.629200
2.396200 0.622800
2.412700 0.621000
2.429200 0.617000
2.445700 0.608400
2.462200 0.605900
2.478600 0.606100
2.495100 0.608000
2.511600 0.610800
2.528100 0.616300
2.544600 0.622700
2.561100 0.629000
2.577500 0.635700
2.594000 0.643200
2.610500 0.650900
2.627000 0.658000
2.643500 0.664300
2.660000 0.669700
2.676400 0.673600
2.692900 0.677700
2.709400 0.681600
2.725900 0.683500
2.742400 0.685500
2.758800 0.688600
2.775300 0.691600
2.791800 0.694300
2.808300 0.696800
2.824800 0.702000
2.841300 0.704300
2.857700 0.702100
2.874200 0.699900
2.890700 0.698100
2.907200 0.697400
2.923700 0.698500
2.940100 0.701700
2.956600 0.706200
2.973100 0.711100
2.989600 0.716300
3.006100 0.721600
3.022600 0.727400
3.039000 0.733800
3.055500 0.740300
3.072000 0.747300
3.088500 0.741400
3.105000 0.738400
3.121400 0.739300
3.137900 0.738100
3.154400 0.734500
3.170900 0.732500
3.187400 0.730900
3.203900 0.728000
3.220300 0.723800
3.236800 0.718200
3.253300 0.711000
3.269800 0.702900
3.286300 0.694400
3.302700 0.686000
3.319200 0.680100
3.335700 0.675500
3.352200 0.671300
3.368700 0.666800
3.385200 0.662700
3.401600 0.661900
3.418100 0.660900
3.434600 0.659100
3.451100 0.657800
3.467600 0.656800
3.484000 0.655900
3.500500 0.655100
3.517000 0.655200
3.533500 0.655500
3.550000 0.655900
3.566500 0.656300
3.582900 0.657000
3.599400 0.658200
3.615900 0.659400
3.632400 0.661200
3.648900 0.663300
3.665300 0.665200
3.681800 0.662300
3.698300 0.662500
3.714800 0.668200
3.731300 0.664000
3.747800 0.669700
3.764200 0.676200
3.780700 0.681600
3.797200 0.687200
3.813700 0.692100
3.830200 0.695500
3.846700 0.702800
3.863100 0.712600
3.879600 0.725100
3.896100 0.741100
3.912600 0.755500
3.929100 0.770000
3.945500 0.779500
3.962000 0.787500
3.978500 0.795300
3.995000 0.802700
4.011500 0.810300
4.028000 0.818700
4.044400 0.828600
4.060900 0.841100
4.077400 0.856300
4.093900 0.873600
4.110400 0.892900
4.126800 0.915800
4.143300 0.937800
4.159800 0.957500
4.176300 0.981300
4.192800 0.987400
4.209300 0.960200
4.225700 0.953400
4.242200 0.944800
4.258700 0.935600
4.275200 0.925700
4.291700 0.914900
4.308100 0.904000
4.324600 0.895300
4.341100 0.888400
4.357600 0.879700
4.374100 0.870600
4.390600 0.863500
4.407000 0.860800
4.423500 0.858900
4.440000 0.856500
4.456500 0.851300
4.473000 0.848800
4.489400 0.849100
4.505900 0.850800
4.522400 0.854600
4.538900 0.857000
4.555400 0.855500
4.571900 0.852600
4.588300 0.851000
4.604800 0.850300
4.621300 0.850700
4.637800 0.851700
4.654300 0.853300
4.670700 0.856500
4.687200 0.857800
4.703700 0.855700
4.720200 0.852200
4.736700 0.851100
4.753200 0.852500
4.769600 0.855700
4.786100 0.859800
4.802600 0.864900
4.819100 0.870800
4.835600 0.877600
4.852000 0.883900
4.868500 0.890600
4.885000 0.899000
4.901500 0.909600
4.918000 0.926500
4.934500 0.942500
4.950900 0.953500
4.967400 0.961500
4.983900 0.964900
5.000400 0.974000
5.016900 0.984000
5.033400 0.996000
5.049800 1.007200
5.066300 1.015700
5.082800 1.021800
5.099300 1.025600
5.115800 1.026500
5.132200 1.025000
5.148700 1.020600
5.165200 1.030900
5.181700 1.021600
5.198200 1.024900
5.214700 1.016900
5.231100 1.003400
5.247600 0.995400
5.264100 0.988500
5.280600 0.979000
5.297100 0.969300
5.313500 0.959800
5.330000 0.950400
5.346500 0.942400
5.363000 0.935900
5.379500 0.931400
5.396000 0.930100
5.412400 0.922400
5.428900 0.919500
5.445400 0.905100
5.461900 0.897100
5.478400 0.886900
5.494800 0.880200
5.511300 0.874600
5.527800 0.870000
