set title 'mp-54 - Density of States'
set xlabel 'Energy (eV)'
set ylabel 'DOS (states/eV)'
set grid
set xrange [-10:10]
set yrange [0:5.750]
set xzeroaxis lt -1
set terminal png size 800,600
set output 'mp-54_dos_gnuplot.png'
plot '-' using 1:2 with lines title 'DOS'
-5.627800 0.000000
-5.604400 0.000000
-5.581000 0.000000
-5.557700 0.000000
-5.534300 0.000000
-5.510900 0.000000
-5.487500 0.000000
-5.464100 0.000000
-5.440700 0.000000
-5.417400 0.000000
-5.394000 0.000000
-5.370600 0.000000
-5.347200 0.000000
-5.323800 0.000000
-5.300400 0.000000
-5.277100 0.000000
-5.253700 0.000000
-5.230300 0.000000
-5.206900 0.000000
-5.183500 0.000000
-5.160100 0.000000
-5.136700 0.000000
-5.113400 0.000000
-5.090000 0.000000
-5.066600 0.000000
-5.043200 0.000000
-5.019800 0.000000
-4.996400 0.000000
-4.973100 0.000000
-4.949700 0.000000
-4.926300 0.000000
-4.902900 0.000000
-4.879500 0.000000
-4.856100 0.000000
-4.832800 0.000000
-4.809400 0.000000
-4.786000 0.000000
-4.762600 0.000000
-4.739200 0.000000
-4.715800 0.000000
-4.692500 0.000000
-4.669100 0.000000
-4.645700 0.000000
-4.622300 0.000000
-4.598900 0.000000
-4.575500 0.000000
-4.552100 0.000000
-4.528800 0.000000
-4.505400 0.000000
-4.482000 0.000000
-4.458600 0.000000
-4.435200 0.000000
-4.411800 0.000000
-4.388500 0.000000
-4.365100 0.000000
-4.341700 0.000000
-4.318300 0.000000
-4.294900 0.000000
-4.271500 0.000000
-4.248200 0.000000
-4.224800 0.000000
-4.201400 0.000000
-4.178000 0.000000
-4.154600 0.000000
-4.131200 0.000000
-4.107900 0.000000
-4.084500 0.000000
-4.061100 0.000000
-4.037700 0.000000
-4.014300 0.000000
-3.990900 0.000000
-3.967500 0.000000
-3.944200 0.000000
-3.920800 0.000000
-3.897400 0.000000
-3.874000 0.000000
-3.850600 0.000000
-3.827200 0.000000
-3.803900 0.000000
-3.780500 0.000000
-3.757100 0.000000
-3.733700 0.000000
-3.710300 0.000000
-3.686900 0.000000
-3.663600 0.000000
-3.640200 0.000000
-3.616800 0.000000
-3.593400 0.000000
-3.570000 0.000000
-3.546600 0.000000
-3.523200 0.000000
-3.499900 0.000000
-3.476500 0.000000
-3.453100 0.002900
-3.429700 0.011300
-3.406300 0.016000
-3.382900 0.016500
-3.359600 0.019600
-3.336200 0.022800
-3.312800 0.026100
-3.289400 0.028200
-3.266000 0.028800
-3.242600 0.030100
-3.219300 0.031900
-3.195900 0.033700
-3.172500 0.035500
-3.149100 0.037300
-3.125700 0.039300
-3.102300 0.040800
-3.079000 0.041600
-3.055600 0.042800
-3.032200 0.044000
-3.008800 0.045100
-2.985400 0.046300
-2.962000 0.047500
-2.938600 0.048900
-2.915300 0.050400
-2.891900 0.051800
-2.868500 0.053300
-2.845100 0.054700
-2.821700 0.055600
-2.798300 0.056400
-2.775000 0.057300
-2.751600 0.058400
-2.728200 0.059400
-2.704800 0.060400
-2.681400 0.061500
-2.658000 0.062700
-2.634700 0.063800
-2.611300 0.065000
-2.587900 0.066200
-2.564500 0.067400
-2.541100 0.068600
-2.517700 0.069800
-2.494400 0.070700
-2.471000 0.071600
-2.447600 0.072600
-2.424200 0.073500
-2.400800 0.074500
-2.377400 0.075500
-2.354000 0.076500
-2.330700 0.077500
-2.307300 0.078500
-2.283900 0.079600
-2.260500 0.080700
-2.237100 0.081800
-2.213700 0.082900
-2.190400 0.084000
-2.167000 0.085200
-2.143600 0.086400
-2.120200 0.087500
-2.096800 0.088500
-2.073400 0.089400
-2.050100 0.090400
-2.026700 0.091400
-2.003300 0.092400
-1.979900 0.093400
-1.956500 0.094400
-1.933100 0.095500
-1.909800 0.096600
-1.886400 0.097800
-1.863000 0.098900
-1.839600 0.100000
-1.816200 0.101200
-1.792800 0.102400
-1.769400 0.103600
-1.746100 0.104700
-1.722700 0.106000
-1.699300 0.107200
-1.675900 0.108300
-1.652500 0.109400
-1.629100 0.110600
-1.605800 0.111800
-1.582400 0.113000
-1.559000 0.114200
-1.535600 0.115500
-1.512200 0.116700
-1.488800 0.118000
-1.465500 0.119300
-1.442100 0.120600
-1.418700 0.121900
-1.395300 0.123200
-1.371900 0.124600
-1.348500 0.125900
-1.325100 0.127300
-1.301800 0.128700
-1.278400 0.130200
-1.255000 0.131700
-1.231600 0.133200
-1.208200 0.134800
-1.184800 0.136300
-1.161500 0.137900
-1.138100 0.139500
-1.114700 0.141200
-1.091300 0.142800
-1.067900 0.144500
-1.044500 0.146200
-1.021200 0.147900
-0.997800 0.149600
-0.974400 0.151400
-0.951000 0.153200
-0.927600 0.155100
-0.904200 0.157100
-0.880900 0.159100
-0.857500 0.161200
-0.834100 0.163200
-0.810700 0.165300
-0.787300 0.167500
-0.763900 0.169800
-0.740500 0.172100
-0.717200 0.174400
-0.693800 0.176900
-0.670400 0.179400
-0.647000 0.182000
-0.623600 0.184700
-0.600200 0.187400
-0.576900 0.190400
-0.553500 0.193400
-0.530100 0.196500
-0.506700 0.199800
-0.483300 0.203100
-0.459900 0.206500
-0.436600 0.210000
-0.413200 0.213500
-0.389800 0.217300
-0.366400 0.221300
-0.343000 0.225500
-0.319600 0.229900
-0.296300 0.234300
-0.272900 0.239000
-0.249500 0.244000
-0.226100 0.249300
-0.202700 0.254800
-0.179300 0.260900
-0.155900 0.267200
-0.132600 0.274000
-0.109200 0.281200
-0.085800 0.289000
-0.062400 0.297900
-0.039000 0.307000
-0.015600 0.316600
0.007700 0.327200
0.031100 0.338500
0.054500 0.350800
0.077900 0.365100
0.101300 0.381800
0.124700 0.401800
0.148000 0.423400
0.171400 0.447800
0.194800 0.477300
0.218200 0.512500
0.241600 0.553900
0.265000 0.627500
0.288300 0.922500
0.311700 1.032000
0.335100 1.034100
0.358500 1.071900
0.381900 1.030600
0.405300 1.037900
0.428700 1.052900
0.452000 1.062200
0.475400 1.060300
0.498800 1.052100
0.522200 1.056400
0.545600 1.073600
0.569000 1.090400
0.592300 1.102300
0.615700 1.099300
0.639100 1.090700
0.662500 1.095800
0.685900 1.203700
0.709300 1.312500
0.732600 1.487900
0.756000 1.514100
0.779400 1.513300
0.802800 1.508400
0.826200 1.511400
0.849600 1.516000
0.872900 1.513700
0.896300 1.525400
0.919700 1.540400
0.943100 1.554100
0.966500 1.608900
0.989900 1.694500
1.013300 1.782100
1.036600 1.881900
1.060000 2.045600
1.083400 2.138000
1.106800 2.233300
1.130200 1.842400
1.153600 1.793800
1.176900 1.953600
1.200300 1.854600
1.223700 1.666800
1.247100 1.554900
1.270500 1.512800
1.293900 1.484400
1.317200 1.446400
1.340600 1.451300
1.364000 1.428500
1.387400 1.417300
1.410800 1.429900
1.434200 1.521100
1.457600 1.577700
1.480900 1.742500
1.504300 1.718900
1.527700 2.063700
1.551100 2.045800
1.574500 1.906100
1.597900 1.766000
1.621200 1.598900
1.644600 1.492100
1.668000 1.407700
1.691400 1.423000
1.714800 1.650500
1.738200 1.927300
1.761500 2.326600
1.784900 2.131000
1.808300 2.173300
1.831700 2.241800
1.855100 2.242900
1.878500 2.256400
1.901800 2.258100
1.925200 2.276600
1.948600 2.272500
1.972000 2.278600
1.995400 2.307600
2.018800 2.348400
2.042200 2.404900
2.065500 2.446400
2.088900 2.396400
2.112300 2.173700
2.135700 2.024600
2.159100 1.603000
2.182500 1.259900
2.205800 1.062400
2.229200 0.966700
2.252600 0.882800
2.276000 0.819900
2.299400 0.936600
2.322800 0.979200
2.346100 1.015700
2.369500 1.067900
2.392900 1.135400
2.416300 1.365900
2.439700 1.835400
2.463100 2.594500
2.486400 3.375200
2.509800 2.984400
2.533200 2.990100
2.556600 3.052800
2.580000 3.165600
2.603400 3.337000
2.626800 3.020900
2.650100 2.917900
2.673500 2.873200
2.696900 2.765700
2.720300 2.807500
2.743700 2.725400
2.767100 2.647300
2.790400 2.670300
2.813800 2.459200
2.837200 2.433600
2.860600 2.743100
2.884000 2.979300
2.907400 3.050800
2.930700 3.068000
2.954100 3.125700
2.977500 3.321300
3.000900 3.210400
3.024300 2.763300
3.047700 3.177600
3.071000 3.170700
3.094400 3.335200
3.117800 3.460100
3.141200 3.288300
3.164600 3.493900
3.188000 3.500300
3.211400 3.298200
3.234700 2.920500
3.258100 2.915800
3.281500 2.817100
3.304900 2.563400
3.328300 2.350700
3.351700 2.375500
3.375000 2.485000
3.398400 2.796500
3.421800 2.308300
3.445200 2.031400
3.468600 1.966200
3.492000 1.912200
3.515300 1.900500
3.538700 1.943000
3.562100 1.940900
3.585500 1.902000
3.608900 1.895900
3.632300 1.893200
3.655700 1.896800
3.679000 1.896700
3.702400 1.906600
3.725800 1.887600
3.749200 1.845000
3.772600 1.802400
3.796000 1.810000
3.819300 1.821600
3.842700 1.843400
3.866100 1.856500
3.889500 1.873000
3.912900 1.871600
3.936300 1.861500
3.959600 1.904500
3.983000 1.797600
4.006400 1.800700
4.029800 1.808600
4.053200 1.824500
4.076600 1.843300
4.099900 1.864200
4.123300 1.863100
4.146700 1.878800
4.170100 1.921300
4.193500 2.017900
4.216900 2.032800
4.240300 2.042200
4.263600 2.170100
4.287000 2.371700
4.310400 2.533800
4.333800 2.673400
4.357200 2.792100
4.380600 2.845100
4.403900 2.996200
4.427300 3.053400
4.450700 3.145600
4.474100 3.308800
4.497500 3.596900
4.520900 3.800600
4.544200 4.240800
4.567600 4.450300
4.591000 4.720100
4.614400 4.893900
4.637800 5.177900
4.661200 4.885300
4.684500 5.227400
4.707900 4.674700
4.731300 3.942700
4.754700 3.401200
4.778100 2.768700
4.801500 1.088000
4.824900 0.462400
4.848200 0.424300
4.871600 0.397400
4.895000 0.379200
4.918400 0.366800
4.941800 0.356300
4.965200 0.348200
4.988500 0.342100
5.011900 0.337600
5.035300 0.334000
5.058700 0.331400
5.082100 0.329400
5.105500 0.328100
5.128800 0.327200
5.152200 0.326100
5.175600 0.325000
5.199000 0.323700
5.222400 0.322500
5.245800 0.320400
5.269100 0.314600
5.292500 0.309500
5.315900 0.306100
5.339300 0.303600
5.362700 0.301600
5.386100 0.300000
5.409500 0.298700
5.432800 0.297800
5.456200 0.297000
5.479600 0.296500
5.503000 0.296100
5.526400 0.295800
5.549800 0.295500
5.573100 0.295300
5.596500 0.295200
5.619900 0.295000
5.643300 0.294800
5.666700 0.294600
5.690100 0.294500
5.713400 0.294700
5.736800 0.294900
5.760200 0.295200
5.783600 0.292900
5.807000 0.290100
5.830400 0.288800
5.853800 0.288300
5.877100 0.288000
5.900500 0.288000
5.923900 0.288300
5.947300 0.288600
5.970700 0.289100
5.994100 0.289800
6.017400 0.290600
6.040800 0.291400
6.064200 0.292300
6.087600 0.293300
6.111000 0.294300
6.134400 0.295300
6.157700 0.296500
6.181100 0.297800
6.204500 0.299200
6.227900 0.301700
6.251300 0.306300
6.274700 0.313000
6.298000 0.313300
6.321400 0.308000
6.344800 0.308100
6.368200 0.308100
6.391600 0.307000
6.415000 0.306800
6.438400 0.306500
6.461700 0.306100
6.485100 0.305900
6.508500 0.306600
6.531900 0.308000
6.555300 0.306500
6.578700 0.311900
6.602000 0.306200
6.625400 0.291800
6.648800 0.285200
6.672200 0.282500
6.695600 0.280100
6.719000 0.277700
6.742300 0.275400
6.765700 0.273200
6.789100 0.271500
6.812500 0.269900
6.835900 0.268600
6.859300 0.267600
6.882600 0.267300
6.906000 0.267600
6.929400 0.268000
6.952800 0.268400
6.976200 0.268800
6.999600 0.269300
7.023000 0.269700
7.046300 0.258600
7.069700 0.257900
7.093100 0.257400
7.116500 0.256100
7.139900 0.254900
7.163300 0.253700
7.186600 0.252500
7.210000 0.251400
7.233400 0.250400
7.256800 0.249400
7.280200 0.248300
7.303600 0.247200
7.326900 0.246200
7.350300 0.245200
7.373700 0.244200
7.397100 0.243200
7.420500 0.242300
7.443900 0.241400
7.467200 0.240500
7.490600 0.239500
7.514000 0.238400
7.537400 0.237500
7.560800 0.236800
7.584200 0.236200
7.607600 0.235700
7.630900 0.235300
7.654300 0.234900
7.677700 0.234600
7.701100 0.234400
7.724500 0.234200
7.747900 0.234200
7.771200 0.234200
7.794600 0.234300
7.818000 0.232800
7.841400 0.231400
7.864800 0.230500
7.888200 0.229700
7.911500 0.229200
7.934900 0.228500
7.958300 0.227700
7.981700 0.227000
8.005100 0.226300
8.028500 0.225700
8.051900 0.225300
8.075200 0.225000
8.098600 0.224800
8.122000 0.224600
8.145400 0.224500
8.168800 0.224200
8.192200 0.223900
8.215500 0.223600
8.238900 0.223200
8.262300 0.222800
8.285700 0.222400
8.309100 0.222200
8.332500 0.222000
8.355800 0.222100
8.379200 0.222200
8.402600 0.222500
8.426000 0.222600
8.449400 0.222400
8.472800 0.222400
8.496100 0.222800
8.519500 0.223400
8.542900 0.224200
8.566300 0.225300
8.589700 0.226600
8.613100 0.229500
8.636500 0.231500
8.659800 0.234300
8.683200 0.237100
8.706600 0.239700
8.730000 0.244800
8.753400 0.248000
8.776800 0.251000
8.800100 0.259100
8.823500 0.250200
8.846900 0.239000
8.870300 0.239000
8.893700 0.238800
8.917100 0.238400
8.940400 0.238200
8.963800 0.238600
8.987200 0.238800
9.010600 0.238300
9.034000 0.237500
9.057400 0.239800
9.080700 0.239900
9.104100 0.249300
9.127500 0.232200
9.150900 0.225100
9.174300 0.224000
9.197700 0.223000
9.221100 0.222000
9.244400 0.221000
9.267800 0.220100
9.291200 0.219200
9.314600 0.218400
9.338000 0.217800
9.361400 0.217300
9.384700 0.216700
9.408100 0.216200
9.431500 0.215700
9.454900 0.215200
9.478300 0.214900
9.501700 0.214400
9.525000 0.214600
9.548400 0.215200
9.571800 0.228100
9.595200 0.230200
9.618600 0.218700
9.642000 0.210300
9.665300 0.202300
9.688700 0.198000
9.712100 0.195400
9.735500 0.193700
9.758900 0.191900
9.782300 0.190800
9.805700 0.189600
9.829000 0.188500
9.852400 0.187400
9.875800 0.186300
9.899200 0.185200
9.922600 0.184100
9.946000 0.183000
9.969300 0.182000
9.992700 0.180800
10.016100 0.179800
10.039500 0.179000
10.062900 0.178200
10.086300 0.177400
10.109600 0.176800
10.133000 0.176200
10.156400 0.175300
10.179800 0.174400
10.203200 0.173500
10.226600 0.172500
10.250000 0.179400
10.273300 0.181200
10.296700 0.181100
10.320100 0.178800
10.343500 0.175200
10.366900 0.178800
10.390300 0.177800
10.413600 0.174800
10.437000 0.174200
10.460400 0.175300
10.483800 0.171400
10.507200 0.168100
10.530600 0.165200
10.553900 0.162200
10.577300 0.159800
10.600700 0.157700
10.624100 0.155800
10.647500 0.154000
10.670900 0.152300
10.694200 0.150900
10.717600 0.150800
10.741000 0.149000
10.764400 0.146200
10.787800 0.143000
10.811200 0.139400
10.834600 0.137200
10.857900 0.133500
10.881300 0.117900
10.904700 0.114600
10.928100 0.111900
10.951500 0.109400
10.974900 0.107000
10.998200 0.104600
11.021600 0.102300
11.045000 0.100200
11.068400 0.098300
11.091800 0.097700
11.115200 0.095900
11.138500 0.093900
11.161900 0.092200
11.185300 0.112200
11.208700 0.110000
11.232100 0.111000
11.255500 0.114800
11.278800 0.110300
11.302200 0.107900
11.325600 0.086500
11.349000 0.084000
11.372400 0.082200
11.395800 0.080400
11.419200 0.078700
11.442500 0.077100
11.465900 0.075600
11.489300 0.073400
11.512700 0.072100
11.536100 0.070900
11.559500 0.069700
11.582800 0.068500
11.606200 0.067400
11.629600 0.066300
11.653000 0.065400
11.676400 0.064200
11.699800 0.063000
11.723100 0.062500
11.746500 0.068100
11.769900 0.072800
11.793300 0.077200
11.816700 0.081000
11.840100 0.084900
11.863400 0.088300
11.886800 0.091500
11.910200 0.094600
11.933600 0.097700
11.957000 0.100100
11.980400 0.101600
12.003800 0.101200
12.027100 0.101100
12.050500 0.100900
12.073900 0.100400
12.097300 0.100200
12.120700 0.100000
12.144100 0.099800
12.167400 0.100200
12.190800 0.100800
12.214200 0.101400
12.237600 0.102100
12.261000 0.102900
12.284400 0.104200
12.307700 0.105800
12.331100 0.108200
12.354500 0.111300
12.377900 0.116300
12.401300 0.119100
12.424700 0.122300
12.448100 0.124200
12.471400 0.125200
12.494800 0.125900
12.518200 0.126600
12.541600 0.127000
12.565000 0.127400
12.588400 0.128900
12.611700 0.148400
12.635100 0.188500
12.658500 0.215100
12.681900 0.228500
12.705300 0.267500
12.728700 0.288400
12.752000 0.305800
12.775400 0.321700
12.798800 0.328000
12.822200 0.338100
12.845600 0.360500
12.869000 0.385500
12.892300 0.406100
12.915700 0.421500
12.939100 0.438500
12.962500 0.436900
12.985900 0.444200
13.009300 0.454600
13.032700 0.459400
13.056000 0.457900
13.079400 0.458500
13.102800 0.459600
13.126200 0.462900
13.149600 0.461500
13.173000 0.461500
13.196300 0.460800
13.219700 0.447200
13.243100 0.436900
13.266500 0.426600
13.289900 0.417600
13.313300 0.411900
13.336600 0.408700
13.360000 0.406400
13.383400 0.404700
13.406800 0.402200
13.430200 0.398600
13.453600 0.394900
13.476900 0.393000
13.500300 0.393000
13.523700 0.391700
13.547100 0.378500
13.570500 0.374900
13.593900 0.371600
13.617300 0.366700
13.640600 0.363500
13.664000 0.360500
13.687400 0.357700
13.710800 0.355300
13.734200 0.353100
13.757600 0.350100
13.780900 0.346300
13.804300 0.342000
13.827700 0.337200
13.851100 0.331800
13.874500 0.326300
13.897900 0.321100
13.921200 0.316200
13.944600 0.311500
13.968000 0.307200
13.991400 0.303900
14.014800 0.300900
14.038200 0.298300
14.061500 0.295700
14.084900 0.293300
14.108300 0.291000
14.131700 0.288900
14.155100 0.287000
14.178500 0.285800
14.201900 0.286900
14.225200 0.295700
14.248600 0.285400
14.272000 0.284200
14.295400 0.283300
14.318800 0.282900
14.342200 0.283700
14.365500 0.282800
14.388900 0.281900
14.412300 0.281700
14.435700 0.282700
14.459100 0.286000
14.482500 0.289800
14.505800 0.294000
14.529200 0.299300
14.552600 0.301300
14.576000 0.302400
14.599400 0.303400
14.622800 0.304300
14.646200 0.305600
14.669500 0.306400
14.692900 0.306400
14.716300 0.304600
14.739700 0.305700
14.763100 0.308300
14.786500 0.311500
14.809800 0.317300
14.833200 0.322400
14.856600 0.325500
14.880000 0.327800
14.903400 0.331400
14.926800 0.335000
14.950100 0.345300
14.973500 0.349900
14.996900 0.349500
15.020300 0.349400
15.043700 0.350200
15.067100 0.351400
15.090400 0.352400
15.113800 0.353900
15.137200 0.356300
15.160600 0.358400
15.184000 0.359700
15.207400 0.359900
15.230800 0.360200
15.254100 0.361100
15.277500 0.362500
15.300900 0.364400
15.324300 0.366500
15.347700 0.367900
15.371100 0.368500
15.394400 0.369700
15.417800 0.372400
15.441200 0.376400
15.464600 0.382100
15.488000 0.387800
15.511400 0.392600
15.534700 0.397900
15.558100 0.404600
15.581500 0.411000
15.604900 0.414100
15.628300 0.411300
15.651700 0.406400
15.675000 0.400900
15.698400 0.394300
15.721800 0.385700
15.745200 0.381600
15.768600 0.378900
15.792000 0.376900
15.815400 0.376900
15.838700 0.377200
15.862100 0.380100
15.885500 0.378800
15.908900 0.379400
15.932300 0.379200
15.955700 0.378200
15.979000 0.375800
16.002400 0.372800
16.025800 0.369200
16.049200 0.366200
16.072600 0.363300
16.096000 0.359200
16.119300 0.354600
16.142700 0.349700
16.166100 0.347800
16.189500 0.347900
16.212900 0.346400
16.236300 0.345700
16.259600 0.346700
16.283000 0.348200
16.306400 0.351300
16.329800 0.357700
16.353200 0.364200
16.376600 0.370100
16.400000 0.375000
16.423300 0.377900
16.446700 0.378900
16.470100 0.377900
16.493500 0.375300
16.516900 0.372300
16.540300 0.369800
16.563600 0.368600
16.587000 0.366900
16.610400 0.365500
16.633800 0.363500
16.657200 0.360500
16.680600 0.358700
16.703900 0.357100
16.727300 0.353400
16.750700 0.350000
16.774100 0.347400
16.797500 0.345400
16.820900 0.343500
16.844300 0.341500
16.867600 0.339700
16.891000 0.338200
16.914400 0.337100
16.937800 0.336200
16.961200 0.335400
16.984600 0.334800
17.007900 0.334300
17.031300 0.333900
17.054700 0.333700
17.078100 0.333600
17.101500 0.333300
17.124900 0.333200
17.148200 0.333200
17.171600 0.333000
17.195000 0.332300
17.218400 0.330800
17.241800 0.328600
17.265200 0.327200
17.288500 0.326000
17.311900 0.324400
17.335300 0.321600
17.358700 0.318500
17.382100 0.315500
17.405500 0.311800
17.428900 0.308100
17.452200 0.304600
17.475600 0.301000
17.499000 0.296600
17.522400 0.291800
17.545800 0.288600
17.569200 0.285400
17.592500 0.282100
17.615900 0.278900
17.639300 0.275400
17.662700 0.272800
17.686100 0.270200
17.709500 0.267200
17.732800 0.267000
17.756200 0.266900
17.779600 0.266600
17.803000 0.266000
17.826400 0.265000
17.849800 0.263400
17.873100 0.261700
17.896500 0.260200
17.919900 0.258800
17.943300 0.257600
17.966700 0.256400
17.990100 0.254800
18.013500 0.254300
18.036800 0.254000
18.060200 0.254000
18.083600 0.253600
18.107000 0.253100
18.130400 0.252900
18.153800 0.252900
18.177100 0.253800
18.200500 0.255900
18.223900 0.256300
18.247300 0.256700
18.270700 0.257200
18.294100 0.257600
18.317400 0.258200
18.340800 0.258800
18.364200 0.259500
18.387600 0.262700
18.411000 0.264800
18.434400 0.267100
18.457700 0.270300
18.481100 0.275000
18.504500 0.275000
18.527900 0.276000
18.551300 0.276900
18.574700 0.278600
18.598100 0.280500
18.621400 0.282600
18.644800 0.284800
18.668200 0.285500
18.691600 0.287300
18.715000 0.290800
18.738400 0.301500
18.761700 0.301900
18.785100 0.304400
18.808500 0.305900
18.831900 0.307800
18.855300 0.309300
18.878700 0.310400
18.902000 0.311100
18.925400 0.311700
18.948800 0.312500
18.972200 0.314000
18.995600 0.316000
19.019000 0.319800
19.042400 0.326300
19.065700 0.331800
19.089100 0.336600
19.112500 0.342200
19.135900 0.345100
19.159300 0.339400
