set title 'mp-168 - Density of States'
set xlabel 'Energy (eV)'
set ylabel 'DOS (states/eV)'
set grid
set xrange [-10:10]
set yrange [0:8.340]
set xzeroaxis lt -1
set terminal png size 800,600
set output 'mp-168_dos_gnuplot.png'
plot '-' using 1:2 with lines title 'DOS'
-6.643500 0.000000
-6.632100 0.000000
-6.620800 0.000000
-6.609400 0.000000
-6.598000 0.000000
-6.586600 0.000000
-6.575300 0.000000
-6.563900 0.000000
-6.552500 0.000000
-6.541100 0.000000
-6.529800 0.000000
-6.518400 0.000000
-6.507000 0.000000
-6.495600 0.000000
-6.484300 0.000000
-6.472900 0.000000
-6.461500 0.000000
-6.450100 0.000000
-6.438800 0.000000
-6.427400 0.000000
-6.416000 0.000000
-6.404600 0.000000
-6.393200 0.000000
-6.381900 0.000000
-6.370500 0.000000
-6.359100 0.000000
-6.347700 0.000000
-6.336400 0.000000
-6.325000 0.000000
-6.313600 0.000000
-6.302200 0.000000
-6.290900 0.000000
-6.279500 0.000000
-6.268100 0.000000
-6.256700 0.000000
-6.245400 0.000000
-6.234000 0.000000
-6.222600 0.000000
-6.211200 0.000000
-6.199900 0.000000
-6.188500 0.000000
-6.177100 0.000000
-6.165700 0.000000
-6.154400 0.000000
-6.143000 0.000000
-6.131600 0.000000
-6.120200 0.000000
-6.108900 0.000000
-6.097500 0.000000
-6.086100 0.000000
-6.074700 0.000000
-6.063400 0.000000
-6.052000 0.000000
-6.040600 0.000000
-6.029200 0.000000
-6.017900 0.000000
-6.006500 0.000000
-5.995100 0.000000
-5.983700 0.000000
-5.972400 0.000000
-5.961000 0.000000
-5.949600 0.000000
-5.938200 0.000000
-5.926900 0.000000
-5.915500 0.000000
-5.904100 0.000000
-5.892700 0.000000
-5.881400 0.000000
-5.870000 0.000000
-5.858600 0.000000
-5.847200 0.000000
-5.835900 0.000000
-5.824500 0.000000
-5.813100 0.000000
-5.801700 0.000000
-5.790400 0.000000
-5.779000 0.000000
-5.767600 0.000000
-5.756200 0.000000
-5.744900 0.000000
-5.733500 0.000000
-5.722100 0.000000
-5.710700 0.000000
-5.699300 0.000000
-5.688000 0.000000
-5.676600 0.000000
-5.665200 0.000000
-5.653800 0.000000
-5.642500 0.000000
-5.631100 0.000000
-5.619700 0.000000
-5.608300 0.000100
-5.597000 0.012700
-5.585600 0.046700
-5.574200 0.102000
-5.562800 0.178600
-5.551500 0.221400
-5.540100 0.243000
-5.528700 0.268600
-5.517300 0.298100
-5.506000 0.331300
-5.494600 0.363200
-5.483200 0.391500
-5.471800 0.416400
-5.460500 0.437700
-5.449100 0.458900
-5.437700 0.465000
-5.426300 0.473900
-5.415000 0.485800
-5.403600 0.500500
-5.392200 0.517100
-5.380800 0.535600
-5.369500 0.555800
-5.358100 0.562800
-5.346700 0.580900
-5.335300 0.599100
-5.324000 0.617400
-5.312600 0.635800
-5.301200 0.653400
-5.289800 0.666000
-5.278500 0.673300
-5.267100 0.675400
-5.255700 0.686300
-5.244300 0.698600
-5.233000 0.711100
-5.221600 0.723900
-5.210200 0.736900
-5.198800 0.749400
-5.187500 0.760700
-5.176100 0.770700
-5.164700 0.779400
-5.153300 0.786600
-5.142000 0.794700
-5.130600 0.804500
-5.119200 0.816200
-5.107800 0.829700
-5.096500 0.844000
-5.085100 0.858400
-5.073700 0.873100
-5.062300 0.888100
-5.051000 0.894400
-5.039600 0.903300
-5.028200 0.911500
-5.016800 0.919000
-5.005400 0.925800
-4.994100 0.932800
-4.982700 0.940400
-4.971300 0.948500
-4.959900 0.957100
-4.948600 0.966300
-4.937200 0.975400
-4.925800 0.984300
-4.914400 0.993200
-4.903100 1.001900
-4.891700 1.010400
-4.880300 1.018800
-4.868900 1.027100
-4.857600 1.035700
-4.846200 1.045000
-4.834800 1.054400
-4.823400 1.063900
-4.812100 1.073600
-4.800700 1.083600
-4.789300 1.094300
-4.777900 1.105600
-4.766600 1.117400
-4.755200 1.124800
-4.743800 1.133000
-4.732400 1.141400
-4.721100 1.149800
-4.709700 1.158100
-4.698300 1.165600
-4.686900 1.172200
-4.675600 1.178000
-4.664200 1.182900
-4.652800 1.188800
-4.641400 1.195000
-4.630100 1.201700
-4.618700 1.208600
-4.607300 1.215700
-4.595900 1.222800
-4.584600 1.229800
-4.573200 1.236800
-4.561800 1.247500
-4.550400 1.256100
-4.539100 1.265000
-4.527700 1.274200
-4.516300 1.283800
-4.504900 1.294000
-4.493600 1.304800
-4.482200 1.316200
-4.470800 1.328200
-4.459400 1.340600
-4.448100 1.353900
-4.436700 1.367900
-4.425300 1.382700
-4.413900 1.398200
-4.402600 1.413400
-4.391200 1.428200
-4.379800 1.440300
-4.368400 1.457000
-4.357100 1.481400
-4.345700 1.505800
-4.334300 1.530000
-4.322900 1.552700
-4.311500 1.571200
-4.300200 1.590000
-4.288800 1.608900
-4.277400 1.628700
-4.266000 1.656500
-4.254700 1.685400
-4.243300 1.713000
-4.231900 1.739300
-4.220500 1.738400
-4.209200 1.725200
-4.197800 1.711400
-4.186400 1.696800
-4.175000 1.679200
-4.163700 1.660100
-4.152300 1.639500
-4.140900 1.617300
-4.129500 1.593600
-4.118200 1.568400
-4.106800 1.541600
-4.095400 1.513300
-4.084000 1.485900
-4.072700 1.469500
-4.061300 1.445300
-4.049900 1.425500
-4.038500 1.409900
-4.027200 1.398500
-4.015800 1.391400
-4.004400 1.389900
-3.993000 1.397200
-3.981700 1.493900
-3.970300 1.558700
-3.958900 1.613100
-3.947500 1.656800
-3.936200 1.639400
-3.924800 1.609700
-3.913400 1.580200
-3.902000 1.550700
-3.890700 1.525900
-3.879300 1.532200
-3.867900 1.537800
-3.856500 1.534000
-3.845200 1.536500
-3.833800 1.529200
-3.822400 1.528400
-3.811000 1.537400
-3.799700 1.526400
-3.788300 1.591600
-3.776900 1.641100
-3.765500 1.693700
-3.754200 1.749400
-3.742800 1.780600
-3.731400 1.793700
-3.720000 1.801100
-3.708700 1.802600
-3.697300 1.817700
-3.685900 1.835000
-3.674500 1.895300
-3.663200 1.910000
-3.651800 1.923600
-3.640400 1.935900
-3.629000 1.945400
-3.617600 1.948700
-3.606300 1.945900
-3.594900 1.937500
-3.583500 1.881400
-3.572100 1.923600
-3.560800 1.951900
-3.549400 1.978600
-3.538000 2.003600
-3.526600 2.026900
-3.515300 2.050600
-3.503900 2.274900
-3.492500 2.382700
-3.481100 2.479800
-3.469800 2.562500
-3.458400 2.494800
-3.447000 2.379100
-3.435600 2.275000
-3.424300 2.137000
-3.412900 2.150600
-3.401500 2.099400
-3.390100 2.094500
-3.378800 2.090700
-3.367400 2.177100
-3.356000 2.174300
-3.344600 2.156800
-3.333300 2.124600
-3.321900 2.092000
-3.310500 2.171800
-3.299100 2.259100
-3.287800 2.325300
-3.276400 2.399000
-3.265000 2.452600
-3.253600 2.454400
-3.242300 2.460100
-3.230900 2.469600
-3.219500 2.482900
-3.208100 2.499800
-3.196800 2.520300
-3.185400 2.489300
-3.174000 2.554800
-3.162600 2.591200
-3.151300 2.619500
-3.139900 2.641200
-3.128500 2.655400
-3.117100 2.673300
-3.105800 2.711600
-3.094400 2.708700
-3.083000 2.494800
-3.071600 2.483100
-3.060300 2.471800
-3.048900 2.460900
-3.037500 2.450500
-3.026100 2.439900
-3.014800 2.429000
-3.003400 2.618800
-2.992000 2.623800
-2.980600 2.602700
-2.969200 2.610300
-2.957900 2.500200
-2.946500 2.520900
-2.935100 2.589000
-2.923700 2.627200
-2.912400 2.634400
-2.901000 2.624300
-2.889600 2.639200
-2.878200 2.630100
-2.866900 2.615800
-2.855500 2.594200
-2.844100 2.509500
-2.832700 2.473900
-2.821400 2.464800
-2.810000 2.461000
-2.798600 2.456800
-2.787200 2.441300
-2.775900 2.426500
-2.764500 2.411600
-2.753100 2.396600
-2.741700 2.389500
-2.730400 2.376000
-2.719000 2.363200
-2.707600 2.349400
-2.696200 2.334700
-2.684900 2.319100
-2.673500 2.282000
-2.662100 2.258100
-2.650700 2.243300
-2.639400 2.240500
-2.628000 2.300700
-2.616600 2.275600
-2.605200 2.258000
-2.593900 2.237700
-2.582500 2.221800
-2.571100 2.208900
-2.559700 2.197000
-2.548400 2.184900
-2.537000 2.174400
-2.525600 2.165500
-2.514200 2.158400
-2.502900 2.151100
-2.491500 2.146200
-2.480100 2.141000
-2.468700 2.135200
-2.457400 2.129800
-2.446000 2.125900
-2.434600 2.123300
-2.423200 2.122400
-2.411900 2.133500
-2.400500 2.155100
-2.389100 2.174200
-2.377700 2.187900
-2.366400 2.207000
-2.355000 2.202600
-2.343600 2.191900
-2.332200 2.183000
-2.320900 2.176200
-2.309500 2.174300
-2.298100 2.180500
-2.286700 2.199700
-2.275300 2.234800
-2.264000 2.283700
-2.252600 2.345800
-2.241200 2.343700
-2.229800 2.286600
-2.218500 2.229400
-2.207100 2.201000
-2.195700 2.182200
-2.184300 2.166600
-2.173000 2.145800
-2.161600 2.123500
-2.150200 2.100200
-2.138800 2.076100
-2.127500 2.051200
-2.116100 2.025300
-2.104700 2.013700
-2.093300 1.995600
-2.082000 1.980600
-2.070600 1.967500
-2.059200 1.953000
-2.047800 1.936500
-2.036500 1.914600
-2.025100 1.892700
-2.013700 1.864300
-2.002300 1.843400
-1.991000 1.822400
-1.979600 1.801600
-1.968200 1.781500
-1.956800 1.762500
-1.945500 1.745500
-1.934100 1.728900
-1.922700 1.712600
-1.911300 1.700100
-1.900000 1.691200
-1.888600 1.695800
-1.877200 1.753200
-1.865800 1.837700
-1.854500 1.949600
-1.843100 2.118900
-1.831700 2.149900
-1.820300 2.107200
-1.809000 2.101800
-1.797600 2.107100
-1.786200 2.208400
-1.774800 2.206300
-1.763500 2.239500
-1.752100 2.280200
-1.740700 2.332000
-1.729300 2.389400
-1.718000 2.451100
-1.706600 2.494000
-1.695200 2.526100
-1.683800 2.558700
-1.672500 2.591900
-1.661100 2.625500
-1.649700 2.659500
-1.638300 2.689800
-1.627000 2.717800
-1.615600 2.754100
-1.604200 2.880400
-1.592800 2.957100
-1.581400 3.053500
-1.570100 3.170400
-1.558700 3.307500
-1.547300 3.639400
-1.535900 3.733000
-1.524600 3.915700
-1.513200 4.200100
-1.501800 4.310300
-1.490400 4.404500
-1.479100 4.531800
-1.467700 4.679300
-1.456300 4.786300
-1.444900 5.161300
-1.433600 4.985800
-1.422200 4.647200
-1.410800 4.272700
-1.399400 3.915700
-1.388100 3.531000
-1.376700 3.208400
-1.365300 2.931100
-1.353900 2.448700
-1.342600 2.181000
-1.331200 2.031500
-1.319800 1.888700
-1.308400 1.754800
-1.297100 1.633500
-1.285700 1.523000
-1.274300 1.476900
-1.262900 1.443000
-1.251600 1.365000
-1.240200 1.316500
-1.228800 1.273900
-1.217400 1.230100
-1.206100 1.198200
-1.194700 1.167900
-1.183300 1.139300
-1.171900 1.112200
-1.160600 1.101900
-1.149200 1.077800
-1.137800 1.055200
-1.126400 1.040100
-1.115100 1.024000
-1.103700 1.009100
-1.092300 0.995400
-1.080900 0.981900
-1.069600 0.966000
-1.058200 1.043200
-1.046800 1.003300
-1.035400 0.986300
-1.024100 0.971000
-1.012700 0.957900
-1.001300 0.947100
-0.989900 0.938400
-0.978600 0.931900
-0.967200 0.932800
-0.955800 0.938600
-0.944400 0.947300
-0.933100 0.963100
-0.921700 0.988800
-0.910300 1.020400
-0.898900 1.052100
-0.887500 1.087800
-0.876200 1.128700
-0.864800 1.174800
-0.853400 1.226000
-0.842000 1.279000
-0.830700 1.339900
-0.819300 1.398200
-0.807900 1.418500
-0.796500 1.459700
-0.785200 1.502500
-0.773800 1.546900
-0.762400 1.592900
-0.751000 1.640500
-0.739700 1.655900
-0.728300 1.678600
-0.716900 1.711800
-0.705500 1.743000
-0.694200 1.772000
-0.682800 1.800700
-0.671400 1.828900
-0.660000 1.855900
-0.648700 1.929000
-0.637300 1.903600
-0.625900 1.940100
-0.614500 1.985300
-0.603200 2.030500
-0.591800 2.075500
-0.580400 2.120400
-0.569000 2.165200
-0.557700 2.210800
-0.546300 2.251000
-0.534900 2.268900
-0.523500 2.287300
-0.512200 2.310300
-0.500800 2.345700
-0.489400 2.519700
-0.478000 2.387300
-0.466700 2.420200
-0.455300 2.441800
-0.443900 2.431400
-0.432500 2.413400
-0.421200 2.395600
-0.409800 2.378600
-0.398400 2.381900
-0.387000 2.400900
-0.375700 2.410200
-0.364300 2.406200
-0.352900 2.394500
-0.341500 2.375000
-0.330200 2.347800
-0.318800 2.333600
-0.307400 2.316900
-0.296000 2.298300
-0.284700 2.277200
-0.273300 2.252600
-0.261900 2.227800
-0.250500 2.218600
-0.239100 2.223600
-0.227800 2.276700
-0.216400 2.328500
-0.205000 2.374500
-0.193600 2.430800
-0.182300 2.468400
-0.170900 2.499500
-0.159500 2.535500
-0.148100 2.562700
-0.136800 2.583500
-0.125400 2.602600
-0.114000 2.618300
-0.102600 2.627600
-0.091300 2.633500
-0.079900 2.639300
-0.068500 2.645800
-0.057100 2.675600
-0.045800 2.694100
-0.034400 2.679000
-0.023000 2.608600
-0.011600 2.601300
-0.000300 2.592100
0.011100 2.583500
0.022500 2.579300
0.033900 2.576900
0.045200 2.577500
0.056600 2.578700
0.068000 2.580600
0.079400 2.583300
0.090700 2.596900
0.102100 2.612600
0.113500 2.630500
0.124900 2.654900
0.136200 2.692300
0.147600 2.735700
0.159000 2.783900
0.170400 2.803600
0.181700 2.852300
0.193100 2.887900
0.204500 2.884600
0.215900 2.860300
0.227200 2.830600
0.238600 2.815700
0.250000 2.802300
0.261400 2.784900
0.272700 2.763400
0.284100 2.737600
0.295500 2.707800
0.306900 2.674300
0.318200 2.637300
0.329600 2.596200
0.341000 2.551200
0.352400 2.503100
0.363700 2.451800
0.375100 2.397400
0.386500 2.348600
0.397900 2.319000
0.409200 2.241600
0.420600 2.133400
0.432000 2.064400
0.443400 1.993500
0.454800 1.919300
0.466100 1.821800
0.477500 1.724900
0.488900 1.628800
0.500300 1.543500
0.511600 1.480700
0.523000 1.382000
0.534400 1.344600
0.545800 1.300800
0.557100 1.260600
0.568500 1.262800
0.579900 1.295700
0.591300 1.337400
0.602600 1.387800
0.614000 1.448300
0.625400 1.519400
0.636800 1.600900
0.648100 1.740100
0.659500 1.963800
0.670900 2.223500
0.682300 3.068300
0.693600 3.082700
0.705000 3.293800
0.716400 3.397500
0.727800 3.456900
0.739100 3.480600
0.750500 3.478500
0.761900 3.449600
0.773300 3.409000
0.784600 3.360700
0.796000 3.313200
0.807400 3.275300
0.818800 3.216500
0.830100 3.167300
0.841500 3.088300
0.852900 2.978800
0.864300 2.836100
0.875600 2.736800
0.887000 2.642600
0.898400 2.551700
0.909800 2.464100
0.921100 2.397500
0.932500 2.344200
0.943900 2.295100
0.955300 2.248700
0.966600 2.204100
0.978000 2.163300
0.989400 2.125700
1.000800 2.090000
1.012100 2.071500
1.023500 2.053700
1.034900 2.036800
1.046300 2.021200
1.057600 2.006800
1.069000 1.993700
1.080400 1.978200
1.091800 1.966400
1.103100 1.955300
1.114500 1.943900
1.125900 1.932000
1.137300 1.919500
1.148700 1.906200
1.160000 1.958300
1.171400 1.944900
1.182800 1.931900
1.194200 1.936200
1.205500 1.929700
1.216900 1.919100
1.228300 1.912200
1.239700 1.901200
1.251000 1.886000
1.262400 1.860900
1.273800 1.833600
1.285200 1.807600
1.296500 1.782900
1.307900 1.745400
1.319300 1.732200
1.330700 1.720000
1.342000 1.711900
1.353400 1.702700
1.364800 1.694500
1.376200 1.640100
1.387500 1.640700
1.398900 1.641400
1.410300 1.642100
1.421700 1.642800
1.433000 1.643700
1.444400 1.644500
1.455800 1.647200
1.467200 1.652500
1.478500 1.660700
1.489900 1.672700
1.501300 1.741300
1.512700 1.790900
1.524000 1.808400
1.535400 1.803300
1.546800 1.799000
1.558200 1.795500
1.569500 1.792300
1.580900 1.788700
1.592300 1.782400
1.603700 1.773200
1.615000 1.761200
1.626400 1.738700
1.637800 1.746700
1.649200 1.784600
1.660500 1.795800
1.671900 1.840800
1.683300 1.869300
1.694700 1.931600
1.706000 1.979000
1.717400 2.010400
1.728800 2.033700
1.740200 2.053600
1.751500 2.070000
1.762900 2.066100
1.774300 2.071600
1.785700 2.065100
1.797000 2.056400
1.808400 2.045000
1.819800 2.070400
1.831200 2.063200
1.842600 2.095100
1.853900 1.952800
1.865300 1.958200
1.876700 1.976700
1.888100 1.993000
1.899400 2.074600
1.910800 2.244100
1.922200 2.423600
1.933600 2.612800
1.944900 2.837700
1.956300 3.173800
1.967700 3.494800
1.979100 3.698500
1.990400 3.663100
2.001800 3.319800
2.013200 3.246900
2.024600 3.139300
2.035900 3.126400
2.047300 3.126100
2.058700 3.145100
2.070100 3.177100
2.081400 3.216600
2.092800 3.261700
2.104200 3.310600
2.115600 3.367100
2.126900 3.435000
2.138300 3.515200
2.149700 3.612900
2.161100 3.749200
2.172400 3.953400
2.183800 4.216800
2.195200 4.119700
2.206600 4.015100
2.217900 3.981500
2.229300 4.037600
2.240700 4.037200
2.252100 4.053900
2.263400 4.042900
2.274800 3.967400
2.286200 3.858700
2.297600 3.747200
2.308900 3.632300
2.320300 3.515400
2.331700 3.399700
2.343100 3.284000
2.354400 3.168900
2.365800 3.023900
2.377200 2.880100
2.388600 2.735800
2.399900 2.606500
2.411300 2.501800
2.422700 2.417100
2.434100 2.341600
2.445400 2.271100
2.456800 2.209000
2.468200 2.157100
2.479600 2.116800
2.490900 2.088200
2.502300 2.068800
2.513700 2.054800
2.525100 2.024500
2.536500 2.037900
2.547800 2.049900
2.559200 2.105300
2.570600 2.290200
2.582000 2.405400
2.593300 2.443100
2.604700 2.502200
2.616100 2.573900
2.627500 2.649500
2.638800 2.711000
2.650200 2.756700
2.661600 2.977400
2.673000 2.789300
2.684300 2.776900
2.695700 2.768300
2.707100 2.758300
2.718500 2.752100
2.729800 2.750200
2.741200 2.754100
2.752600 2.767000
2.764000 2.777700
2.775300 2.774200
2.786700 2.950600
2.798100 2.826700
2.809500 2.642800
2.820800 2.611600
2.832200 2.590000
2.843600 2.578000
2.855000 2.538700
2.866300 2.523200
2.877700 2.514800
2.889100 2.516600
2.900500 2.524000
2.911800 2.551600
2.923200 2.583600
2.934600 2.616700
2.946000 2.694900
2.957300 2.735800
2.968700 2.789100
2.980100 2.837700
2.991500 2.882600
3.002800 2.925800
3.014200 2.968100
3.025600 3.026200
3.037000 3.104900
3.048300 3.193600
3.059700 3.345300
3.071100 3.414300
3.082500 3.465100
3.093800 3.535900
3.105200 3.675400
3.116600 3.837100
3.128000 3.940600
3.139300 4.099100
3.150700 4.145900
3.162100 4.224100
3.173500 4.245100
3.184900 3.968700
3.196200 4.044100
3.207600 4.061600
3.219000 4.087300
3.230400 4.024700
3.241700 4.005700
3.253100 3.980100
3.264500 4.001600
3.275900 3.964900
3.287200 4.008800
3.298600 3.832400
3.310000 3.562100
3.321400 3.519900
3.332700 3.506700
3.344100 3.499300
3.355500 3.497000
3.366900 3.498800
3.378200 3.500900
3.389600 4.208700
3.401000 4.065400
3.412400 3.407200
3.423700 3.236200
3.435100 3.152600
3.446500 3.137100
3.457900 3.188200
3.469200 3.305700
3.480600 3.428100
3.492000 3.451300
3.503400 3.520800
3.514700 3.605600
3.526100 3.672000
3.537500 3.722700
3.548900 3.809500
3.560200 3.888100
3.571600 3.953400
3.583000 4.007000
3.594400 4.092400
3.605700 4.182700
3.617100 4.314200
3.628500 4.450000
3.639900 4.658800
3.651200 4.908600
3.662600 5.102400
3.674000 5.175600
3.685400 5.209000
3.696700 5.196400
3.708100 5.121800
3.719500 5.021500
3.730900 4.785400
3.742200 4.675500
3.753600 4.535000
3.765000 4.386200
3.776400 4.239800
3.787700 4.113500
3.799100 3.997600
3.810500 3.887800
3.821900 3.778100
3.833200 3.654500
3.844600 4.050300
3.856000 4.176400
3.867400 3.895100
3.878800 4.031700
3.890100 3.722400
3.901500 3.661500
3.912900 3.604700
3.924300 3.559000
3.935600 3.523000
3.947000 3.491400
3.958400 3.468100
3.969800 3.451100
3.981100 3.444000
3.992500 3.440500
4.003900 3.457600
4.015300 3.496000
4.026600 3.551100
4.038000 3.617000
4.049400 3.658700
4.060800 3.691000
4.072100 3.737000
4.083500 3.803800
4.094900 3.876000
4.106300 3.950300
4.117600 4.073200
4.129000 4.141600
4.140400 5.351900
4.151800 4.389200
4.163100 4.415200
4.174500 4.477600
4.185900 4.591700
4.197300 4.688600
4.208600 4.772000
4.220000 4.911600
4.231400 4.798000
4.242800 4.892900
4.254100 4.937300
4.265500 4.968400
4.276900 4.985500
4.288300 5.043800
4.299600 5.058900
4.311000 5.022400
4.322400 4.996600
4.333800 5.018900
4.345100 5.027700
4.356500 4.982300
4.367900 4.964000
4.379300 4.935700
4.390600 4.885200
4.402000 4.838100
4.413400 4.798600
4.424800 4.814600
4.436100 4.840600
4.447500 4.876800
4.458900 4.862200
4.470300 4.793000
4.481600 4.750500
4.493000 4.730300
4.504400 4.626300
4.515800 4.624900
4.527100 4.640900
4.538500 4.673800
4.549900 4.742900
4.561300 4.914300
4.572700 5.229900
4.584000 5.511200
4.595400 5.674700
4.606800 5.878300
4.618200 6.002800
4.629500 6.097400
4.640900 6.279500
4.652300 6.561400
4.663700 6.708200
4.675000 6.835300
4.686400 6.873900
4.697800 6.879500
4.709200 6.906400
4.720500 6.912200
4.731900 6.894900
4.743300 6.804000
4.754700 6.722000
4.766000 6.672900
4.777400 6.684000
4.788800 6.852000
4.800200 7.270000
4.811500 7.581500
4.822900 7.281700
4.834300 6.889100
4.845700 6.604400
4.857000 6.212800
4.868400 6.447500
4.879800 6.308200
4.891200 6.220800
4.902500 6.306200
4.913900 6.453500
4.925300 6.627700
4.936700 6.769000
4.948000 6.990000
4.959400 7.184800
4.970800 7.292100
4.982200 7.289200
4.993500 7.320600
5.004900 7.351200
5.016300 7.048000
5.027700 6.823800
5.039000 6.621400
5.050400 6.433800
5.061800 6.243800
5.073200 5.690400
5.084500 5.345900
5.095900 5.229600
5.107300 5.162200
5.118700 4.789200
5.130000 4.426200
5.141400 4.081000
5.152800 3.784900
5.164200 3.741200
5.175500 3.712700
5.186900 3.684400
5.198300 3.656900
5.209700 3.631600
5.221000 3.609100
5.232400 3.590600
5.243800 3.574800
5.255200 3.558000
5.266600 3.546400
5.277900 3.542600
5.289300 3.507200
5.300700 3.495000
5.312100 3.640800
5.323400 3.711900
5.334800 3.569800
5.346200 3.447300
5.357600 3.409000
5.368900 3.553500
5.380300 3.641800
5.391700 3.725800
5.403100 3.821900
5.414400 4.014400
5.425800 3.920900
5.437200 3.885900
