set title 'mp-1193675 - Density of States'
set xlabel 'Energy (eV)'
set ylabel 'DOS (states/eV)'
set grid
set xrange [-10:10]
set yrange [0:17.908]
set xzeroaxis lt -1
set terminal png size 800,600
set output 'mp-1193675_dos_gnuplot.png'
plot '-' using 1:2 with lines title 'DOS'
-11.644300 0.000000
-11.623200 0.000000
-11.602100 0.000000
-11.581000 0.000000
-11.559900 0.000000
-11.538800 0.000000
-11.517700 0.000000
-11.496600 0.000000
-11.475600 0.000000
-11.454500 0.000000
-11.433400 0.000000
-11.412300 0.000000
-11.391200 0.000000
-11.370100 0.000000
-11.349000 0.000000
-11.327900 0.000000
-11.306800 0.000000
-11.285700 0.000000
-11.264600 0.000000
-11.243500 0.000000
-11.222400 0.000000
-11.201300 0.000000
-11.180200 0.000000
-11.159100 0.000000
-11.138000 0.000000
-11.117000 0.000000
-11.095900 0.000000
-11.074800 0.000000
-11.053700 0.000000
-11.032600 0.000000
-11.011500 0.000000
-10.990400 0.000000
-10.969300 0.000000
-10.948200 0.000000
-10.927100 0.000000
-10.906000 0.000000
-10.884900 0.000000
-10.863800 0.000000
-10.842700 0.000000
-10.821600 0.000000
-10.800500 0.000000
-10.779400 0.000000
-10.758400 0.000000
-10.737300 0.000000
-10.716200 0.000000
-10.695100 0.000000
-10.674000 0.000000
-10.652900 0.000000
-10.631800 0.000000
-10.610700 0.000000
-10.589600 0.000000
-10.568500 0.000000
-10.547400 0.000000
-10.526300 0.000000
-10.505200 0.000000
-10.484100 0.000000
-10.463000 0.000000
-10.441900 0.000000
-10.420800 0.000000
-10.399800 0.000000
-10.378700 0.000000
-10.357600 0.000000
-10.336500 0.000000
-10.315400 0.000000
-10.294300 0.000000
-10.273200 0.000000
-10.252100 0.000000
-10.231000 0.000000
-10.209900 0.000000
-10.188800 0.000000
-10.167700 0.000000
-10.146600 0.000000
-10.125500 0.000000
-10.104400 0.000000
-10.083300 0.000000
-10.062200 0.000000
-10.041200 0.000000
-10.020100 0.000000
-9.999000 0.000000
-9.977900 0.000000
-9.956800 0.000000
-9.935700 0.000000
-9.914600 0.000000
-9.893500 0.000000
-9.872400 0.000000
-9.851300 0.000000
-9.830200 0.000000
-9.809100 0.000000
-9.788000 0.000000
-9.766900 0.000000
-9.745800 0.000000
-9.724700 0.000200
-9.703600 0.023200
-9.682600 0.085200
-9.661500 0.186200
-9.640400 0.326200
-9.619300 0.505200
-9.598200 0.719400
-9.577100 0.932900
-9.556000 1.112100
-9.534900 1.252900
-9.513800 1.355200
-9.492700 1.419600
-9.471600 1.455500
-9.450500 1.494500
-9.429400 1.553200
-9.408300 1.631500
-9.387200 1.729500
-9.366100 1.846700
-9.345000 1.972900
-9.324000 2.103900
-9.302900 2.239500
-9.281800 2.475700
-9.260700 2.763400
-9.239600 3.023500
-9.218500 3.255300
-9.197400 3.572800
-9.176300 3.897600
-9.155200 4.091300
-9.134100 4.298900
-9.113000 4.409200
-9.091900 4.405700
-9.070800 4.438200
-9.049700 4.457800
-9.028600 4.541800
-9.007500 4.660800
-8.986400 4.807300
-8.965400 4.954700
-8.944300 5.102900
-8.923200 5.295300
-8.902100 6.307800
-8.881000 7.428500
-8.859900 7.661000
-8.838800 7.531100
-8.817700 7.594400
-8.796600 8.229200
-8.775500 10.996100
-8.754400 12.032200
-8.733300 11.836600
-8.712200 3.184300
-8.691100 2.556100
-8.670000 2.005500
-8.648900 1.532300
-8.627800 1.136100
-8.606800 0.588200
-8.585700 0.057600
-8.564600 0.000000
-8.543500 0.000000
-8.522400 0.000000
-8.501300 0.000000
-8.480200 0.000000
-8.459100 0.000000
-8.438000 0.000000
-8.416900 0.000000
-8.395800 0.000000
-8.374700 0.000000
-8.353600 0.000000
-8.332500 0.000000
-8.311400 0.000000
-8.290300 0.000000
-8.269200 0.000000
-8.248200 0.000000
-8.227100 0.000000
-8.206000 0.000000
-8.184900 0.000000
-8.163800 0.000000
-8.142700 0.000000
-8.121600 0.000000
-8.100500 0.000000
-8.079400 0.000000
-8.058300 0.000000
-8.037200 0.000000
-8.016100 0.000000
-7.995000 0.000000
-7.973900 0.000000
-7.952800 0.000000
-7.931700 0.000000
-7.910600 0.000000
-7.889600 0.000000
-7.868500 0.000000
-7.847400 0.000000
-7.826300 0.000000
-7.805200 0.000000
-7.784100 0.000000
-7.763000 0.000000
-7.741900 0.000000
-7.720800 0.000000
-7.699700 0.000000
-7.678600 0.000000
-7.657500 0.000000
-7.636400 0.000000
-7.615300 0.000000
-7.594200 0.000000
-7.573100 0.000000
-7.552000 0.000000
-7.531000 0.000000
-7.509900 0.000000
-7.488800 0.000000
-7.467700 0.000000
-7.446600 0.000000
-7.425500 0.000000
-7.404400 0.000000
-7.383300 0.000000
-7.362200 0.000000
-7.341100 0.000000
-7.320000 0.000000
-7.298900 0.000000
-7.277800 0.000000
-7.256700 0.000000
-7.235600 0.000000
-7.214500 0.000000
-7.193400 0.004700
-7.172400 0.180900
-7.151300 0.373100
-7.130200 0.581200
-7.109100 0.805300
-7.088000 0.936000
-7.066900 1.001400
-7.045800 1.083300
-7.024700 1.172100
-7.003600 1.267800
-6.982500 1.363700
-6.961400 1.467200
-6.940300 1.597300
-6.919200 1.768300
-6.898100 2.062400
-6.877000 2.772700
-6.855900 3.394700
-6.834800 3.761600
-6.813800 4.127300
-6.792700 4.503400
-6.771600 4.874900
-6.750500 5.246700
-6.729400 5.841700
-6.708300 6.065300
-6.687200 6.604200
-6.666100 8.964300
-6.645000 7.510000
-6.623900 5.418000
-6.602800 5.582600
-6.581700 5.733100
-6.560600 6.857400
-6.539500 6.698500
-6.518400 6.505700
-6.497300 5.663400
-6.476200 4.869100
-6.455200 4.429000
-6.434100 4.069100
-6.413000 3.849100
-6.391900 3.673700
-6.370800 3.500200
-6.349700 3.122500
-6.328600 2.965600
-6.307500 2.805600
-6.286400 2.976400
-6.265300 2.881700
-6.244200 2.799700
-6.223100 2.726800
-6.202000 2.662700
-6.180900 2.632100
-6.159800 2.447900
-6.138700 2.523400
-6.117700 2.793500
-6.096600 3.123900
-6.075500 2.937200
-6.054400 2.668300
-6.033300 2.593600
-6.012200 2.540700
-5.991100 2.510400
-5.970000 2.504000
-5.948900 2.529500
-5.927800 2.588100
-5.906700 2.648800
-5.885600 2.800000
-5.864500 3.025400
-5.843400 3.226000
-5.822300 3.361600
-5.801200 3.517100
-5.780100 3.972300
-5.759100 4.183300
-5.738000 4.386400
-5.716900 4.568200
-5.695800 4.586000
-5.674700 4.651400
-5.653600 4.522400
-5.632500 4.073500
-5.611400 3.878500
-5.590300 3.960900
-5.569200 4.056000
-5.548100 4.135700
-5.527000 4.183700
-5.505900 4.152100
-5.484800 4.273000
-5.463700 4.446700
-5.442600 4.677200
-5.421500 4.885300
-5.400500 5.320300
-5.379400 5.697300
-5.358300 5.729400
-5.337200 5.698700
-5.316100 5.871900
-5.295000 6.030000
-5.273900 6.169400
-5.252800 6.284100
-5.231700 6.272000
-5.210600 6.170700
-5.189500 6.027900
-5.168400 5.894700
-5.147300 5.685100
-5.126200 5.510300
-5.105100 5.240300
-5.084000 8.953900
-5.062900 5.623200
-5.041900 5.248800
-5.020800 5.034500
-4.999700 4.996800
-4.978600 4.990500
-4.957500 5.034900
-4.936400 5.164600
-4.915300 5.380100
-4.894200 5.633800
-4.873100 6.242300
-4.852000 6.135900
-4.830900 5.679800
-4.809800 5.681700
-4.788700 5.790300
-4.767600 5.865900
-4.746500 5.945000
-4.725400 6.093300
-4.704300 6.157400
-4.683300 6.235000
-4.662200 6.312700
-4.641100 6.365800
-4.620000 6.437400
-4.598900 6.360500
-4.577800 6.105500
-4.556700 5.910000
-4.535600 5.588000
-4.514500 5.197900
-4.493400 4.646200
-4.472300 3.808700
-4.451200 3.275500
-4.430100 2.823100
-4.409000 2.385300
-4.387900 2.181800
-4.366800 1.970400
-4.345700 1.813300
-4.324700 1.777100
-4.303600 1.865300
-4.282500 2.080300
-4.261400 2.364200
-4.240300 2.514600
-4.219200 2.577000
-4.198100 2.648300
-4.177000 2.635000
-4.155900 2.632600
-4.134800 2.636000
-4.113700 2.642700
-4.092600 2.640200
-4.071500 2.640200
-4.050400 2.638300
-4.029300 2.634500
-4.008200 2.628800
-3.987100 2.621200
-3.966100 2.612300
-3.945000 2.628700
-3.923900 2.610300
-3.902800 2.581800
-3.881700 2.558300
-3.860600 2.621800
-3.839500 2.709000
-3.818400 2.820100
-3.797300 2.951300
-3.776200 3.093500
-3.755100 3.574500
-3.734000 3.722800
-3.712900 3.807500
-3.691800 3.895500
-3.670700 3.975500
-3.649600 4.044600
-3.628500 4.108000
-3.607500 4.164100
-3.586400 4.137400
-3.565300 4.067700
-3.544200 3.990700
-3.523100 3.918500
-3.502000 3.909700
-3.480900 3.902300
-3.459800 3.898200
-3.438700 3.920700
-3.417600 3.921700
-3.396500 3.897400
-3.375400 3.855600
-3.354300 3.796800
-3.333200 3.721200
-3.312100 3.628600
-3.291000 3.255100
-3.269900 3.082500
-3.248900 2.903800
-3.227800 2.720500
-3.206700 2.532600
-3.185600 2.340100
-3.164500 2.142900
-3.143400 1.941200
-3.122300 1.718800
-3.101200 1.421800
-3.080100 1.108600
-3.059000 0.777300
-3.037900 0.550400
-3.016800 0.562300
-2.995700 0.565800
-2.974600 0.589300
-2.953500 0.632700
-2.932400 0.696000
-2.911300 1.915300
-2.890300 3.364200
-2.869200 4.748300
-2.848100 2.679000
-2.827000 2.760700
-2.805900 3.005200
-2.784800 3.302500
-2.763700 3.569100
-2.742600 3.903200
-2.721500 4.162500
-2.700400 4.402200
-2.679300 4.856600
-2.658200 5.275200
-2.637100 5.543800
-2.616000 5.698700
-2.594900 5.819200
-2.573800 5.837900
-2.552700 5.848900
-2.531700 5.848900
-2.510600 5.837000
-2.489500 5.791600
-2.468400 5.704100
-2.447300 5.902200
-2.426200 6.085200
-2.405100 6.356400
-2.384000 5.957000
-2.362900 5.347700
-2.341800 5.307300
-2.320700 5.376100
-2.299600 5.482800
-2.278500 5.620200
-2.257400 5.953700
-2.236300 6.306200
-2.215200 6.490300
-2.194100 6.523600
-2.173100 6.251300
-2.152000 5.139400
-2.130900 5.126600
-2.109800 5.359300
-2.088700 5.621900
-2.067600 5.890900
-2.046500 6.159600
-2.025400 6.398600
-2.004300 6.611100
-1.983200 6.796000
-1.962100 6.773200
-1.941000 6.705500
-1.919900 6.661400
-1.898800 6.597600
-1.877700 6.255700
-1.856600 5.898900
-1.835500 5.949200
-1.814500 6.089900
-1.793400 6.265000
-1.772300 6.359300
-1.751200 6.361400
-1.730100 6.477500
-1.709000 6.631100
-1.687900 6.540000
-1.666800 6.206000
-1.645700 6.041900
-1.624600 5.911400
-1.603500 5.811200
-1.582400 5.746600
-1.561300 5.756000
-1.540200 6.626300
-1.519100 6.451900
-1.498000 6.183400
-1.476900 6.479300
-1.455900 6.488000
-1.434800 5.753900
-1.413700 6.133600
-1.392600 6.430800
-1.371500 6.591500
-1.350400 6.620000
-1.329300 6.505900
-1.308200 6.315000
-1.287100 6.258500
-1.266000 6.433400
-1.244900 6.338300
-1.223800 6.240400
-1.202700 6.375300
-1.181600 7.413800
-1.160500 7.206100
-1.139400 6.336500
-1.118300 5.970500
-1.097300 6.032000
-1.076200 6.206200
-1.055100 5.804000
-1.034000 5.473500
-1.012900 5.214200
-0.991800 4.932800
-0.970700 4.731000
-0.949600 4.622000
-0.928500 4.559000
-0.907400 4.554300
-0.886300 4.571000
-0.865200 4.610000
-0.844100 4.678600
-0.823000 4.569400
-0.801900 4.794400
-0.780800 5.081200
-0.759700 5.950000
-0.738700 6.738600
-0.717600 7.226000
-0.696500 7.675300
-0.675400 7.965400
-0.654300 8.221600
-0.633200 9.247100
-0.612100 8.839500
-0.591000 7.334700
-0.569900 7.173900
-0.548800 7.791000
-0.527700 8.015400
-0.506600 6.402000
-0.485500 5.940100
-0.464400 5.557800
-0.443300 5.313200
-0.422200 5.117400
-0.401100 4.937700
-0.380100 4.779800
-0.359000 4.633000
-0.337900 4.559200
-0.316800 4.527300
-0.295700 4.666300
-0.274600 5.546300
-0.253500 6.515000
-0.232400 6.903400
-0.211300 7.001400
-0.190200 6.826700
-0.169100 6.367600
-0.148000 5.984900
-0.126900 5.924700
-0.105800 6.184500
-0.084700 6.552200
-0.063600 7.230000
-0.042500 7.591900
-0.021500 7.790800
-0.000400 7.911800
0.020700 7.961200
0.041800 7.881700
0.062900 7.762100
0.084000 7.585600
0.105100 7.456100
0.126200 7.247900
0.147300 6.824700
0.168400 6.913800
0.189500 7.455200
0.210600 6.881800
0.231700 6.392400
0.252800 5.715600
0.273900 5.083100
0.295000 4.494900
0.316100 4.092900
0.337100 5.235000
0.358200 6.071500
0.379300 6.051400
0.400400 6.344000
0.421500 6.437800
0.442600 6.983000
0.463700 7.197200
0.484800 7.069900
0.505900 6.882500
0.527000 6.654100
0.548100 6.694400
0.569200 6.916300
0.590300 7.199200
0.611400 7.077400
0.632500 7.143800
0.653600 7.740000
0.674700 7.927700
0.695700 7.832700
0.716800 7.711800
0.737900 7.708800
0.759000 7.569100
0.780100 7.199800
0.801200 6.970800
0.822300 6.911500
0.843400 6.817500
0.864500 6.754200
0.885600 6.669600
0.906700 6.011600
0.927800 5.978700
0.948900 6.037900
0.970000 5.975500
0.991100 7.113500
1.012200 7.098600
1.033300 7.622300
1.054300 7.670800
1.075400 7.789700
1.096500 7.421600
1.117600 6.712400
1.138700 5.857200
1.159800 5.316400
1.180900 5.687400
1.202000 4.967100
1.223100 4.486600
1.244200 4.612700
1.265300 4.765200
1.286400 4.884600
1.307500 4.980200
1.328600 5.749100
1.349700 6.138000
1.370800 7.016800
1.391900 6.271700
1.412900 6.297500
1.434000 6.319800
1.455100 6.418900
1.476200 6.566000
1.497300 6.241500
1.518400 6.281600
1.539500 6.345800
1.560600 6.476200
1.581700 6.605900
1.602800 6.726100
1.623900 6.821600
1.645000 6.801000
1.666100 6.706000
1.687200 6.607700
1.708300 6.740600
1.729400 6.962700
1.750500 7.768100
1.771500 8.660400
1.792600 9.750000
1.813700 10.644300
1.834800 9.414700
1.855900 8.117700
1.877000 7.307000
1.898100 6.832000
1.919200 6.844000
1.940300 6.763500
1.961400 6.423000
1.982500 6.108100
2.003600 5.865800
2.024700 5.852000
2.045800 5.947700
2.066900 6.065300
2.088000 6.152700
2.109100 6.345300
2.130100 6.548100
2.151200 6.763000
2.172300 6.989400
2.193400 7.199300
2.214500 7.413800
2.235600 7.629700
2.256700 11.176400
2.277800 9.157800
2.298900 9.018700
2.320000 8.649500
2.341100 8.220000
2.362200 8.028100
2.383300 7.903400
2.404400 7.762200
2.425500 7.641400
2.446600 12.282500
2.467700 10.231800
2.488700 8.121000
2.509800 7.885800
2.530900 8.055300
2.552000 8.904700
2.573100 9.466400
2.594200 10.001000
2.615300 11.913800
2.636400 10.689100
2.657500 10.491900
2.678600 11.914200
2.699700 12.050200
2.720800 9.662400
2.741900 12.988100
2.763000 10.364300
2.784100 10.808200
2.805200 10.922400
2.826300 10.839900
2.847300 11.498000
2.868400 12.538900
2.889500 11.924900
2.910600 11.188400
2.931700 10.909700
2.952800 10.186300
2.973900 9.525900
2.995000 9.425900
3.016100 9.100300
3.037200 9.956800
3.058300 11.047300
3.079400 15.609500
3.100500 14.754000
3.121600 16.280300
3.142700 13.281400
3.163800 10.706900
3.184900 10.830400
3.205900 9.830500
3.227000 9.580500
3.248100 9.075700
3.269200 10.245100
3.290300 10.679600
3.311400 8.579100
3.332500 9.695800
3.353600 7.211800
3.374700 7.976200
3.395800 8.900400
3.416900 10.202300
3.438000 10.013600
3.459100 9.687400
3.480200 9.483700
3.501300 9.436700
3.522400 9.562200
3.543500 9.491300
3.564500 9.345700
3.585600 8.823600
3.606700 8.002900
3.627800 8.528700
3.648900 9.268500
3.670000 10.162800
3.691100 11.913800
3.712200 9.850300
3.733300 9.340000
3.754400 9.337600
3.775500 9.689000
3.796600 9.871200
3.817700 10.066100
3.838800 10.803200
3.859900 11.492800
3.881000 11.912000
3.902100 10.978700
3.923100 10.595300
3.944200 10.769100
3.965300 10.887200
3.986400 11.431000
4.007500 12.826200
4.028600 13.554900
4.049700 12.272500
4.070800 9.570000
4.091900 9.169200
4.113000 8.634400
4.134100 8.135700
4.155200 8.199600
4.176300 8.621500
4.197400 8.867700
4.218500 8.723800
4.239600 8.689000
4.260700 8.791500
4.281700 8.989600
4.302800 9.608800
4.323900 9.896700
4.345000 10.221300
4.366100 10.514000
4.387200 10.875900
4.408300 11.297600
4.429400 11.332000
4.450500 12.194700
4.471600 13.400600
4.492700 13.364200
4.513800 12.195000
4.534900 10.257800
4.556000 8.883900
4.577100 8.291500
4.598200 7.851700
4.619300 7.589900
4.640300 6.898500
4.661400 6.132100
4.682500 5.700100
4.703600 5.400900
4.724700 5.243900
4.745800 5.085200
4.766900 4.979600
4.788000 4.941200
4.809100 4.958900
4.830200 4.977100
4.851300 5.227200
4.872400 5.439200
4.893500 5.499200
4.914600 5.527600
4.935700 5.453800
4.956800 5.380300
4.977900 5.310400
4.998900 5.305400
5.020000 5.239900
5.041100 5.222700
5.062200 5.194000
5.083300 5.372800
5.104400 5.456400
5.125500 5.568900
5.146600 5.850700
5.167700 5.728200
5.188800 5.623200
5.209900 5.479000
5.231000 5.399900
5.252100 5.365900
5.273200 5.386900
5.294300 5.409600
5.315400 5.505900
5.336500 5.662000
5.357500 5.800600
5.378600 5.915300
5.399700 6.154400
5.420800 6.343000
5.441900 5.604500
5.463000 5.665900
5.484100 5.815000
5.505200 5.910200
5.526300 5.948400
5.547400 5.973500
5.568500 5.795700
5.589600 5.401500
5.610700 5.193700
5.631800 5.226300
5.652900 5.291700
5.674000 5.289400
5.695100 5.271500
5.716100 5.255800
5.737200 5.352500
5.758300 5.273200
5.779400 5.239900
5.800500 5.145900
5.821600 4.923500
5.842700 4.735100
5.863800 4.585700
5.884900 4.482500
5.906000 4.434200
5.927100 4.401900
5.948200 4.042200
5.969300 3.568500
5.990400 3.070000
6.011500 2.591500
6.032600 2.203600
6.053700 1.919000
6.074700 1.595700
6.095800 1.188600
6.116900 0.734100
6.138000 0.288300
6.159100 0.000600
6.180200 0.000000
6.201300 0.000000
6.222400 0.000000
6.243500 0.000000
6.264600 0.000000
6.285700 0.000000
6.306800 0.000000
6.327900 0.000000
6.349000 0.000000
6.370100 0.000000
6.391200 0.000000
6.412300 0.000000
6.433300 0.000000
6.454400 0.000000
6.475500 0.000000
6.496600 0.000000
6.517700 0.000000
6.538800 0.000000
6.559900 0.000000
6.581000 0.000000
6.602100 0.000000
6.623200 0.000000
6.644300 0.000000
6.665400 0.000000
6.686500 0.000000
6.707600 0.000000
6.728700 0.000000
6.749800 0.000000
6.770900 0.000000
6.791900 0.000000
6.813000 0.000000
6.834100 0.000000
6.855200 0.000000
6.876300 0.000000
6.897400 0.000000
6.918500 0.000000
6.939600 0.000000
6.960700 0.000000
6.981800 0.000000
7.002900 0.000000
7.024000 0.000000
7.045100 0.000000
7.066200 0.000000
7.087300 0.000000
7.108400 0.000000
7.129500 0.000000
7.150500 0.000000
7.171600 0.000000
7.192700 0.000000
7.213800 0.000000
7.234900 0.000000
7.256000 0.000000
7.277100 0.000000
7.298200 0.000000
7.319300 0.000000
7.340400 0.000000
7.361500 0.000000
7.382600 0.000000
7.403700 0.000000
7.424800 0.000000
7.445900 0.000000
7.467000 0.000000
7.488100 0.000000
7.509100 0.000000
7.530200 0.000000
7.551300 0.000000
7.572400 0.000000
7.593500 0.000000
7.614600 0.000000
7.635700 0.000000
7.656800 0.000000
7.677900 0.000000
7.699000 0.013900
7.720100 0.097800
7.741200 0.207500
7.762300 0.343200
7.783400 0.502900
7.804500 0.645000
7.825600 0.790600
7.846700 0.940900
7.867700 1.185900
7.888800 1.349900
7.909900 1.513200
7.931000 1.933300
7.952100 2.123800
7.973200 2.310400
7.994300 2.513500
8.015400 2.738300
8.036500 2.969500
8.057600 3.207100
8.078700 3.609800
8.099800 3.817900
8.120900 3.996500
8.142000 4.142000
8.163100 4.250600
8.184200 4.850400
8.205300 5.030700
8.226300 5.098400
8.247400 5.156500
8.268500 5.217200
8.289600 5.279300
8.310700 5.367200
8.331800 6.056000
8.352900 6.665600
8.374000 6.895300
8.395100 7.053200
8.416200 7.323600
8.437300 7.659600
8.458400 6.522300
8.479500 5.558500
8.500600 5.047300
8.521700 6.741500
8.542800 5.935300
8.563900 5.667300
8.584900 5.367200
8.606000 4.482700
8.627100 2.943300
8.648200 2.759600
8.669300 2.631200
8.690400 2.364900
8.711500 2.041200
8.732600 2.454700
8.753700 2.454900
8.774800 2.925700
8.795900 2.604100
8.817000 3.049300
8.838100 3.458700
8.859200 3.510000
8.880300 3.442100
8.901400 3.771700
8.922500 4.230700
8.943500 5.471000
8.964600 6.307600
8.985700 7.023500
9.006800 7.670300
9.027900 7.964100
9.049000 7.868300
9.070100 8.073700
9.091200 8.303300
9.112300 8.393800
9.133400 8.708000
9.154500 8.185300
9.175600 8.118600
9.196700 7.721900
9.217800 7.105600
9.238900 6.431100
9.260000 5.726100
9.281100 4.314300
9.302100 3.867900
9.323200 3.526800
9.344300 3.386700
9.365400 3.331600
9.386500 3.530100
9.407600 3.811600
9.428700 4.281300
9.449800 5.495700
9.470900 5.858400
9.492000 6.517400
9.513100 6.392000
9.534200 6.289300
9.555300 6.354200
9.576400 6.305100
9.597500 6.220500
9.618600 6.134700
9.639700 6.092600
9.660700 6.072100
9.681800 6.161500
9.702900 6.205900
9.724000 6.201200
9.745100 6.116100
9.766200 6.036200
9.787300 5.973500
9.808400 5.914300
9.829500 5.730900
9.850600 5.673000
9.871700 5.590700
9.892800 5.397200
9.913900 5.164500
9.935000 4.653500
9.956100 4.140200
9.977200 3.930800
9.998300 3.966400
10.019300 4.222300
10.040400 4.653800
10.061500 5.186700
10.082600 5.955100
10.103700 7.146600
10.124800 7.571200
10.145900 7.841800
10.167000 7.953200
10.188100 7.852800
10.209200 7.638900
10.230300 7.464000
10.251400 7.071600
10.272500 6.686700
10.293600 6.695200
10.314700 6.693300
10.335800 6.672300
10.356900 6.632300
10.377900 7.497000
10.399000 7.593900
10.420100 7.651100
10.441200 7.767200
10.462300 7.885200
10.483400 8.005100
10.504500 7.887500
10.525600 8.035500
10.546700 8.260100
10.567800 7.903700
10.588900 7.157100
