set title 'mp-1056702 - Density of States'
set xlabel 'Energy (eV)'
set ylabel 'DOS (states/eV)'
set grid
set xrange [-10:10]
set yrange [0:0.704]
set xzeroaxis lt -1
set terminal png size 800,600
set output 'mp-1056702_dos_gnuplot.png'
plot '-' using 1:2 with lines title 'DOS'
-45.696400 0.000000
-45.625800 0.000000
-45.555300 0.000000
-45.484700 0.000000
-45.414100 0.000000
-45.343600 0.000000
-45.273000 0.000000
-45.202500 0.000000
-45.131900 0.000000
-45.061400 0.000000
-44.990800 0.000000
-44.920200 0.000000
-44.849700 0.000000
-44.779100 0.000000
-44.708600 0.000000
-44.638000 0.000000
-44.567400 0.000000
-44.496900 0.000000
-44.426300 0.000000
-44.355800 0.000000
-44.285200 0.000000
-44.214700 0.000000
-44.144100 0.000000
-44.073500 0.000000
-44.003000 0.000000
-43.932400 0.000000
-43.861900 0.000000
-43.791300 0.000000
-43.720800 0.000000
-43.650200 0.000000
-43.579600 0.000000
-43.509100 0.000000
-43.438500 0.000000
-43.368000 0.000000
-43.297400 0.000000
-43.226800 0.000000
-43.156300 0.000000
-43.085700 0.000000
-43.015200 0.000000
-42.944600 0.000000
-42.874100 0.000000
-42.803500 0.000000
-42.732900 0.000000
-42.662400 0.000000
-42.591800 0.000000
-42.521300 0.000000
-42.450700 0.000000
-42.380200 0.000000
-42.309600 0.000000
-42.239000 0.000000
-42.168500 0.000000
-42.097900 0.000000
-42.027400 0.000000
-41.956800 0.000000
-41.886200 0.000000
-41.815700 0.000000
-41.745100 0.000000
-41.674600 0.000000
-41.604000 0.000000
-41.533500 0.000000
-41.462900 0.000000
-41.392300 0.000000
-41.321800 0.000000
-41.251200 0.000000
-41.180700 0.000000
-41.110100 0.000000
-41.039600 0.000000
-40.969000 0.000000
-40.898400 0.000000
-40.827900 0.000000
-40.757300 0.000000
-40.686800 0.000000
-40.616200 0.000000
-40.545600 0.000000
-40.475100 0.000000
-40.404500 0.000000
-40.334000 0.000000
-40.263400 0.000000
-40.192900 0.000000
-40.122300 0.000000
-40.051700 0.000000
-39.981200 0.000000
-39.910600 0.000000
-39.840100 0.000000
-39.769500 0.000000
-39.699000 0.000000
-39.628400 0.000000
-39.557800 0.000000
-39.487300 0.000000
-39.416700 0.000000
-39.346200 0.000000
-39.275600 268.005600
-39.205000 0.000000
-39.134500 0.000000
-39.063900 0.000000
-38.993400 0.000000
-38.922800 0.000000
-38.852300 0.000000
-38.781700 0.000000
-38.711100 0.000000
-38.640600 0.000000
-38.570000 0.000000
-38.499500 0.000000
-38.428900 0.000000
-38.358400 0.000000
-38.287800 0.000000
-38.217200 0.000000
-38.146700 0.000000
-38.076100 0.000000
-38.005600 0.000000
-37.935000 0.000000
-37.864400 0.000000
-37.793900 0.000000
-37.723300 0.000000
-37.652800 0.000000
-37.582200 0.000000
-37.511700 0.000000
-37.441100 0.000000
-37.370500 0.000000
-37.300000 0.000000
-37.229400 0.000000
-37.158900 0.000000
-37.088300 0.000000
-37.017700 0.000000
-36.947200 0.000000
-36.876600 0.000000
-36.806100 0.000000
-36.735500 0.000000
-36.665000 0.000000
-36.594400 0.000000
-36.523800 0.000000
-36.453300 0.000000
-36.382700 0.000000
-36.312200 0.000000
-36.241600 0.000000
-36.171100 0.000000
-36.100500 0.000000
-36.029900 0.000000
-35.959400 0.000000
-35.888800 0.000000
-35.818300 0.000000
-35.747700 0.000000
-35.677100 0.000000
-35.606600 0.000000
-35.536000 0.000000
-35.465500 0.000000
-35.394900 0.000000
-35.324400 0.000000
-35.253800 0.000000
-35.183200 0.000000
-35.112700 0.000000
-35.042100 0.000000
-34.971600 0.000000
-34.901000 0.000000
-34.830500 0.000000
-34.759900 0.000000
-34.689300 0.000000
-34.618800 0.000000
-34.548200 0.000000
-34.477700 0.000000
-34.407100 0.000000
-34.336500 0.000000
-34.266000 0.000000
-34.195400 0.000000
-34.124900 0.000000
-34.054300 0.000000
-33.983800 0.000000
-33.913200 0.000000
-33.842600 0.000000
-33.772100 0.000000
-33.701500 0.000000
-33.631000 0.000000
-33.560400 0.000000
-33.489900 0.000000
-33.419300 0.000000
-33.348700 0.000000
-33.278200 0.000000
-33.207600 0.000000
-33.137100 0.000000
-33.066500 0.000000
-32.995900 0.000000
-32.925400 0.000000
-32.854800 0.000000
-32.784300 0.000000
-32.713700 0.000000
-32.643200 0.000000
-32.572600 0.000000
-32.502000 0.000000
-32.431500 0.000000
-32.360900 0.000000
-32.290400 0.000000
-32.219800 0.000000
-32.149300 0.000000
-32.078700 0.000000
-32.008100 0.000000
-31.937600 0.000000
-31.867000 0.000000
-31.796500 0.000000
-31.725900 0.000000
-31.655300 0.000000
-31.584800 0.000000
-31.514200 0.000000
-31.443700 0.000000
-31.373100 0.000000
-31.302600 0.000000
-31.232000 0.000000
-31.161400 0.000000
-31.090900 0.000000
-31.020300 0.000000
-30.949800 0.000000
-30.879200 0.000000
-30.808700 0.000000
-30.738100 0.000000
-30.667500 0.000000
-30.597000 0.000000
-30.526400 0.000000
-30.455900 0.000000
-30.385300 0.000000
-30.314700 0.000000
-30.244200 0.000000
-30.173600 0.000000
-30.103100 0.000000
-30.032500 0.000000
-29.962000 0.000000
-29.891400 0.000000
-29.820800 0.000000
-29.750300 0.000000
-29.679700 0.000000
-29.609200 0.000000
-29.538600 0.000000
-29.468000 0.000000
-29.397500 0.000000
-29.326900 0.000000
-29.256400 0.000000
-29.185800 0.000000
-29.115300 0.000000
-29.044700 0.000000
-28.974100 0.000000
-28.903600 0.000000
-28.833000 0.000000
-28.762500 0.000000
-28.691900 0.000000
-28.621400 0.000000
-28.550800 0.000000
-28.480200 0.000000
-28.409700 0.000000
-28.339100 0.000000
-28.268600 0.000000
-28.198000 0.000000
-28.127400 0.000000
-28.056900 0.000000
-27.986300 0.000000
-27.915800 0.000000
-27.845200 0.000000
-27.774700 0.000000
-27.704100 0.000000
-27.633500 0.000000
-27.563000 0.000000
-27.492400 0.000000
-27.421900 0.000000
-27.351300 0.000000
-27.280800 0.000000
-27.210200 0.000000
-27.139600 0.000000
-27.069100 0.000000
-26.998500 0.000000
-26.928000 0.000000
-26.857400 0.000000
-26.786800 0.000000
-26.716300 0.000000
-26.645700 0.000000
-26.575200 0.000000
-26.504600 0.000000
-26.434100 0.000000
-26.363500 0.000000
-26.292900 0.000000
-26.222400 0.000000
-26.151800 0.000000
-26.081300 0.000000
-26.010700 0.000000
-25.940200 0.000000
-25.869600 0.000000
-25.799000 0.000000
-25.728500 0.000000
-25.657900 0.000000
-25.587400 0.000000
-25.516800 0.000000
-25.446200 0.000000
-25.375700 0.000000
-25.305100 0.000000
-25.234600 0.000000
-25.164000 0.000000
-25.093500 0.000000
-25.022900 0.000000
-24.952300 0.000000
-24.881800 0.000000
-24.811200 0.000000
-24.740700 0.000000
-24.670100 0.000000
-24.599600 0.000000
-24.529000 0.000000
-24.458400 0.000000
-24.387900 0.000000
-24.317300 0.000000
-24.246800 0.000000
-24.176200 0.000000
-24.105600 0.000000
-24.035100 0.000000
-23.964500 0.000000
-23.894000 0.000000
-23.823400 0.000000
-23.752900 0.000000
-23.682300 0.000000
-23.611700 0.000000
-23.541200 0.000000
-23.470600 0.000000
-23.400100 0.000000
-23.329500 0.000000
-23.259000 0.000000
-23.188400 0.000000
-23.117800 0.000000
-23.047300 0.000000
-22.976700 0.000000
-22.906200 0.000000
-22.835600 0.000000
-22.765000 0.000000
-22.694500 0.000000
-22.623900 0.000000
-22.553400 0.000000
-22.482800 0.000000
-22.412300 0.000000
-22.341700 0.000000
-22.271100 0.000000
-22.200600 0.000000
-22.130000 0.000000
-22.059500 0.000000
-21.988900 0.000000
-21.918300 0.000000
-21.847800 0.000000
-21.777200 0.000000
-21.706700 0.000000
-21.636100 0.000000
-21.565600 0.000000
-21.495000 0.000000
-21.424400 0.000000
-21.353900 0.000000
-21.283300 0.000000
-21.212800 0.000000
-21.142200 0.000000
-21.071700 0.000000
-21.001100 0.000000
-20.930500 0.000000
-20.860000 0.000000
-20.789400 0.000000
-20.718900 0.000000
-20.648300 0.000000
-20.577700 0.000000
-20.507200 0.000000
-20.436600 0.000000
-20.366100 0.000000
-20.295500 0.000000
-20.225000 0.000000
-20.154400 0.000000
-20.083800 0.000000
-20.013300 0.000000
-19.942700 0.000000
-19.872200 0.000000
-19.801600 0.000000
-19.731100 0.000000
-19.660500 0.000000
-19.589900 0.000000
-19.519400 0.000000
-19.448800 0.000000
-19.378300 0.000000
-19.307700 0.000000
-19.237100 0.000000
-19.166600 0.000000
-19.096000 0.000000
-19.025500 0.000000
-18.954900 0.000000
-18.884400 0.000000
-18.813800 0.000000
-18.743200 0.000000
-18.672700 0.000000
-18.602100 0.000000
-18.531600 0.000000
-18.461000 0.000000
-18.390500 0.000000
-18.319900 0.000000
-18.249300 0.000000
-18.178800 0.000000
-18.108200 0.000000
-18.037700 0.000000
-17.967100 0.000000
-17.896500 0.000000
-17.826000 0.000000
-17.755400 0.000000
-17.684900 0.000000
-17.614300 0.000000
-17.543800 0.000000
-17.473200 0.000000
-17.402600 0.000000
-17.332100 0.000000
-17.261500 0.000000
-17.191000 0.000000
-17.120400 0.000000
-17.049900 0.000000
-16.979300 0.000000
-16.908700 0.000000
-16.838200 0.000000
-16.767600 0.000000
-16.697100 0.000000
-16.626500 0.000000
-16.555900 0.000000
-16.485400 0.000000
-16.414800 0.000000
-16.344300 0.000000
-16.273700 0.000000
-16.203200 0.000000
-16.132600 0.000000
-16.062000 0.000000
-15.991500 0.000000
-15.920900 0.000000
-15.850400 0.000000
-15.779800 0.000000
-15.709300 0.000000
-15.638700 0.000000
-15.568100 0.000000
-15.497600 0.000000
-15.427000 0.000000
-15.356500 0.000000
-15.285900 0.000000
-15.215300 0.000000
-15.144800 0.000000
-15.074200 0.000000
-15.003700 0.000000
-14.933100 0.000000
-14.862600 0.000000
-14.792000 0.000000
-14.721400 0.000000
-14.650900 0.000000
-14.580300 0.000000
-14.509800 0.000000
-14.439200 0.000000
-14.368600 0.000000
-14.298100 0.000000
-14.227500 0.000000
-14.157000 0.000000
-14.086400 0.000000
-14.015900 0.000000
-13.945300 0.000000
-13.874700 0.000000
-13.804200 0.000000
-13.733600 0.000000
-13.663100 0.000000
-13.592500 0.000000
-13.522000 0.000000
-13.451400 0.000000
-13.380800 0.000000
-13.310300 0.000000
-13.239700 0.000000
-13.169200 0.000000
-13.098600 0.000000
-13.028000 0.000000
-12.957500 0.000000
-12.886900 0.000000
-12.816400 0.000000
-12.745800 0.000000
-12.675300 0.000000
-12.604700 0.000000
-12.534100 0.000000
-12.463600 0.000000
-12.393000 0.000000
-12.322500 0.000000
-12.251900 0.000000
-12.181400 0.000000
-12.110800 0.000000
-12.040200 0.000000
-11.969700 0.000000
-11.899100 0.000000
-11.828600 0.000000
-11.758000 0.000000
-11.687400 0.000000
-11.616900 0.000000
-11.546300 0.000000
-11.475800 0.000000
-11.405200 0.000000
-11.334700 0.000000
-11.264100 0.000000
-11.193500 0.000000
-11.123000 0.000000
-11.052400 0.000000
-10.981900 0.000000
-10.911300 0.000000
-10.840800 0.000000
-10.770200 0.000000
-10.699600 0.000000
-10.629100 0.000000
-10.558500 0.000000
-10.488000 0.000000
-10.417400 0.000000
-10.346800 0.000000
-10.276300 0.000000
-10.205700 0.000000
-10.135200 0.000000
-10.064600 0.000000
-9.994100 0.000000
-9.923500 0.000000
-9.852900 0.000000
-9.782400 0.000000
-9.711800 0.000000
-9.641300 0.000000
-9.570700 0.000000
-9.500200 0.000000
-9.429600 0.000000
-9.359000 0.000000
-9.288500 0.000000
-9.217900 0.000000
-9.147400 0.000000
-9.076800 0.000000
-9.006200 0.000000
-8.935700 0.000000
-8.865100 0.000000
-8.794600 0.000000
-8.724000 0.000000
-8.653500 0.000000
-8.582900 0.000000
-8.512300 0.000000
-8.441800 0.000000
-8.371200 0.000000
-8.300700 0.000000
-8.230100 0.000000
-8.159600 0.000000
-8.089000 0.000000
-8.018400 0.000000
-7.947900 0.000000
-7.877300 0.000000
-7.806800 0.000000
-7.736200 0.000000
-7.665600 0.000000
-7.595100 0.000000
-7.524500 0.000000
-7.454000 0.000000
-7.383400 0.000000
-7.312900 0.000000
-7.242300 0.000000
-7.171700 0.000000
-7.101200 0.000000
-7.030600 0.000000
-6.960100 0.000000
-6.889500 0.000000
-6.818900 0.000000
-6.748400 0.000000
-6.677800 0.000000
-6.607300 0.000000
-6.536700 0.000000
-6.466200 0.000000
-6.395600 0.000000
-6.325000 0.000000
-6.254500 0.000000
-6.183900 0.000000
-6.113400 0.000000
-6.042800 0.000000
-5.972300 0.000000
-5.901700 0.000000
-5.831100 0.000000
-5.760600 0.000000
-5.690000 0.000000
-5.619500 0.000000
-5.548900 0.000000
-5.478300 0.000000
-5.407800 0.000000
-5.337200 0.000000
-5.266700 0.000000
-5.196100 0.000000
-5.125600 0.000000
-5.055000 0.000000
-4.984400 0.000000
-4.913900 0.000000
-4.843300 0.000000
-4.772800 0.000000
-4.702200 0.000000
-4.631700 0.000000
-4.561100 0.000000
-4.490500 0.000000
-4.420000 0.000000
-4.349400 0.000000
-4.278900 0.000000
-4.208300 0.000000
-4.137700 0.000000
-4.067200 0.000000
-3.996600 0.000000
-3.926100 0.000000
-3.855500 0.000000
-3.785000 0.000000
-3.714400 0.000000
-3.643800 0.000000
-3.573300 0.000000
-3.502700 0.000000
-3.432200 0.017900
-3.361600 0.044300
-3.291100 0.062300
-3.220500 0.076900
-3.149900 0.083400
-3.079400 0.094200
-3.008800 0.105500
-2.938300 0.111800
-2.867700 0.118100
-2.797100 0.124700
-2.726600 0.132700
-2.656000 0.140800
-2.585500 0.146200
-2.514900 0.150900
-2.444400 0.156400
-2.373800 0.161800
-2.303200 0.167800
-2.232700 0.174100
-2.162100 0.179800
-2.091600 0.184000
-2.021000 0.188000
-1.950500 0.192500
-1.879900 0.197300
-1.809300 0.202100
-1.738800 0.207000
-1.668200 0.212200
-1.597700 0.217000
-1.527100 0.220500
-1.456500 0.224300
-1.386000 0.228100
-1.315400 0.232000
-1.244900 0.236200
-1.174300 0.240500
-1.103800 0.244800
-1.033200 0.249200
-0.962600 0.253600
-0.892100 0.256900
-0.821500 0.260200
-0.751000 0.263600
-0.680400 0.267200
-0.609900 0.270800
-0.539300 0.274400
-0.468700 0.278200
-0.398200 0.282100
-0.327600 0.286000
-0.257100 0.290000
-0.186500 0.293600
-0.115900 0.296600
-0.045400 0.299800
0.025200 0.303000
0.095700 0.306300
0.166300 0.309700
0.236800 0.313200
0.307400 0.316600
0.378000 0.320100
0.448500 0.323700
0.519100 0.327400
0.589600 0.331200
0.660200 0.334600
0.730800 0.337700
0.801300 0.340900
0.871900 0.344200
0.942400 0.347700
1.013000 0.351300
1.083500 0.355200
1.154100 0.359800
1.224700 0.365000
1.295200 0.371100
1.365800 0.380200
1.436300 0.389800
1.506900 0.399500
1.577400 0.430900
1.648000 0.436900
1.718600 0.413300
1.789100 0.395900
1.859700 0.388900
1.930200 0.425200
2.000800 0.394600
2.071400 0.376900
2.141900 0.375300
2.212500 0.363000
2.283000 0.352500
2.353600 0.351000
2.424100 0.361300
2.494700 0.371900
2.565300 0.391500
2.635800 0.430500
2.706400 0.422000
2.776900 0.456300
2.847500 0.413600
2.918000 0.430500
2.988600 0.444700
3.059200 0.453700
3.129700 0.462600
3.200300 0.495100
3.270800 0.463200
3.341400 0.472500
3.412000 0.481800
3.482500 0.448200
3.553100 0.449800
3.623600 0.458200
3.694200 0.454700
3.764700 0.469300
3.835300 0.424400
3.905900 0.392500
3.976400 0.405500
4.047000 0.388800
4.117500 0.377600
4.188100 0.399000
4.258600 0.417100
4.329200 0.442300
4.399800 0.422700
4.470300 0.433100
4.540900 0.474800
4.611400 0.497600
4.682000 0.551400
4.752600 0.546300
4.823100 0.550600
4.893700 0.572000
4.964200 0.537500
5.034800 0.535700
5.105300 0.517700
5.175900 0.479600
5.246500 0.482500
5.317000 0.429200
5.387600 0.407600
5.458100 0.392800
5.528700 0.389100
5.599200 0.390100
5.669800 0.435400
5.740400 0.486700
5.810900 0.505700
5.881500 0.509400
5.952000 0.521600
6.022600 0.534600
6.093200 0.542900
6.163700 0.539200
6.234300 0.540000
6.304800 0.545700
6.375400 0.537700
6.445900 0.533600
6.516500 0.539800
6.587100 0.533100
6.657600 0.523800
6.728200 0.519600
6.798700 0.510500
6.869300 0.503200
6.939800 0.500100
7.010400 0.500400
7.081000 0.498600
7.151500 0.497500
7.222100 0.517000
7.292600 0.525000
7.363200 0.530700
7.433800 0.535700
7.504300 0.538600
7.574900 0.541500
7.645400 0.549400
7.716000 0.544700
7.786500 0.541800
7.857100 0.550400
7.927700 0.555700
7.998200 0.559500
8.068800 0.563700
8.139300 0.564400
8.209900 0.564300
8.280500 0.556900
8.351000 0.555700
8.421600 0.557300
8.492100 0.563400
8.562700 0.573800
8.633200 0.579500
8.703800 0.587200
8.774400 0.588400
8.844900 0.587600
8.915500 0.589200
8.986000 0.589200
9.056600 0.591800
9.127100 0.590400
9.197700 0.591500
9.268300 0.592700
9.338800 0.594400
9.409400 0.596400
9.479900 0.599100
9.550500 0.604100
9.621100 0.611000
9.691600 0.617100
9.762200 0.629000
9.832700 0.630200
9.903300 0.633500
9.973800 0.639700
10.044400 0.655800
10.115000 0.664600
10.185500 0.675000
10.256100 0.683900
10.326600 0.693500
10.397200 0.707200
10.467700 0.754000
10.538300 0.731500
10.608900 0.707900
10.679400 0.706300
10.750000 0.707400
10.820500 0.709100
10.891100 0.691200
10.961700 0.680300
11.032200 0.674100
11.102800 0.669000
11.173300 0.663400
11.243900 0.674900
11.314400 0.664700
11.385000 0.658700
11.455600 0.655600
11.526100 0.656800
11.596700 0.661900
11.667200 0.665100
11.737800 0.666000
11.808300 0.664900
11.878900 0.663500
11.949500 0.661100
12.020000 0.658500
12.090600 0.656300
12.161100 0.654300
12.231700 0.654600
12.302300 0.653100
12.372800 0.652400
12.443400 0.654000
12.513900 0.657700
12.584500 0.663100
12.655000 0.666100
12.725600 0.666100
12.796200 0.663300
12.866700 0.660200
12.937300 0.657000
13.007800 0.654300
13.078400 0.652000
13.148900 0.649900
13.219500 0.650400
13.290100 0.650400
13.360600 0.649900
13.431200 0.651500
13.501700 0.656800
13.572300 0.664100
13.642900 0.667800
13.713400 0.672500
13.784000 0.678100
13.854500 0.680900
13.925100 0.681200
13.995600 0.681700
14.066200 0.682600
14.136800 0.683600
14.207300 0.686800
14.277900 0.690200
14.348400 0.693600
14.419000 0.697700
14.489500 0.704400
14.560100 0.717500
14.630700 0.730000
14.701200 0.719200
14.771800 0.718900
14.842300 0.722300
14.912900 0.725800
14.983500 0.730300
15.054000 0.734400
15.124600 0.738200
15.195100 0.746100
15.265700 0.763000
15.336200 0.790000
15.406800 0.823300
15.477400 0.864900
15.547900 0.894200
15.618500 0.906300
15.689000 0.916900
15.759600 0.884900
15.830200 0.842400
15.900700 0.787900
15.971300 0.743900
16.041800 0.746000
16.112400 0.746400
16.182900 0.749400
16.253500 0.743200
16.324100 0.764200
16.394600 0.741500
16.465200 0.720000
16.535700 0.698600
16.606300 0.669600
16.676800 0.645200
16.747400 0.633100
16.818000 0.647000
16.888500 0.677500
16.959100 0.676000
17.029600 0.652200
17.100200 0.646300
17.170800 0.655200
17.241300 0.656000
17.311900 0.638200
17.382400 0.650300
17.453000 0.691200
17.523500 0.742800
17.594100 0.807400
17.664700 0.883800
17.735200 0.953000
17.805800 1.007100
17.876300 1.022300
17.946900 0.997600
18.017400 0.962700
18.088000 0.953800
18.158600 0.934200
18.229100 0.914700
18.299700 0.901900
18.370200 0.863400
18.440800 0.816800
18.511400 0.758200
18.581900 0.739000
18.652500 0.731100
18.723000 0.685700
18.793600 0.690500
18.864100 0.894700
18.934700 0.805000
19.005300 0.861000
19.075800 0.846500
19.146400 0.784600
19.216900 0.716700
19.287500 0.678800
19.358000 0.676800
19.428600 0.712600
19.499200 0.758500
19.569700 0.821100
19.640300 0.879900
19.710800 0.903300
19.781400 0.910100
19.852000 0.915700
19.922500 0.918700
19.993100 0.952500
20.063600 0.953000
20.134200 0.956000
20.204700 0.966000
20.275300 0.983200
20.345900 0.939100
20.416400 0.975600
20.487000 0.999100
20.557500 0.983800
20.628100 1.048800
20.698600 0.983900
20.769200 0.944900
20.839800 0.911600
20.910300 0.886600
20.980900 0.858200
21.051400 0.826000
21.122000 0.826100
21.192600 0.835100
21.263100 0.843000
21.333700 0.863400
21.404200 0.871600
21.474800 0.907300
21.545300 0.912300
21.615900 0.890000
21.686500 0.923100
21.757000 0.929500
21.827600 0.884800
21.898100 0.848400
21.968700 0.950300
22.039200 0.798100
22.109800 0.772600
22.180400 0.777300
22.250900 0.782500
22.321500 0.786200
22.392000 0.796400
22.462600 0.798400
22.533200 0.816400
22.603700 0.844800
22.674300 0.897500
22.744800 0.965200
22.815400 1.027900
22.885900 1.280900
22.956500 1.150000
23.027100 0.962900
23.097600 0.990700
23.168200 0.998900
23.238700 0.961300
23.309300 0.944700
23.379900 0.950700
23.450400 0.960400
23.521000 0.969900
23.591500 0.977000
23.662100 0.979800
23.732600 0.979900
23.803200 0.979700
23.873800 0.979900
23.944300 0.989000
24.014900 0.984500
24.085400 1.005500
24.156000 0.950000
24.226500 0.933000
24.297100 0.907300
24.367700 0.894500
24.438200 0.890000
24.508800 0.873700
24.579300 0.860500
24.649900 0.862600
24.720500 0.872600
24.791000 0.892600
24.861600 0.940000
24.932100 0.965000
25.002700 0.978200
25.073200 1.013800
25.143800 0.981100
25.214400 0.973100
25.284900 0.978400
25.355500 0.989300
25.426000 1.003700
25.496600 1.010300
25.567100 1.026900
25.637700 1.075000
25.708300 1.039600
25.778800 1.041500
25.849400 1.072800
25.919900 1.119500
25.990500 1.142500
26.061100 1.114500
