set title 'mp-1080122 - Density of States'
set xlabel 'Energy (eV)'
set ylabel 'DOS (states/eV)'
set grid
set xrange [-10:10]
set yrange [0:13.823]
set xzeroaxis lt -1
set terminal png size 800,600
set output 'mp-1080122_dos_gnuplot.png'
plot '-' using 1:2 with lines title 'DOS'
-15.990800 0.000000
-15.970800 0.000000
-15.950900 0.000000
-15.930900 0.000000
-15.911000 0.000000
-15.891000 0.000000
-15.871000 0.000000
-15.851100 0.000000
-15.831100 0.000000
-15.811100 0.000000
-15.791200 0.000000
-15.771200 0.000000
-15.751200 0.000000
-15.731300 0.000000
-15.711300 0.000000
-15.691300 0.000000
-15.671400 0.000000
-15.651400 0.000000
-15.631500 0.000000
-15.611500 0.000000
-15.591500 0.000000
-15.571600 0.000000
-15.551600 0.000000
-15.531600 0.000000
-15.511700 0.000000
-15.491700 0.000000
-15.471700 0.000000
-15.451800 0.000000
-15.431800 0.000000
-15.411900 0.000000
-15.391900 0.000000
-15.371900 0.000000
-15.352000 0.000000
-15.332000 0.000000
-15.312000 0.000000
-15.292100 0.000000
-15.272100 0.000000
-15.252100 0.000000
-15.232200 0.000000
-15.212200 0.000000
-15.192300 0.000000
-15.172300 0.000000
-15.152300 0.000000
-15.132400 0.000000
-15.112400 0.000000
-15.092400 0.000000
-15.072500 0.000000
-15.052500 0.000000
-15.032500 0.000000
-15.012600 0.000000
-14.992600 0.000000
-14.972700 0.000000
-14.952700 0.000000
-14.932700 0.000000
-14.912800 0.000000
-14.892800 0.000000
-14.872800 0.000000
-14.852900 0.000000
-14.832900 0.000000
-14.812900 0.000000
-14.793000 0.000000
-14.773000 0.000000
-14.753000 0.000000
-14.733100 0.000000
-14.713100 0.000000
-14.693200 0.000000
-14.673200 0.000000
-14.653200 0.000000
-14.633300 0.000000
-14.613300 0.000000
-14.593300 0.000000
-14.573400 0.000000
-14.553400 0.000000
-14.533400 0.000000
-14.513500 0.000000
-14.493500 0.000000
-14.473600 0.000000
-14.453600 0.000000
-14.433600 0.000000
-14.413700 0.000000
-14.393700 0.000000
-14.373700 0.000000
-14.353800 0.000000
-14.333800 0.000000
-14.313800 0.000000
-14.293900 0.000000
-14.273900 0.000000
-14.254000 0.000000
-14.234000 0.000000
-14.214000 0.000000
-14.194100 0.000000
-14.174100 0.003300
-14.154100 0.458700
-14.134200 1.049900
-14.114200 1.356000
-14.094200 1.681200
-14.074300 1.993000
-14.054300 2.336500
-14.034300 2.806400
-14.014400 3.424000
-13.994400 4.371500
-13.974500 4.614800
-13.954500 4.288500
-13.934500 4.313700
-13.914600 4.282600
-13.894600 4.275600
-13.874600 4.258100
-13.854700 4.180500
-13.834700 4.042800
-13.814700 3.787600
-13.794800 3.316700
-13.774800 3.192000
-13.754900 3.072900
-13.734900 2.952800
-13.714900 2.831800
-13.695000 2.700100
-13.675000 2.628000
-13.655000 2.579200
-13.635100 2.537700
-13.615100 2.501700
-13.595100 2.458900
-13.575200 2.417500
-13.555200 2.380400
-13.535300 2.352600
-13.515300 2.336700
-13.495300 2.316000
-13.475400 2.288500
-13.455400 2.272500
-13.435400 2.260000
-13.415500 2.249900
-13.395500 2.241700
-13.375500 2.234800
-13.355600 2.240600
-13.335600 2.253600
-13.315600 2.268700
-13.295700 2.285600
-13.275700 2.307700
-13.255800 2.341900
-13.235800 2.366600
-13.215800 2.386000
-13.195900 2.402200
-13.175900 2.417600
-13.155900 2.430300
-13.136000 2.482300
-13.116000 2.556500
-13.096000 2.646700
-13.076100 2.755200
-13.056100 2.926600
-13.036200 3.096500
-13.016200 3.211400
-12.996200 3.304500
-12.976300 3.701800
-12.956300 4.280100
-12.936300 4.964700
-12.916400 5.352500
-12.896400 5.761300
-12.876400 5.410800
-12.856500 4.078400
-12.836500 2.681300
-12.816600 1.398800
-12.796600 0.339100
-12.776600 0.000000
-12.756700 0.000000
-12.736700 0.000000
-12.716700 0.000000
-12.696800 0.000000
-12.676800 0.000000
-12.656800 0.000000
-12.636900 0.000000
-12.616900 0.000000
-12.597000 0.000000
-12.577000 0.000000
-12.557000 0.000000
-12.537100 0.000000
-12.517100 0.000000
-12.497100 0.000000
-12.477200 0.000000
-12.457200 0.000000
-12.437200 0.000000
-12.417300 0.000000
-12.397300 0.000000
-12.377300 0.000000
-12.357400 0.000000
-12.337400 0.000000
-12.317500 0.000000
-12.297500 2.107300
-12.277500 5.651900
-12.257600 4.503500
-12.237600 4.932200
-12.217600 5.480900
-12.197700 5.749500
-12.177700 5.807900
-12.157700 5.637600
-12.137800 5.807000
-12.117800 6.092000
-12.097900 6.433600
-12.077900 6.766700
-12.057900 7.272800
-12.038000 7.478400
-12.018000 8.148200
-11.998000 8.162500
-11.978100 8.613800
-11.958100 11.167800
-11.938100 12.346200
-11.918200 10.560100
-11.898200 9.248800
-11.878300 8.737000
-11.858300 7.971900
-11.838300 7.243100
-11.818400 6.526900
-11.798400 6.343100
-11.778400 5.724700
-11.758500 4.799300
-11.738500 3.913700
-11.718500 3.511700
-11.698600 4.089700
-11.678600 5.158700
-11.658600 7.269300
-11.638700 8.609300
-11.618700 7.758900
-11.598800 7.697800
-11.578800 7.240100
-11.558800 6.951000
-11.538900 6.795900
-11.518900 6.719000
-11.498900 6.909000
-11.479000 7.458200
-11.459000 7.809200
-11.439000 8.122900
-11.419100 8.450800
-11.399100 8.590000
-11.379200 10.813500
-11.359200 14.663100
-11.339200 17.596800
-11.319300 9.369400
-11.299300 5.575800
-11.279300 5.587000
-11.259400 5.964100
-11.239400 5.656300
-11.219400 3.628400
-11.199500 2.505100
-11.179500 1.783900
-11.159600 0.821500
-11.139600 0.010300
-11.119600 0.000000
-11.099700 0.000000
-11.079700 0.000000
-11.059700 0.000000
-11.039800 0.000000
-11.019800 0.000000
-10.999800 0.000000
-10.979900 0.000000
-10.959900 0.000000
-10.940000 0.000000
-10.920000 0.000000
-10.900000 0.000000
-10.880100 0.000000
-10.860100 0.000000
-10.840100 0.000000
-10.820200 0.000000
-10.800200 0.000000
-10.780200 0.000000
-10.760300 0.000000
-10.740300 0.000000
-10.720300 0.000000
-10.700400 0.000000
-10.680400 0.000000
-10.660500 0.000000
-10.640500 0.000000
-10.620500 0.000000
-10.600600 0.000000
-10.580600 0.000000
-10.560600 0.000000
-10.540700 0.000000
-10.520700 0.000000
-10.500700 0.000000
-10.480800 0.000000
-10.460800 0.000000
-10.440900 0.000000
-10.420900 0.000000
-10.400900 0.000000
-10.381000 0.000000
-10.361000 0.000000
-10.341000 0.000000
-10.321100 0.000000
-10.301100 0.000000
-10.281100 0.000000
-10.261200 0.000000
-10.241200 0.000000
-10.221300 0.000000
-10.201300 0.000000
-10.181300 0.000000
-10.161400 0.000000
-10.141400 0.000000
-10.121400 0.000000
-10.101500 0.000000
-10.081500 0.000000
-10.061500 0.000000
-10.041600 0.000000
-10.021600 0.000000
-10.001600 0.000000
-9.981700 0.000000
-9.961700 0.000000
-9.941800 0.000000
-9.921800 0.000000
-9.901800 0.000000
-9.881900 0.000000
-9.861900 0.000000
-9.841900 0.000000
-9.822000 0.000000
-9.802000 0.000000
-9.782000 0.000000
-9.762100 0.000000
-9.742100 0.000000
-9.722200 0.000000
-9.702200 0.000000
-9.682200 0.000000
-9.662300 0.000000
-9.642300 0.000000
-9.622300 0.000000
-9.602400 0.000000
-9.582400 0.000000
-9.562400 0.000000
-9.542500 0.000000
-9.522500 0.000000
-9.502600 0.000000
-9.482600 0.000000
-9.462600 0.000000
-9.442700 0.000000
-9.422700 0.000000
-9.402700 0.000000
-9.382800 0.000000
-9.362800 0.000000
-9.342800 0.000000
-9.322900 0.000000
-9.302900 0.000000
-9.282900 0.000000
-9.263000 0.000000
-9.243000 0.000000
-9.223100 0.000000
-9.203100 0.000000
-9.183100 0.000000
-9.163200 0.000000
-9.143200 0.000000
-9.123200 0.000000
-9.103300 0.000000
-9.083300 0.000000
-9.063300 0.000000
-9.043400 0.000000
-9.023400 0.000000
-9.003500 0.000000
-8.983500 0.000000
-8.963500 0.000000
-8.943600 0.000000
-8.923600 0.000000
-8.903600 0.000000
-8.883700 0.000000
-8.863700 0.000000
-8.843700 0.000000
-8.823800 0.000000
-8.803800 0.000000
-8.783900 0.000000
-8.763900 0.000000
-8.743900 0.000000
-8.724000 0.000000
-8.704000 0.000000
-8.684000 0.000000
-8.664100 0.000000
-8.644100 0.000000
-8.624100 0.000000
-8.604200 0.000000
-8.584200 0.000000
-8.564300 0.000000
-8.544300 0.000000
-8.524300 0.000000
-8.504400 0.000000
-8.484400 0.000000
-8.464400 0.000000
-8.444500 0.000000
-8.424500 0.000000
-8.404500 0.000000
-8.384600 0.000000
-8.364600 0.000000
-8.344600 0.000000
-8.324700 0.000000
-8.304700 0.000000
-8.284800 0.000000
-8.264800 0.000000
-8.244800 0.000000
-8.224900 0.000000
-8.204900 0.000000
-8.184900 0.000000
-8.165000 0.000000
-8.145000 0.000000
-8.125000 0.000000
-8.105100 0.000000
-8.085100 0.000000
-8.065200 0.000000
-8.045200 0.000000
-8.025200 0.000000
-8.005300 0.000000
-7.985300 0.000000
-7.965300 0.000000
-7.945400 0.000000
-7.925400 0.000000
-7.905400 0.000000
-7.885500 0.000000
-7.865500 0.000000
-7.845600 0.000000
-7.825600 0.000000
-7.805600 0.000000
-7.785700 0.000000
-7.765700 0.000000
-7.745700 0.000000
-7.725800 0.000000
-7.705800 0.000000
-7.685800 0.000000
-7.665900 0.000000
-7.645900 0.000000
-7.625900 0.000000
-7.606000 0.000000
-7.586000 0.000000
-7.566100 0.000000
-7.546100 0.000000
-7.526100 0.000000
-7.506200 0.000000
-7.486200 0.000000
-7.466200 0.000000
-7.446300 0.000000
-7.426300 0.000000
-7.406300 0.000000
-7.386400 0.000000
-7.366400 0.000000
-7.346500 0.000000
-7.326500 0.000000
-7.306500 0.000000
-7.286600 0.000000
-7.266600 0.000000
-7.246600 0.000000
-7.226700 0.000000
-7.206700 0.000000
-7.186700 0.000000
-7.166800 0.000000
-7.146800 0.000000
-7.126900 0.000000
-7.106900 0.000000
-7.086900 0.000000
-7.067000 0.000000
-7.047000 0.000000
-7.027000 0.000000
-7.007100 0.000000
-6.987100 0.000000
-6.967100 0.000000
-6.947200 0.000000
-6.927200 0.000000
-6.907300 0.000000
-6.887300 0.000000
-6.867300 0.000000
-6.847400 0.000000
-6.827400 0.000000
-6.807400 0.000000
-6.787500 0.000000
-6.767500 0.000000
-6.747500 0.000000
-6.727600 0.000000
-6.707600 0.000000
-6.687600 0.000000
-6.667700 0.000000
-6.647700 0.000000
-6.627800 0.000000
-6.607800 0.000000
-6.587800 0.000000
-6.567900 0.000000
-6.547900 0.000000
-6.527900 0.000000
-6.508000 0.000000
-6.488000 0.000000
-6.468000 0.000000
-6.448100 0.000000
-6.428100 0.000000
-6.408200 0.000000
-6.388200 0.000000
-6.368200 0.000000
-6.348300 0.000000
-6.328300 0.000000
-6.308300 0.000000
-6.288400 0.000000
-6.268400 0.000000
-6.248400 0.000000
-6.228500 0.000000
-6.208500 0.000000
-6.188600 0.000000
-6.168600 0.000000
-6.148600 0.000000
-6.128700 0.000000
-6.108700 0.000000
-6.088700 0.000000
-6.068800 0.000000
-6.048800 0.000000
-6.028800 0.000000
-6.008900 0.000000
-5.988900 0.000000
-5.968900 0.000000
-5.949000 0.000000
-5.929000 0.000000
-5.909100 0.000000
-5.889100 0.000000
-5.869100 0.155000
-5.849200 0.455100
-5.829200 0.890700
-5.809200 1.557600
-5.789300 2.264900
-5.769300 3.278400
-5.749300 3.758900
-5.729400 4.094600
-5.709400 4.228900
-5.689500 3.860800
-5.669500 3.272700
-5.649500 2.885000
-5.629600 2.585800
-5.609600 2.384800
-5.589600 2.344800
-5.569700 2.510000
-5.549700 3.438700
-5.529700 6.629900
-5.509800 7.076200
-5.489800 7.652400
-5.469900 7.996800
-5.449900 8.127000
-5.429900 8.002500
-5.410000 7.701500
-5.390000 7.529200
-5.370000 7.422800
-5.350100 7.266400
-5.330100 6.983300
-5.310100 6.679100
-5.290200 6.541400
-5.270200 6.200700
-5.250200 5.749100
-5.230300 5.513600
-5.210300 5.219300
-5.190400 5.012300
-5.170400 4.833000
-5.150400 4.594300
-5.130500 4.128300
-5.110500 4.146300
-5.090500 4.470700
-5.070600 5.090100
-5.050600 4.496900
-5.030600 4.196800
-5.010700 4.082000
-4.990700 4.229900
-4.970800 4.434000
-4.950800 4.398200
-4.930800 4.256000
-4.910900 3.935000
-4.890900 4.340100
-4.870900 4.142200
-4.851000 4.078700
-4.831000 4.269300
-4.811000 4.409600
-4.791100 3.565400
-4.771100 3.443700
-4.751200 3.375600
-4.731200 3.318100
-4.711200 3.244800
-4.691300 3.199600
-4.671300 3.716800
-4.651300 2.916800
-4.631400 2.891400
-4.611400 2.867400
-4.591400 2.767800
-4.571500 2.748100
-4.551500 2.240700
-4.531600 2.069200
-4.511600 1.842600
-4.491600 1.514600
-4.471700 1.222900
-4.451700 0.981700
-4.431700 0.809500
-4.411800 0.770500
-4.391800 0.555300
-4.371800 0.340000
-4.351900 0.403600
-4.331900 1.423700
-4.311900 1.327000
-4.292000 1.454600
-4.272000 1.594500
-4.252100 1.761200
-4.232100 1.870800
-4.212100 1.875200
-4.192200 1.851100
-4.172200 1.829000
-4.152200 1.810700
-4.132300 1.878100
-4.112300 1.890000
-4.092300 1.907100
-4.072400 1.756800
-4.052400 1.732300
-4.032500 1.717400
-4.012500 1.707500
-3.992500 1.702600
-3.972600 1.698500
-3.952600 1.695000
-3.932600 1.691500
-3.912700 1.688200
-3.892700 1.685700
-3.872700 1.685200
-3.852800 1.685600
-3.832800 1.694000
-3.812900 1.696100
-3.792900 1.699100
-3.772900 1.702600
-3.753000 1.707300
-3.733000 1.714300
-3.713000 1.731500
-3.693100 1.752600
-3.673100 1.756000
-3.653100 1.769200
-3.633200 1.788900
-3.613200 1.807500
-3.593200 1.812200
-3.573300 1.802300
-3.553300 1.787800
-3.533400 1.769900
-3.513400 1.798500
-3.493400 1.868200
-3.473500 1.926400
-3.453500 1.886200
-3.433500 1.742200
-3.413600 1.559900
-3.393600 1.437700
-3.373600 1.361700
-3.353700 1.285100
-3.333700 1.209300
-3.313800 1.139200
-3.293800 1.076600
-3.273800 1.016700
-3.253900 0.957700
-3.233900 0.899700
-3.213900 0.843500
-3.194000 0.792000
-3.174000 0.747200
-3.154000 0.705700
-3.134100 0.663300
-3.114100 0.616500
-3.094200 0.563300
-3.074200 0.508600
-3.054200 0.468300
-3.034300 0.443700
-3.014300 0.411700
-2.994300 0.356700
-2.974400 0.273600
-2.954400 0.180500
-2.934400 0.087900
-2.914500 0.026800
-2.894500 0.000900
-2.874600 0.000000
-2.854600 0.000000
-2.834600 0.000000
-2.814700 0.000000
-2.794700 0.000000
-2.774700 0.000000
-2.754800 0.000000
-2.734800 0.000000
-2.714800 0.000000
-2.694900 0.000000
-2.674900 0.000000
-2.654900 0.000000
-2.635000 0.000000
-2.615000 0.000000
-2.595100 0.000000
-2.575100 0.000000
-2.555100 0.000000
-2.535200 0.000000
-2.515200 0.000000
-2.495200 0.000000
-2.475300 0.000000
-2.455300 0.000000
-2.435300 0.000000
-2.415400 0.000000
-2.395400 0.000000
-2.375500 0.000000
-2.355500 0.000000
-2.335500 0.000000
-2.315600 0.000000
-2.295600 0.000000
-2.275600 0.000000
-2.255700 0.000000
-2.235700 0.000000
-2.215700 0.000000
-2.195800 0.000000
-2.175800 0.000000
-2.155900 0.000000
-2.135900 0.000000
-2.115900 0.000000
-2.096000 0.000000
-2.076000 0.000000
-2.056000 0.000000
-2.036100 0.000000
-2.016100 0.000000
-1.996100 0.000000
-1.976200 0.000000
-1.956200 0.000000
-1.936200 0.000000
-1.916300 0.000000
-1.896300 0.000000
-1.876400 0.000000
-1.856400 0.000000
-1.836400 0.000000
-1.816500 0.000000
-1.796500 0.000000
-1.776500 0.000000
-1.756600 0.000000
-1.736600 0.000000
-1.716600 0.000000
-1.696700 0.000000
-1.676700 0.000000
-1.656800 0.000000
-1.636800 0.000000
-1.616800 0.000000
-1.596900 0.000000
-1.576900 0.000000
-1.556900 0.000000
-1.537000 0.000000
-1.517000 0.000000
-1.497000 0.000000
-1.477100 0.000000
-1.457100 0.000000
-1.437200 0.000000
-1.417200 0.000000
-1.397200 0.000000
-1.377300 0.000000
-1.357300 0.000000
-1.337300 0.000000
-1.317400 0.000000
-1.297400 0.000000
-1.277400 0.000000
-1.257500 0.000000
-1.237500 0.000000
-1.217500 0.000000
-1.197600 0.000000
-1.177600 0.000000
-1.157700 0.000000
-1.137700 0.000000
-1.117700 0.000000
-1.097800 0.000000
-1.077800 0.000000
-1.057800 0.000000
-1.037900 0.000000
-1.017900 0.072600
-0.997900 0.114700
-0.978000 0.162500
-0.958000 0.215900
-0.938100 0.274900
-0.918100 0.283500
-0.898100 0.327500
-0.878200 0.371500
-0.858200 0.398500
-0.838200 0.422400
-0.818300 0.443200
-0.798300 0.461000
-0.778300 0.487400
-0.758400 0.516700
-0.738400 0.546700
-0.718500 0.578900
-0.698500 0.613700
-0.678500 0.651200
-0.658600 0.691200
-0.638600 0.717700
-0.618600 0.748500
-0.598700 0.777900
-0.578700 0.805800
-0.558700 0.891000
-0.538800 1.126500
-0.518800 1.509400
-0.498900 1.834700
-0.478900 2.007600
-0.458900 2.121500
-0.439000 2.303800
-0.419000 2.516300
-0.399000 2.745600
-0.379100 2.983200
-0.359100 3.228000
-0.339100 3.490500
-0.319200 3.834300
-0.299200 4.232400
-0.279200 4.697300
-0.259300 5.232100
-0.239300 5.783500
-0.219400 6.399700
-0.199400 7.380300
-0.179400 8.365200
-0.159500 9.508400
-0.139500 10.258100
-0.119500 11.400800
-0.099600 10.029200
-0.079600 9.320100
-0.059600 8.266600
-0.039700 6.764800
-0.019700 5.377100
0.000200 6.920900
0.020200 7.068100
0.040200 6.425300
0.060100 6.426000
0.080100 6.496800
0.100100 6.311300
0.120000 6.068300
0.140000 5.927200
0.160000 5.665000
0.179900 5.469000
0.199900 5.293800
0.219800 5.320400
0.239800 5.496300
0.259800 5.043500
0.279700 4.986000
0.299700 5.100900
0.319700 5.190300
0.339600 5.042100
0.359600 4.509900
0.379600 4.452200
0.399500 4.483600
0.419500 4.609500
0.439500 4.864900
0.459400 5.149000
0.479400 5.620500
0.499300 6.869300
0.519300 7.365400
0.539300 7.089900
0.559200 7.147600
0.579200 7.385800
0.599200 7.935100
0.619100 7.484200
0.639100 7.368500
0.659100 7.571900
0.679000 7.590200
0.699000 7.990100
0.718900 8.242400
0.738900 8.364500
0.758900 7.577300
0.778800 7.705100
0.798800 7.928400
0.818800 8.728600
0.838700 9.498300
0.858700 9.830500
0.878700 8.603200
0.898600 7.530000
0.918600 6.895200
0.938500 6.514000
0.958500 6.231400
0.978500 7.067600
0.998400 6.495600
1.018400 7.078500
1.038400 6.001400
1.058300 5.167200
1.078300 4.770300
1.098300 4.495700
1.118200 5.047700
1.138200 5.050500
1.158100 4.704700
1.178100 4.751700
1.198100 5.018800
1.218000 5.314200
1.238000 5.025700
1.258000 5.577900
1.277900 6.187900
1.297900 6.893000
1.317900 7.169400
1.337800 6.331400
1.357800 5.309400
1.377800 3.789900
1.397700 3.513200
1.417700 3.111400
1.437600 3.356200
1.457600 3.799200
1.477600 3.996800
1.497500 4.320200
1.517500 4.700900
1.537500 5.585600
1.557400 6.577000
1.577400 7.700300
1.597400 9.942100
1.617300 9.508800
1.637300 8.805900
1.657200 7.001600
1.677200 7.079000
1.697200 6.768800
1.717100 6.204900
1.737100 6.459800
1.757100 6.467500
1.777000 6.885200
1.797000 7.398500
1.817000 7.418000
1.836900 7.246600
1.856900 7.981400
1.876800 8.155800
1.896800 7.917900
1.916800 7.859300
1.936700 7.698100
1.956700 7.619400
1.976700 7.451600
1.996600 7.188600
2.016600 7.176800
2.036600 7.191800
2.056500 7.059900
2.076500 6.979100
2.096500 7.265000
2.116400 7.427800
2.136400 7.300700
2.156300 7.162600
2.176300 7.059300
2.196300 6.981500
2.216200 6.941400
2.236200 6.912200
2.256200 7.006900
2.276100 7.145400
2.296100 7.167500
2.316100 7.257700
2.336000 7.418500
2.356000 7.529100
2.375900 7.448200
2.395900 7.049900
2.415900 6.862000
2.435800 6.782200
2.455800 6.714500
2.475800 6.685500
2.495700 6.665900
2.515700 6.697700
2.535700 6.714000
2.555600 6.794800
2.575600 6.918200
2.595500 6.966900
2.615500 6.845700
2.635500 6.887300
2.655400 6.882300
2.675400 6.828700
2.695400 6.806600
2.715300 6.640300
2.735300 6.435100
2.755300 6.468700
2.775200 6.743500
2.795200 6.868600
2.815200 6.671400
2.835100 7.009000
2.855100 6.040700
2.875000 5.363900
2.895000 4.819500
2.915000 4.408700
2.934900 4.045300
2.954900 3.613500
2.974900 3.826100
2.994800 4.084300
3.014800 4.371900
3.034800 4.738500
3.054700 5.193800
3.074700 6.083700
3.094600 7.031900
3.114600 6.882000
3.134600 6.619000
3.154500 5.646500
3.174500 5.556000
3.194500 5.462000
3.214400 5.367200
3.234400 5.439300
3.254400 6.398200
3.274300 7.990100
3.294300 7.244700
3.314200 6.532900
3.334200 6.542900
3.354200 7.078000
3.374100 7.354200
3.394100 7.340100
3.414100 7.274700
3.434000 6.642500
3.454000 6.326100
3.474000 6.130500
3.493900 6.008400
3.513900 5.960900
3.533800 5.933400
3.553800 5.725300
3.573800 5.540200
3.593700 5.348300
3.613700 5.232200
3.633700 5.244800
3.653600 5.348900
3.673600 5.540800
3.693600 5.675200
3.713500 5.571400
3.733500 5.472500
3.753500 5.466600
3.773400 5.449400
3.793400 5.655800
3.813300 6.002200
3.833300 6.255900
3.853300 6.875200
3.873200 7.741800
3.893200 7.699300
3.913200 7.021700
3.933100 8.430800
3.953100 7.457100
3.973100 8.590000
3.993000 8.419100
4.013000 8.045800
4.032900 9.815700
4.052900 11.979500
4.072900 11.135200
4.092800 12.295000
4.112800 12.566800
4.132800 11.345800
4.152700 11.906000
4.172700 10.238700
4.192700 9.474500
4.212600 9.595900
4.232600 10.775900
4.252500 10.745600
4.272500 9.489100
4.292500 8.532500
4.312400 8.562300
4.332400 10.493100
4.352400 7.532400
4.372300 7.427900
4.392300 7.402200
4.412300 7.143600
4.432200 6.457600
4.452200 5.464200
4.472200 4.613400
4.492100 4.356500
4.512100 4.605800
4.532000 5.080900
4.552000 5.430800
4.572000 5.615600
4.591900 5.339400
4.611900 5.168300
