set title 'mp-1184679 - Density of States'
set xlabel 'Energy (eV)'
set ylabel 'DOS (states/eV)'
set grid
set xrange [-10:10]
set yrange [0:45.094]
set xzeroaxis lt -1
set terminal png size 800,600
set output 'mp-1184679_dos_gnuplot.png'
plot '-' using 1:2 with lines title 'DOS'
-9.097500 0.000000
-9.079200 0.000000
-9.060800 0.000000
-9.042500 0.000000
-9.024100 0.000000
-9.005800 0.000000
-8.987400 0.000000
-8.969100 0.000000
-8.950700 0.000000
-8.932400 0.000000
-8.914000 0.000000
-8.895700 0.000000
-8.877300 0.000000
-8.859000 0.000000
-8.840600 0.000000
-8.822300 0.000000
-8.803900 0.000000
-8.785600 0.000000
-8.767200 0.000000
-8.748900 0.000000
-8.730500 0.000000
-8.712200 0.000000
-8.693800 0.000000
-8.675500 0.000000
-8.657100 0.000000
-8.638800 0.000000
-8.620400 0.000000
-8.602100 0.000000
-8.583700 0.000000
-8.565400 0.000000
-8.547000 0.000000
-8.528700 0.000000
-8.510300 0.000000
-8.492000 0.000000
-8.473600 0.000000
-8.455300 0.000000
-8.436900 0.000000
-8.418600 0.000000
-8.400200 0.000000
-8.381900 0.000000
-8.363500 0.000000
-8.345200 0.000000
-8.326800 0.000000
-8.308500 0.000000
-8.290100 0.000000
-8.271800 0.000000
-8.253400 0.000000
-8.235100 0.000000
-8.216700 0.000000
-8.198400 0.000000
-8.180000 0.000000
-8.161700 0.000000
-8.143300 0.000000
-8.125000 0.000000
-8.106600 0.000000
-8.088300 0.000000
-8.069900 0.000000
-8.051600 0.000000
-8.033200 0.000000
-8.014900 0.000000
-7.996500 0.000000
-7.978200 0.000000
-7.959800 0.000000
-7.941500 0.000000
-7.923100 0.000000
-7.904800 0.000000
-7.886400 0.000000
-7.868100 0.000000
-7.849700 0.000000
-7.831400 0.000000
-7.813100 0.000000
-7.794700 0.000000
-7.776400 0.000000
-7.758000 0.000000
-7.739700 0.000000
-7.721300 0.000000
-7.703000 0.000000
-7.684600 0.000000
-7.666300 0.000000
-7.647900 0.000000
-7.629600 0.000000
-7.611200 0.000000
-7.592900 0.000000
-7.574500 0.000000
-7.556200 0.000000
-7.537800 0.000200
-7.519500 0.001000
-7.501100 0.003900
-7.482800 0.011900
-7.464400 0.028700
-7.446100 0.056600
-7.427700 0.093100
-7.409400 0.133700
-7.391000 0.180000
-7.372700 0.242900
-7.354300 0.325000
-7.336000 0.397600
-7.317600 0.413300
-7.299300 0.360100
-7.280900 0.288700
-7.262600 0.271700
-7.244200 0.340200
-7.225900 0.461200
-7.207500 0.574900
-7.189200 0.651000
-7.170800 0.704500
-7.152500 0.749100
-7.134100 0.755900
-7.115800 0.685300
-7.097400 0.550100
-7.079100 0.416500
-7.060700 0.345300
-7.042400 0.353000
-7.024000 0.432600
-7.005700 0.587100
-6.987300 0.814800
-6.969000 1.057600
-6.950600 1.204500
-6.932300 1.178800
-6.913900 1.019000
-6.895600 0.846500
-6.877200 0.758200
-6.858900 0.763800
-6.840500 0.810200
-6.822200 0.841800
-6.803800 0.838900
-6.785500 0.811500
-6.767100 0.770400
-6.748800 0.726800
-6.730400 0.714200
-6.712100 0.770300
-6.693700 0.891100
-6.675400 1.037700
-6.657000 1.192300
-6.638700 1.365400
-6.620300 1.538400
-6.602000 1.636800
-6.583600 1.586900
-6.565300 1.396000
-6.546900 1.169400
-6.528600 1.033600
-6.510200 1.030300
-6.491900 1.089400
-6.473500 1.111100
-6.455200 1.068000
-6.436800 1.018900
-6.418500 1.031000
-6.400100 1.109600
-6.381800 1.214400
-6.363400 1.323600
-6.345100 1.447400
-6.326700 1.594400
-6.308400 1.768600
-6.290000 1.986100
-6.271700 2.244500
-6.253300 2.468700
-6.235000 2.532700
-6.216600 2.366700
-6.198300 2.034000
-6.179900 1.683000
-6.161600 1.437300
-6.143200 1.327800
-6.124900 1.302600
-6.106500 1.300500
-6.088200 1.325400
-6.069800 1.430400
-6.051500 1.629100
-6.033100 1.846200
-6.014800 1.970200
-5.996400 1.953700
-5.978100 1.857100
-5.959700 1.777000
-5.941400 1.742400
-5.923000 1.696200
-5.904700 1.564700
-5.886300 1.328400
-5.868000 1.042900
-5.849600 0.807800
-5.831300 0.695300
-5.812900 0.691100
-5.794600 0.718300
-5.776200 0.725100
-5.757900 0.725500
-5.739500 0.752300
-5.721200 0.805700
-5.702800 0.872100
-5.684500 0.963300
-5.666100 1.101300
-5.647800 1.269100
-5.629400 1.402100
-5.611100 1.436500
-5.592700 1.382500
-5.574400 1.354800
-5.556000 1.487600
-5.537700 1.783500
-5.519300 2.072900
-5.501000 2.176200
-5.482600 2.094100
-5.464300 1.991700
-5.445900 2.013800
-5.427600 2.167100
-5.409200 2.361500
-5.390900 2.505400
-5.372500 2.574600
-5.354200 2.622200
-5.335800 2.704800
-5.317500 2.816400
-5.299100 2.941700
-5.280800 3.122100
-5.262400 3.377000
-5.244100 3.590400
-5.225700 3.569900
-5.207400 3.227900
-5.189000 2.669800
-5.170700 2.115200
-5.152300 1.743000
-5.134000 1.596800
-5.115600 1.619700
-5.097300 1.755800
-5.078900 1.999500
-5.060600 2.356600
-5.042200 2.787800
-5.023900 3.198000
-5.005500 3.466000
-4.987200 3.490300
-4.968800 3.242000
-4.950500 2.784300
-4.932100 2.227500
-4.913800 1.688300
-4.895400 1.293700
-4.877100 1.148100
-4.858700 1.249800
-4.840400 1.486100
-4.822000 1.752500
-4.803700 2.045500
-4.785300 2.391000
-4.767000 2.722300
-4.748600 2.903900
-4.730300 2.877800
-4.711900 2.726400
-4.693600 2.580000
-4.675200 2.507900
-4.656900 2.511100
-4.638500 2.561000
-4.620200 2.608300
-4.601800 2.617200
-4.583500 2.640900
-4.565100 2.789100
-4.546800 3.058000
-4.528400 3.265800
-4.510100 3.226700
-4.491700 2.952700
-4.473400 2.643200
-4.455000 2.493700
-4.436700 2.534700
-4.418300 2.658800
-4.400000 2.776100
-4.381600 2.894400
-4.363300 3.052900
-4.344900 3.234000
-4.326600 3.353700
-4.308200 3.305900
-4.289900 3.031300
-4.271500 2.593300
-4.253200 2.186000
-4.234800 2.011000
-4.216500 2.123700
-4.198100 2.398000
-4.179800 2.633100
-4.161400 2.690600
-4.143100 2.552200
-4.124700 2.281400
-4.106400 1.948000
-4.088000 1.584600
-4.069700 1.213100
-4.051300 0.898300
-4.033000 0.736000
-4.014600 0.767700
-3.996300 0.922900
-3.977900 1.068300
-3.959600 1.113000
-3.941200 1.054200
-3.922900 0.925000
-3.904500 0.743900
-3.886200 0.537000
-3.867800 0.368900
-3.849500 0.309500
-3.831100 0.370400
-3.812800 0.485600
-3.794400 0.559700
-3.776100 0.543200
-3.757700 0.460000
-3.739400 0.363800
-3.721000 0.286700
-3.702700 0.234400
-3.684300 0.199400
-3.666000 0.167000
-3.647600 0.125600
-3.629300 0.078600
-3.610900 0.039200
-3.592600 0.015300
-3.574200 0.004600
-3.555900 0.001100
-3.537500 0.000200
-3.519200 0.000000
-3.500800 0.000000
-3.482500 0.000000
-3.464100 0.000000
-3.445800 0.000000
-3.427400 0.000000
-3.409100 0.000000
-3.390700 0.000000
-3.372400 0.000000
-3.354000 0.000000
-3.335700 0.000000
-3.317300 0.000000
-3.299000 0.000000
-3.280600 0.000000
-3.262300 0.000000
-3.243900 0.000000
-3.225600 0.000000
-3.207200 0.000000
-3.188900 0.000000
-3.170500 0.000000
-3.152200 0.000000
-3.133800 0.000000
-3.115500 0.000000
-3.097100 0.000000
-3.078800 0.000000
-3.060400 0.000000
-3.042100 0.000000
-3.023700 0.000000
-3.005400 0.000000
-2.987000 0.000000
-2.968700 0.000000
-2.950300 0.000000
-2.932000 0.000000
-2.913600 0.000000
-2.895300 0.000000
-2.876900 0.000000
-2.858600 0.000000
-2.840200 0.000000
-2.821900 0.000000
-2.803500 0.000000
-2.785200 0.000000
-2.766800 0.000000
-2.748500 0.000000
-2.730100 0.000000
-2.711800 0.000000
-2.693400 0.000000
-2.675100 0.000000
-2.656700 0.000000
-2.638400 0.000000
-2.620100 0.000000
-2.601700 0.000000
-2.583400 0.000000
-2.565000 0.000000
-2.546700 0.000000
-2.528300 0.000000
-2.510000 0.000000
-2.491600 0.000000
-2.473300 0.000000
-2.454900 0.000000
-2.436600 0.000000
-2.418200 0.000000
-2.399900 0.000000
-2.381500 0.000000
-2.363200 0.000000
-2.344800 0.000000
-2.326500 0.000000
-2.308100 0.000000
-2.289800 0.000000
-2.271400 0.000000
-2.253100 0.000000
-2.234700 0.000000
-2.216400 0.000000
-2.198000 0.000000
-2.179700 0.000000
-2.161300 0.000000
-2.143000 0.000000
-2.124600 0.000000
-2.106300 0.000000
-2.087900 0.000000
-2.069600 0.000000
-2.051200 0.000000
-2.032900 0.000000
-2.014500 0.000000
-1.996200 0.000000
-1.977800 0.000000
-1.959500 0.000000
-1.941100 0.000000
-1.922800 0.000000
-1.904400 0.000000
-1.886100 0.000000
-1.867700 0.000000
-1.849400 0.000000
-1.831000 0.000000
-1.812700 0.000000
-1.794300 0.000000
-1.776000 0.000000
-1.757600 0.000000
-1.739300 0.000000
-1.720900 0.000000
-1.702600 0.000000
-1.684200 0.000000
-1.665900 0.000000
-1.647500 0.000000
-1.629200 0.000000
-1.610800 0.000000
-1.592500 0.000000
-1.574100 0.000000
-1.555800 0.000000
-1.537400 0.000000
-1.519100 0.000000
-1.500700 0.000000
-1.482400 0.000000
-1.464000 0.000000
-1.445700 0.000000
-1.427300 0.000000
-1.409000 0.000100
-1.390600 0.000800
-1.372300 0.006100
-1.353900 0.034900
-1.335600 0.158000
-1.317200 0.574200
-1.298900 1.691100
-1.280500 4.083200
-1.262200 8.201200
-1.243800 13.948000
-1.225500 20.541200
-1.207100 26.936400
-1.188800 32.441400
-1.170400 36.820200
-1.152100 39.829900
-1.133700 40.994800
-1.115400 40.080600
-1.097000 37.600100
-1.078700 34.627000
-1.060300 32.187200
-1.042000 30.765000
-1.023600 30.021200
-1.005300 28.849000
-0.986900 26.037500
-0.968600 21.248300
-0.950200 15.386300
-0.931900 9.905300
-0.913500 5.782700
-0.895200 3.152900
-0.876800 1.643300
-0.858500 0.817600
-0.840100 0.376200
-0.821800 0.152400
-0.803400 0.051900
-0.785100 0.014400
-0.766700 0.003200
-0.748400 0.000500
-0.730000 0.000100
-0.711700 0.000000
-0.693300 0.000000
-0.675000 0.000000
-0.656600 0.000000
-0.638300 0.000000
-0.619900 0.000000
-0.601600 0.000000
-0.583200 0.000000
-0.564900 0.000000
-0.546500 0.000000
-0.528200 0.000000
-0.509800 0.000000
-0.491500 0.000000
-0.473100 0.000000
-0.454800 0.000000
-0.436400 0.000000
-0.418100 0.000000
-0.399700 0.000000
-0.381400 0.000000
-0.363000 0.000000
-0.344700 0.000000
-0.326300 0.000000
-0.308000 0.000000
-0.289600 0.000100
-0.271300 0.000700
-0.252900 0.003500
-0.234600 0.013300
-0.216200 0.039500
-0.197900 0.092300
-0.179500 0.171500
-0.161200 0.257500
-0.142800 0.320800
-0.124500 0.347900
-0.106100 0.359900
-0.087800 0.398800
-0.069400 0.485900
-0.051100 0.597700
-0.032700 0.692600
-0.014400 0.763300
0.004000 0.859300
0.022300 1.043700
0.040700 1.312500
0.059000 1.572000
0.077400 1.716700
0.095700 1.706900
0.114100 1.564000
0.132400 1.337700
0.150800 1.101800
0.169100 0.950700
0.187500 0.969900
0.205800 1.184600
0.224200 1.533200
0.242500 1.917200
0.260900 2.280900
0.279200 2.607400
0.297600 2.837400
0.315900 2.863100
0.334300 2.633300
0.352600 2.220200
0.371000 1.765100
0.389300 1.393300
0.407700 1.171200
0.426000 1.090700
0.444400 1.083200
0.462700 1.086700
0.481100 1.110500
0.499400 1.214600
0.517800 1.430800
0.536100 1.725700
0.554500 2.019300
0.572800 2.205300
0.591200 2.198600
0.609500 2.025500
0.627900 1.831400
0.646200 1.721400
0.664600 1.631600
0.682900 1.442700
0.701300 1.181400
0.719600 1.013000
0.738000 1.042700
0.756300 1.204900
0.774700 1.358100
0.793000 1.431900
0.811400 1.441900
0.829700 1.405400
0.848100 1.305300
0.866400 1.146400
0.884800 1.010800
0.903100 1.019900
0.921500 1.213000
0.939800 1.470300
0.958200 1.596300
0.976500 1.497800
0.994900 1.247700
1.013200 0.970700
1.031600 0.724100
1.049900 0.514900
1.068300 0.372500
1.086600 0.357200
1.105000 0.507700
1.123300 0.785400
1.141700 1.065200
1.160000 1.214300
1.178400 1.207800
1.196700 1.133000
1.215100 1.065600
1.233400 0.989900
1.251800 0.863800
1.270100 0.716000
1.288500 0.640600
1.306800 0.703800
1.325200 0.868100
1.343500 1.007500
1.361900 1.010000
1.380200 0.883600
1.398600 0.757800
1.416900 0.771600
1.435300 0.954500
1.453600 1.200000
1.472000 1.349500
1.490300 1.320700
1.508700 1.152800
1.527000 0.933500
1.545400 0.728200
1.563700 0.591600
1.582100 0.583200
1.600400 0.723900
1.618800 0.962500
1.637100 1.203200
1.655500 1.361300
1.673800 1.411600
1.692200 1.407700
1.710500 1.422500
1.728900 1.448300
1.747200 1.402400
1.765600 1.259400
1.783900 1.127000
1.802300 1.161700
1.820600 1.433200
1.839000 1.859800
1.857300 2.249200
1.875700 2.429700
1.894000 2.380900
1.912400 2.232700
1.930700 2.117300
1.949100 2.036200
1.967400 1.891900
1.985800 1.640500
2.004100 1.359900
2.022500 1.152500
2.040800 1.042800
2.059200 1.017100
2.077500 1.105600
2.095900 1.352900
2.114200 1.728200
2.132600 2.117400
2.150900 2.385000
2.169300 2.429000
2.187600 2.246200
2.206000 1.976600
2.224300 1.813500
2.242700 1.841000
2.261000 1.999800
2.279400 2.197000
2.297700 2.388200
2.316100 2.563500
2.334400 2.692700
2.352800 2.706400
2.371100 2.572400
2.389500 2.404100
2.407800 2.412900
2.426200 2.689100
2.444500 3.068200
2.462900 3.278200
2.481200 3.228600
2.499600 3.101300
2.517900 3.123200
2.536300 3.312600
2.554600 3.501400
2.572900 3.540900
2.591300 3.404100
2.609600 3.132100
2.628000 2.798900
2.646300 2.546200
2.664700 2.538100
2.683000 2.787800
2.701400 3.071000
2.719700 3.103300
2.738100 2.813700
2.756400 2.391200
2.774800 2.072600
2.793100 1.947600
2.811500 1.949400
2.829800 1.964800
2.848200 1.957100
2.866500 2.001400
2.884900 2.194100
2.903200 2.552200
2.921600 3.019400
2.939900 3.503400
2.958300 3.874500
2.976600 3.998600
2.995000 3.821900
3.013300 3.415700
3.031700 2.944500
3.050000 2.571500
3.068400 2.338500
3.086700 2.157800
3.105100 1.964400
3.123400 1.833200
3.141800 1.900600
3.160100 2.207900
3.178500 2.640200
3.196800 2.995300
3.215200 3.113100
3.233500 2.956000
3.251900 2.608400
3.270200 2.241400
3.288600 2.029500
3.306900 2.021400
3.325300 2.106900
3.343600 2.140500
3.362000 2.069700
3.380300 1.924400
3.398700 1.724800
3.417000 1.465900
3.435400 1.195600
3.453700 1.037300
3.472100 1.099100
3.490400 1.374100
3.508800 1.731700
3.527100 2.001400
3.545500 2.088800
3.563800 2.031200
3.582200 1.943400
3.600500 1.905400
3.618900 1.891800
3.637200 1.817300
3.655600 1.663900
3.673900 1.538000
3.692300 1.568300
3.710600 1.766500
3.729000 2.022100
3.747300 2.219000
3.765700 2.329000
3.784000 2.397500
3.802400 2.478400
3.820700 2.591700
3.839100 2.713200
3.857400 2.787500
3.875800 2.765900
3.894100 2.628100
3.912500 2.367700
3.930800 2.008500
3.949200 1.656700
3.967500 1.467800
3.985900 1.514000
4.004200 1.709900
4.022600 1.885000
4.040900 1.922100
4.059300 1.847100
4.077600 1.803400
4.096000 1.916500
4.114300 2.153600
4.132700 2.328400
4.151000 2.282700
4.169400 2.062000
4.187700 1.881900
4.206100 1.926300
4.224400 2.214700
4.242800 2.648900
4.261100 3.121600
4.279500 3.548600
4.297800 3.847600
4.316200 3.955300
4.334500 3.866900
4.352900 3.636900
4.371200 3.346700
4.389600 3.054100
4.407900 2.757600
4.426300 2.440900
4.444600 2.155100
4.463000 2.002100
4.481300 2.008200
4.499700 2.055200
4.518000 1.992700
4.536400 1.805400
4.554700 1.618500
4.573100 1.542900
4.591400 1.563500
4.609800 1.579400
4.628100 1.505800
4.646500 1.322400
4.664800 1.077100
4.683200 0.887300
4.701500 0.906300
4.719900 1.219200
4.738200 1.749400
4.756600 2.289600
4.774900 2.650500
4.793300 2.776700
4.811600 2.732400
4.830000 2.617500
4.848300 2.511500
4.866700 2.448500
4.885000 2.413000
4.903400 2.382100
4.921700 2.377800
4.940100 2.440700
4.958400 2.540000
4.976800 2.557800
4.995100 2.406000
5.013500 2.135200
5.031800 1.885100
5.050200 1.758200
5.068500 1.792700
5.086900 2.008800
5.105200 2.364200
5.123600 2.665300
5.141900 2.663600
5.160300 2.309300
5.178600 1.833100
5.197000 1.533900
5.215300 1.536600
5.233700 1.754900
5.252000 2.015300
5.270400 2.187200
5.288700 2.241000
5.307100 2.227200
5.325400 2.207700
5.343800 2.209200
5.362100 2.234900
5.380500 2.296100
5.398800 2.396300
5.417200 2.471900
5.435500 2.400100
5.453900 2.124400
5.472200 1.754500
5.490600 1.483100
5.508900 1.407100
5.527300 1.460500
5.545600 1.510000
5.564000 1.494600
5.582300 1.473900
5.600700 1.545500
5.619000 1.727400
5.637400 1.921400
5.655700 1.981400
5.674100 1.831500
5.692400 1.544200
5.710800 1.290900
5.729100 1.199800
5.747500 1.286000
5.765800 1.513400
5.784200 1.860700
5.802500 2.293100
5.820900 2.723800
5.839200 3.056600
5.857600 3.240800
5.875900 3.253900
5.894300 3.071700
5.912600 2.715200
5.931000 2.307700
5.949300 2.021500
5.967700 1.958100
5.986000 2.116000
6.004400 2.441500
6.022700 2.833900
6.041100 3.129200
6.059400 3.182900
6.077800 2.997000
6.096100 2.726200
6.114500 2.554500
6.132800 2.576800
6.151200 2.767200
6.169500 3.023400
6.187900 3.233200
6.206200 3.315300
6.224600 3.226700
6.242900 2.971200
6.261300 2.601900
6.279600 2.190700
6.298000 1.802100
6.316300 1.503600
6.334700 1.374000
6.353000 1.460400
6.371400 1.717000
6.389700 2.002600
6.408100 2.168200
6.426400 2.175200
6.444800 2.136700
6.463100 2.229200
6.481500 2.531100
6.499800 2.922500
6.518200 3.157200
6.536500 3.081000
6.554900 2.798100
6.573200 2.578900
6.591600 2.591400
6.609900 2.769400
6.628300 2.949700
6.646600 3.065500
6.665000 3.165200
6.683300 3.289100
6.701700 3.395100
6.720000 3.417100
6.738400 3.346400
6.756700 3.228900
6.775100 3.128700
6.793400 3.104800
6.811800 3.172100
6.830100 3.265600
6.848500 3.270800
6.866800 3.122800
6.885200 2.885700
6.903500 2.721000
6.921900 2.753700
6.940200 2.962300
6.958600 3.198100
6.976900 3.304000
6.995300 3.220900
7.013600 3.016200
7.032000 2.817500
7.050300 2.716700
7.068700 2.753500
7.087000 2.956300
7.105400 3.311200
7.123700 3.696300
7.142100 3.936500
7.160400 3.956100
7.178800 3.830000
7.197100 3.672200
7.215500 3.525400
7.233800 3.372300
7.252200 3.190900
7.270500 2.973500
7.288900 2.742100
7.307200 2.553500
7.325600 2.439200
7.343900 2.349600
7.362300 2.230600
7.380600 2.143700
7.399000 2.225100
7.417300 2.532900
7.435700 3.000200
7.454000 3.508000
7.472400 3.942000
7.490700 4.225900
7.509100 4.367000
7.527400 4.447700
7.545800 4.533500
7.564100 4.589700
7.582500 4.496800
7.600800 4.174700
7.619200 3.727900
7.637500 3.424900
7.655900 3.451000
7.674200 3.693100
7.692600 3.836600
7.710900 3.685300
7.729200 3.349700
7.747600 3.106800
7.765900 3.110400
7.784300 3.273800
7.802600 3.430000
7.821000 3.551800
7.839300 3.750400
7.857700 4.063500
7.876000 4.329100
7.894400 4.329300
7.912700 4.022000
7.931100 3.557500
7.949400 3.094000
7.967800 2.697700
7.986100 2.397300
8.004500 2.210300
8.022800 2.115000
8.041200 2.077400
8.059500 2.101900
8.077900 2.210100
8.096200 2.387100
8.114600 2.572900
8.132900 2.700800
8.151300 2.743000
8.169600 2.734400
8.188000 2.763200
8.206300 2.920600
8.224700 3.198100
8.243000 3.418000
8.261400 3.339000
8.279700 2.876800
8.298100 2.199800
8.316400 1.607800
8.334800 1.335500
8.353100 1.435900
8.371500 1.789400
8.389800 2.197800
8.408200 2.482900
8.426500 2.543500
8.444900 2.387900
8.463200 2.143800
8.481600 2.009600
8.499900 2.136600
8.518300 2.491500
8.536600 2.827100
8.555000 2.853100
8.573300 2.485900
8.591700 1.927100
8.610000 1.488400
8.628400 1.341900
8.646700 1.409500
8.665100 1.460600
8.683400 1.327600
8.701800 1.053300
8.720100 0.843400
8.738500 0.888600
8.756800 1.218900
8.775200 1.675200
8.793500 1.997200
8.811900 1.989000
8.830200 1.655000
8.848600 1.181000
8.866900 0.778400
8.885300 0.557700
8.903600 0.531100
8.922000 0.674100
8.940300 0.932800
8.958700 1.191300
8.977000 1.304900
8.995400 1.210700
9.013700 0.976800
9.032100 0.721400
9.050400 0.521100
9.068800 0.405300
9.087100 0.375900
9.105500 0.397800
9.123800 0.414400
9.142200 0.405700
9.160500 0.410200
9.178900 0.468900
9.197200 0.571900
9.215600 0.681600
9.233900 0.787600
9.252300 0.898400
9.270600 0.985800
9.289000 0.991500
9.307300 0.903800
9.325700 0.776300
9.344000 0.650900
9.362400 0.516200
9.380700 0.359200
9.399100 0.210300
9.417400 0.114200
9.435800 0.091600
9.454100 0.143200
9.472500 0.266200
9.490800 0.448100
9.509200 0.648800
9.527500 0.810200
9.545900 0.897700
9.564200 0.926800
9.582600 0.936900
9.600900 0.943900
9.619300 0.936000
9.637600 0.917600
9.656000 0.935200
9.674300 1.041800
9.692700 1.240400
9.711000 1.477000
9.729400 1.683900
9.747700 1.819200
9.766100 1.879700
9.784400 1.904500
9.802800 1.937000
9.821100 1.956300
9.839500 1.879100
9.857800 1.671300
9.876200 1.447700
9.894500 1.421700
9.912900 1.717000
9.931200 2.222200
9.949600 2.667100
9.967900 2.856400
9.986300 2.792500
10.004600 2.590600
10.023000 2.356400
10.041300 2.161500
10.059700 2.078000
10.078000 2.181300
10.096400 2.471600
10.114700 2.794900
10.133100 2.924800
10.151400 2.770700
10.169800 2.450500
10.188100 2.150700
10.206500 1.978300
10.224800 1.956200
10.243200 2.085800
10.261500 2.357600
10.279900 2.697100
10.298200 2.936800
10.316600 2.897600
10.334900 2.535800
10.353300 1.996000
10.371600 1.505100
10.390000 1.216600
10.408300 1.144500
10.426700 1.218000
