set title 'mp-1063988 - Density of States'
set xlabel 'Energy (eV)'
set ylabel 'DOS (states/eV)'
set grid
set xrange [-10:10]
set yrange [0:1.584]
set xzeroaxis lt -1
set terminal png size 800,600
set output 'mp-1063988_dos_gnuplot.png'
plot '-' using 1:2 with lines title 'DOS'
-21.538000 0.000000
-21.402700 0.000000
-21.267300 0.000000
-21.132000 0.000000
-20.996700 0.000000
-20.861400 0.000000
-20.726000 0.000000
-20.590700 0.000000
-20.455400 0.000000
-20.320100 0.000000
-20.184700 0.000000
-20.049400 0.000000
-19.914100 0.000000
-19.778800 0.000000
-19.643400 0.000000
-19.508100 0.000000
-19.372800 0.000000
-19.237500 0.000000
-19.102100 0.000000
-18.966800 0.000000
-18.831500 0.000000
-18.696200 0.000000
-18.560800 0.000000
-18.425500 0.000000
-18.290200 0.000000
-18.154900 0.000000
-18.019500 0.000000
-17.884200 0.000000
-17.748900 0.000000
-17.613600 0.000000
-17.478200 0.000000
-17.342900 0.000000
-17.207600 0.000000
-17.072300 0.000000
-16.936900 0.000000
-16.801600 0.000000
-16.666300 0.000000
-16.531000 0.000000
-16.395600 0.000000
-16.260300 0.000000
-16.125000 0.000000
-15.989700 0.000000
-15.854300 0.000000
-15.719000 0.000000
-15.583700 0.000000
-15.448400 0.000000
-15.313000 0.000000
-15.177700 0.000000
-15.042400 0.000000
-14.907100 0.000000
-14.771700 0.000000
-14.636400 0.000000
-14.501100 0.000000
-14.365800 0.000000
-14.230400 0.000000
-14.095100 0.000000
-13.959800 0.000000
-13.824500 0.000000
-13.689100 0.000000
-13.553800 0.000000
-13.418500 0.000000
-13.283200 0.000000
-13.147800 0.000000
-13.012500 0.000000
-12.877200 0.000000
-12.741900 0.000000
-12.606500 0.000000
-12.471200 0.000000
-12.335900 0.000000
-12.200600 0.000000
-12.065200 0.000000
-11.929900 0.000000
-11.794600 0.000000
-11.659300 0.000000
-11.523900 0.000000
-11.388600 0.000000
-11.253300 0.000000
-11.118000 0.000000
-10.982600 0.000000
-10.847300 0.000000
-10.712000 0.000000
-10.576700 0.000000
-10.441300 0.000000
-10.306000 0.000000
-10.170700 0.000000
-10.035400 0.000000
-9.900000 0.000000
-9.764700 0.000000
-9.629400 0.000000
-9.494100 0.000000
-9.358700 0.000000
-9.223400 0.000900
-9.088100 0.048000
-8.952800 0.070300
-8.817400 0.091200
-8.682100 0.104600
-8.546800 0.117300
-8.411400 0.130800
-8.276100 0.141600
-8.140800 0.152900
-8.005500 0.164900
-7.870100 0.173300
-7.734800 0.183900
-7.599500 0.195800
-7.464200 0.204600
-7.328800 0.214000
-7.193500 0.224100
-7.058200 0.236300
-6.922900 0.245600
-6.787500 0.255500
-6.652200 0.267400
-6.516900 0.279600
-6.381600 0.291700
-6.246200 0.304700
-6.110900 0.318300
-5.975600 0.334500
-5.840300 0.351400
-5.704900 0.369600
-5.569600 0.392900
-5.434300 0.418600
-5.299000 0.450300
-5.163600 0.490500
-5.028300 0.551000
-4.893000 0.666000
-4.757700 0.745600
-4.622300 0.715800
-4.487000 0.723500
-4.351700 0.699700
-4.216400 0.688000
-4.081000 0.666500
-3.945700 0.451500
-3.810400 0.261700
-3.675100 0.215500
-3.539700 0.187800
-3.404400 0.166800
-3.269100 0.139800
-3.133800 0.122300
-2.998400 0.105800
-2.863100 0.094600
-2.727800 0.079800
-2.592500 0.069000
-2.457100 0.058300
-2.321800 0.049600
-2.186500 0.039500
-2.051200 0.030300
-1.915800 0.020800
-1.780500 0.008700
-1.645200 0.000000
-1.509900 0.000000
-1.374500 0.000000
-1.239200 0.000000
-1.103900 0.000000
-0.968600 0.000000
-0.833200 0.000000
-0.697900 0.000000
-0.562600 0.000000
-0.427300 0.000000
-0.291900 0.000000
-0.156600 0.000000
-0.021300 0.000000
0.114000 0.000000
0.249400 0.000000
0.384700 0.089100
0.520000 0.180700
0.655300 0.226600
0.790700 0.262500
0.926000 0.328000
1.061300 0.374100
1.196600 0.397700
1.332000 0.449900
1.467300 0.509900
1.602600 0.585500
1.737900 0.718100
1.873300 0.844200
2.008600 0.752000
2.143900 0.677500
2.279200 0.588200
2.414600 0.530000
2.549900 0.465700
2.685200 0.449200
2.820500 0.454300
2.955900 0.450500
3.091200 0.469800
3.226500 0.492300
3.361800 0.490700
3.497200 0.508200
3.632500 0.499000
3.767800 0.507200
3.903100 0.500100
4.038500 0.538500
4.173800 0.572300
4.309100 0.587100
4.444400 0.605400
4.579800 0.588000
4.715100 0.595100
4.850400 0.592600
4.985700 0.600700
5.121100 0.594300
5.256400 0.602700
5.391700 0.602700
5.527000 0.617600
5.662400 0.617900
5.797700 0.616400
5.933000 0.615700
6.068300 0.622200
6.203700 0.626700
6.339000 0.641000
6.474300 0.669200
6.609600 0.651100
6.745000 0.655500
6.880300 0.662300
7.015600 0.673600
7.150900 0.689900
7.286300 0.733500
7.421600 0.717200
7.556900 0.712200
7.692200 0.664900
7.827600 0.644000
7.962900 0.638600
8.098200 0.652400
8.233500 0.665300
8.368900 0.683000
8.504200 0.706100
8.639500 0.734900
8.774800 0.790700
8.910200 0.922500
9.045500 1.231100
9.180800 1.439900
9.316100 0.943300
9.451500 0.781200
9.586800 0.690800
9.722100 0.647400
9.857400 0.510500
9.992800 0.400100
10.128100 0.323500
10.263400 0.263200
10.398700 0.207700
10.534100 0.122500
10.669400 0.029600
10.804700 0.000000
10.940000 0.000000
11.075400 0.000000
11.210700 0.000000
11.346000 0.000000
11.481400 0.000000
11.616700 0.000000
11.752000 0.006000
11.887300 0.020100
12.022700 0.042000
12.158000 0.039500
12.293300 0.048300
12.428600 0.061400
12.564000 0.060400
12.699300 0.064800
12.834600 0.072000
12.969900 0.078300
13.105300 0.086500
13.240600 0.089200
13.375900 0.092000
13.511200 0.097400
13.646600 0.103500
13.781900 0.110400
13.917200 0.116900
14.052500 0.121400
14.187900 0.124800
14.323200 0.130000
14.458500 0.136100
14.593800 0.143000
14.729200 0.150400
14.864500 0.156100
14.999800 0.163500
15.135100 0.170500
15.270500 0.180600
15.405800 0.228800
15.541100 0.312600
15.676400 0.363300
15.811800 0.456900
15.947100 0.529800
16.082400 0.697800
16.217700 0.854400
16.353100 0.825400
16.488400 0.813400
16.623700 0.824600
16.759000 0.912300
16.894400 1.195600
17.029700 0.893600
17.165000 0.802100
17.300300 0.740700
17.435700 0.735700
17.571000 0.765700
17.706300 0.819100
17.841600 0.908000
17.977000 1.233600
18.112300 1.207500
18.247600 1.185100
18.382900 1.135500
18.518300 1.109900
18.653600 0.969600
18.788900 0.837000
18.924200 0.718900
19.059600 0.622800
19.194900 0.571600
19.330200 0.532600
19.465500 0.516100
19.600900 0.476000
19.736200 0.454300
19.871500 0.426400
20.006800 0.372300
20.142200 0.395900
20.277500 0.399700
20.412800 0.451200
20.548100 0.505400
20.683500 0.583000
20.818800 0.603800
20.954100 0.600900
21.089400 0.590800
21.224800 0.578200
21.360100 0.591500
21.495400 0.578400
21.630700 0.564100
21.766100 0.555100
21.901400 0.533300
22.036700 0.533400
22.172000 0.543000
22.307400 0.568700
22.442700 0.621300
22.578000 0.638400
22.713300 0.672800
22.848700 0.728400
22.984000 0.837100
23.119300 0.857400
23.254600 0.891500
23.390000 0.924900
23.525300 0.967300
23.660600 0.998200
23.795900 0.995700
23.931300 0.991900
24.066600 1.019900
24.201900 1.016900
24.337200 0.992000
24.472600 0.986800
24.607900 1.012000
24.743200 0.992300
24.878500 0.950100
25.013900 0.939700
25.149200 0.926800
25.284500 0.906400
25.419800 0.906400
25.555200 0.890700
25.690500 0.882400
25.825800 0.804000
25.961100 0.708400
26.096500 0.646800
26.231800 0.530400
26.367100 0.529900
26.502400 0.504000
26.637800 0.519600
26.773100 0.881800
26.908400 0.529700
27.043700 0.516300
27.179100 0.516800
27.314400 0.529200
27.449700 0.542800
27.585000 0.556300
27.720400 0.574100
27.855700 0.551300
27.991000 0.510800
28.126300 0.495400
28.261700 0.494400
28.397000 0.498200
28.532300 0.474500
28.667600 0.482900
28.803000 0.496100
28.938300 0.517900
29.073600 0.521300
29.208900 0.492200
29.344300 0.479400
29.479600 0.492800
29.614900 0.489600
29.750200 0.485100
29.885600 0.525200
30.020900 0.506400
30.156200 0.486600
30.291500 0.471200
30.426900 0.460400
30.562200 0.451900
30.697500 0.454900
30.832900 0.481200
30.968200 0.497900
31.103500 0.499000
31.238800 0.502800
31.374200 0.503200
31.509500 0.533500
31.644800 0.570400
31.780100 0.590800
31.915500 0.610200
32.050800 0.668700
32.186100 0.753700
32.321400 0.773000
32.456800 0.758000
32.592100 0.840900
32.727400 0.923900
32.862700 0.869600
32.998100 0.842100
33.133400 0.820400
33.268700 0.797000
33.404000 0.747300
33.539400 0.699400
33.674700 0.662300
33.810000 0.648400
33.945300 0.662800
34.080700 0.714700
34.216000 0.700900
34.351300 0.619300
34.486600 0.648600
34.622000 0.701800
34.757300 0.734100
34.892600 0.742200
35.027900 0.842900
35.163300 0.790400
35.298600 0.727300
35.433900 0.646600
35.569200 0.577600
35.704600 0.550800
35.839900 0.545600
35.975200 0.559600
36.110500 0.575700
36.245900 0.596800
36.381200 0.621600
36.516500 0.636900
36.651800 0.657600
36.787200 0.661100
36.922500 0.670100
37.057800 0.679800
37.193100 0.678700
37.328500 0.696600
37.463800 0.706600
37.599100 0.723000
37.734400 0.736800
37.869800 0.785900
38.005100 0.847500
38.140400 0.823000
38.275700 0.826600
38.411100 0.849900
38.546400 0.954200
38.681700 0.914800
38.817000 0.840000
38.952400 0.876800
39.087700 0.910500
39.223000 0.942700
39.358300 0.983100
39.493700 0.975400
39.629000 0.980300
39.764300 0.904500
39.899600 0.870900
40.035000 0.883300
40.170300 0.883900
40.305600 0.895900
40.440900 0.893700
40.576300 0.886000
40.711600 0.860100
40.846900 0.840900
40.982200 0.878100
41.117600 0.861900
41.252900 0.807900
41.388200 0.855700
41.523500 0.833900
41.658900 0.788000
41.794200 0.852700
41.929500 0.885000
42.064800 0.911500
42.200200 0.910500
42.335500 0.885400
42.470800 0.869500
42.606100 0.839700
42.741500 0.796000
42.876800 0.684600
43.012100 0.578500
43.147400 0.497000
43.282800 0.499400
43.418100 0.523700
43.553400 0.685600
43.688700 0.833200
43.824100 0.807200
43.959400 0.845200
44.094700 0.864600
44.230000 0.842200
44.365400 0.739200
44.500700 0.654500
44.636000 0.628500
44.771300 0.625600
44.906700 0.666900
45.042000 0.702500
45.177300 0.732200
45.312600 0.740700
45.448000 0.736200
45.583300 0.774800
45.718600 0.764600
45.853900 0.752600
45.989300 0.765600
46.124600 0.751300
46.259900 0.709900
46.395200 0.640900
46.530600 0.618000
46.665900 0.618000
46.801200 0.610700
46.936500 0.634800
47.071900 0.665800
47.207200 0.706000
47.342500 0.800600
47.477800 0.748100
47.613200 0.731800
47.748500 0.696900
47.883800 0.648400
48.019100 0.604100
48.154500 0.573900
48.289800 0.568900
48.425100 0.595000
48.560400 0.642500
48.695800 0.774600
48.831100 0.961200
48.966400 0.909500
49.101700 0.870500
49.237100 0.807400
49.372400 0.771200
49.507700 0.803700
49.643000 0.875900
49.778400 1.100900
49.913700 1.248900
50.049000 1.282500
50.184400 1.273200
50.319700 1.128600
50.455000 0.981300
50.590300 0.903000
50.725700 0.831400
50.861000 0.774700
50.996300 0.759800
51.131600 0.782000
51.267000 0.805600
51.402300 0.851100
51.537600 0.983300
51.672900 1.046200
51.808300 1.004200
51.943600 0.920000
52.078900 0.901400
52.214200 0.840700
52.349600 0.826700
52.484900 0.817200
52.620200 0.814400
52.755500 0.841000
52.890900 0.827000
53.026200 0.816300
53.161500 0.830300
53.296800 0.795100
53.432200 0.787700
53.567500 0.796300
53.702800 0.813400
53.838100 0.809600
53.973500 0.802400
54.108800 0.801400
54.244100 0.731900
54.379400 0.710300
54.514800 0.730400
54.650100 0.740900
54.785400 0.708300
54.920700 0.738100
55.056100 0.800000
55.191400 0.848100
55.326700 0.894800
55.462000 0.957200
55.597400 0.957500
55.732700 0.918600
55.868000 0.894400
56.003300 0.902500
56.138700 0.931500
56.274000 0.924900
56.409300 0.939100
56.544600 0.994200
56.680000 1.047900
56.815300 1.108400
56.950600 1.114000
57.085900 1.109300
57.221300 1.125900
57.356600 1.147900
57.491900 1.143400
57.627200 1.109000
57.762600 1.055000
57.897900 0.998900
58.033200 1.001000
58.168500 1.040400
58.303900 0.995500
58.439200 0.958700
58.574500 0.948400
58.709800 0.934300
58.845200 0.882000
58.980500 0.870900
59.115800 0.908300
59.251100 0.886400
59.386500 0.833700
59.521800 0.747800
59.657100 0.694500
59.792400 0.676500
59.927800 0.669000
60.063100 0.656000
60.198400 0.669600
60.333700 0.747400
60.469100 0.832000
60.604400 0.795500
60.739700 0.805400
60.875000 0.811800
61.010400 0.796600
61.145700 0.826600
61.281000 0.808600
61.416300 0.715300
61.551700 0.641800
61.687000 0.682800
61.822300 0.690600
61.957600 0.734200
62.093000 0.791500
62.228300 0.834800
62.363600 0.823200
62.498900 0.852700
62.634300 0.871300
62.769600 0.876000
62.904900 0.841100
63.040200 0.876600
63.175600 0.916400
63.310900 0.958300
63.446200 1.009500
63.581500 1.021200
63.716900 0.988400
63.852200 0.926500
63.987500 0.900500
64.122800 0.900500
64.258200 0.909400
64.393500 0.905700
64.528800 0.855400
64.664100 0.854700
64.799500 0.846700
64.934800 0.839400
65.070100 0.827200
65.205400 0.846800
65.340800 0.921600
65.476100 0.950300
65.611400 0.987000
65.746700 0.973500
65.882100 0.986800
66.017400 0.989500
66.152700 0.936600
66.288000 0.898400
66.423400 0.815300
66.558700 0.756000
66.694000 0.756300
66.829300 0.777400
66.964700 0.822100
67.100000 0.860400
67.235300 0.851700
67.370600 0.857100
67.506000 0.880500
67.641300 0.893300
67.776600 0.973900
67.911900 1.083700
68.047300 1.070900
68.182600 0.966100
68.317900 0.857000
68.453200 0.801400
68.588600 0.774600
68.723900 0.763500
68.859200 0.786400
68.994500 0.840500
69.129900 0.910500
69.265200 0.973600
69.400500 1.033300
69.535800 1.082800
69.671200 1.109900
69.806500 1.077500
69.941800 1.088100
70.077200 1.132500
70.212500 1.111500
70.347800 0.997700
70.483100 0.968000
70.618500 0.962200
70.753800 0.990700
70.889100 1.077800
71.024400 1.121400
71.159800 1.101900
71.295100 1.070900
71.430400 1.057100
71.565700 1.041500
71.701100 1.043000
71.836400 1.113300
71.971700 1.230800
72.107000 1.396000
72.242400 1.311600
72.377700 1.252300
72.513000 1.257400
72.648300 1.221800
72.783700 1.180300
72.919000 1.149100
73.054300 1.138200
73.189600 1.143500
73.325000 1.092800
73.460300 1.071100
73.595600 1.013400
73.730900 0.919200
73.866300 0.866000
74.001600 0.871900
74.136900 0.893000
74.272200 1.006500
74.407600 0.962400
74.542900 0.970700
74.678200 0.947700
74.813500 0.793600
74.948900 0.759500
75.084200 0.771000
75.219500 0.786800
75.354800 0.782400
75.490200 0.775500
75.625500 0.789600
75.760800 0.825200
75.896100 0.972200
76.031500 0.957500
76.166800 1.033400
76.302100 1.287600
76.437400 1.497100
76.572800 1.573800
76.708100 1.527600
76.843400 1.281000
76.978700 1.137700
77.114100 1.015400
77.249400 0.877100
77.384700 0.839300
77.520000 0.820900
77.655400 0.799300
77.790700 0.803700
77.926000 0.829700
78.061300 0.891500
78.196700 0.950300
78.332000 0.975200
78.467300 0.985000
78.602600 1.020200
78.738000 0.968500
78.873300 0.930300
79.008600 0.885800
79.143900 0.866000
79.279300 0.852700
79.414600 0.861700
79.549900 0.926000
79.685200 1.040900
79.820600 0.958000
79.955900 0.964100
80.091200 0.936900
80.226500 0.909400
80.361900 0.886700
80.497200 0.887800
80.632500 0.892800
80.767800 0.917000
80.903200 1.164100
81.038500 0.948900
81.173800 0.985900
81.309100 0.966700
81.444500 0.975200
81.579800 1.008900
81.715100 1.029900
81.850400 1.027700
81.985800 1.036600
82.121100 1.124500
82.256400 1.073400
82.391700 1.065600
82.527100 1.088600
82.662400 1.076500
82.797700 1.075400
82.933000 1.110700
83.068400 1.125700
83.203700 1.158500
83.339000 1.197200
83.474300 1.202200
83.609700 1.090900
83.745000 0.991300
83.880300 0.916700
84.015600 0.875600
84.151000 0.935000
84.286300 0.936700
84.421600 0.972400
84.556900 1.004700
84.692300 0.996900
84.827600 0.982600
84.962900 0.941800
85.098200 0.919600
85.233600 0.945300
85.368900 1.025600
85.504200 1.069200
85.639500 1.064200
85.774900 1.118100
85.910200 1.127100
86.045500 1.085300
86.180800 1.073300
86.316200 1.093200
86.451500 1.135900
86.586800 1.195100
86.722100 1.222000
86.857500 1.303200
86.992800 1.360400
87.128100 1.453700
87.263400 1.379900
87.398800 1.146700
87.534100 0.985800
87.669400 0.900100
87.804700 0.857900
87.940100 0.859000
88.075400 0.906300
88.210700 1.010300
88.346000 1.105100
88.481400 1.188800
88.616700 1.228100
88.752000 1.251400
88.887300 1.242800
89.022700 1.136000
89.158000 1.046900
89.293300 0.960700
89.428700 0.939500
89.564000 0.984600
89.699300 1.174100
89.834600 1.216800
89.970000 1.152300
90.105300 1.099800
90.240600 1.046300
90.375900 0.980800
90.511300 0.929900
90.646600 0.924900
90.781900 0.944600
90.917200 0.978300
91.052600 1.005400
91.187900 1.047700
91.323200 1.115400
91.458500 1.196600
91.593900 1.240000
91.729200 1.274700
91.864500 1.198700
91.999800 1.123400
92.135200 1.034300
92.270500 0.986700
92.405800 1.030900
92.541100 1.139900
92.676500 1.316100
92.811800 1.411900
92.947100 1.368800
93.082400 1.289700
93.217800 1.203100
93.353100 1.139300
93.488400 1.102200
93.623700 0.954000
93.759100 0.936300
93.894400 1.003200
94.029700 1.109000
94.165000 1.190200
94.300400 1.249800
94.435700 1.223700
94.571000 1.172500
94.706300 1.088400
94.841700 1.096900
94.977000 1.054800
95.112300 1.025200
95.247600 1.000700
95.383000 0.981600
95.518300 0.986200
95.653600 1.103100
95.788900 1.157500
95.924300 1.119500
96.059600 1.125600
96.194900 1.176300
96.330200 1.192800
96.465600 1.212100
96.600900 1.292600
96.736200 1.213400
96.871500 1.145700
97.006900 1.063000
97.142200 0.979300
97.277500 0.930600
97.412800 0.911500
97.548200 0.896600
97.683500 0.889300
97.818800 0.892100
97.954100 0.904300
98.089500 0.923100
98.224800 0.967500
98.360100 1.027300
98.495400 1.053800
98.630800 1.117000
98.766100 1.156100
98.901400 1.214700
99.036700 1.264700
99.172100 1.301500
99.307400 1.250100
99.442700 1.193900
99.578000 1.130700
99.713400 1.098700
99.848700 1.123700
99.984000 1.148300
100.119300 1.189900
100.254700 1.258200
100.390000 1.284700
100.525300 1.223200
100.660600 1.138300
100.796000 1.093500
100.931300 1.100900
101.066600 1.139900
101.201900 1.169300
101.337300 1.191900
101.472600 1.202500
101.607900 1.223600
101.743200 1.185700
101.878600 1.155700
102.013900 1.150700
102.149200 1.140700
102.284500 1.120500
102.419900 1.106800
102.555200 1.096800
102.690500 1.101200
102.825800 1.120500
102.961200 1.157200
103.096500 1.200400
103.231800 1.193900
103.367100 1.167900
103.502500 1.159200
103.637800 1.167400
103.773100 1.185600
103.908400 1.225900
104.043800 1.238600
104.179100 1.178500
104.314400 1.073700
104.449700 1.034700
104.585100 1.043700
104.720400 1.024200
104.855700 1.011300
104.991000 1.076400
105.126400 1.115400
105.261700 1.164600
105.397000 1.208500
105.532300 1.249300
105.667700 1.273200
105.803000 1.331500
105.938300 1.273500
106.073600 1.228100
106.209000 1.228700
106.344300 1.196600
106.479600 1.136200
106.614900 1.067200
106.750300 1.057200
106.885600 1.039900
107.020900 1.106900
107.156200 1.207900
107.291600 1.206900
107.426900 1.214000
107.562200 1.252800
107.697500 1.209600
107.832900 1.176400
107.968200 1.138500
108.103500 1.130000
108.238800 1.131500
108.374200 1.171900
108.509500 1.156500
108.644800 1.083600
108.780200 1.003800
108.915500 0.987900
109.050800 1.045400
109.186100 1.082500
109.321500 1.104100
109.456800 1.109900
109.592100 1.238500
109.727400 1.327900
109.862800 1.268300
109.998100 1.279600
110.133400 1.264800
110.268700 1.261400
110.404100 1.200800
110.539400 1.097100
110.674700 1.080100
110.810000 1.100900
110.945400 1.046900
111.080700 1.058500
111.216000 1.086300
111.351300 1.129900
111.486700 1.202600
111.622000 1.233800
111.757300 1.242600
111.892600 1.226200
112.028000 1.188700
112.163300 1.136600
112.298600 1.121700
112.433900 1.156600
112.569300 1.142000
112.704600 1.163900
112.839900 1.189400
112.975200 1.259800
113.110600 1.313800
113.245900 1.310100
113.381200 1.299200
113.516500 1.267500
113.651900 1.139100
113.787200 1.178700
113.922500 1.271400
114.057800 1.278800
114.193200 1.301900
114.328500 1.303100
114.463800 1.325400
114.599100 1.324100
114.734500 1.281700
114.869800 1.215900
115.005100 1.170700
115.140400 1.134600
115.275800 1.164900
115.411100 1.234900
115.546400 1.286300
115.681700 1.346100
115.817100 1.353500
115.952400 1.339400
116.087700 1.331400
116.223000 1.312800
116.358400 1.237100
116.493700 1.214300
116.629000 1.204600
116.764300 1.239600
116.899700 1.266100
117.035000 1.239900
117.170300 1.254700
117.305600 1.263200
117.441000 1.314500
117.576300 1.407600
117.711600 1.443000
