set title 'mp-1183440 - Density of States'
set xlabel 'Energy (eV)'
set ylabel 'DOS (states/eV)'
set grid
set xrange [-10:10]
set yrange [0:4.514]
set xzeroaxis lt -1
set terminal png size 800,600
set output 'mp-1183440_dos_gnuplot.png'
plot '-' using 1:2 with lines title 'DOS'
-9.991200 0.000000
-9.968600 0.000000
-9.945900 0.000000
-9.923200 0.000000
-9.900600 0.000000
-9.877900 0.000000
-9.855300 0.000000
-9.832600 0.000000
-9.809900 0.000000
-9.787300 0.000000
-9.764600 0.000000
-9.741900 0.000000
-9.719300 0.000000
-9.696600 0.000000
-9.674000 0.000000
-9.651300 0.000000
-9.628600 0.000000
-9.606000 0.000000
-9.583300 0.000000
-9.560700 0.000000
-9.538000 0.000000
-9.515300 0.000000
-9.492700 0.000000
-9.470000 0.000000
-9.447300 0.000000
-9.424700 0.000000
-9.402000 0.000000
-9.379400 0.000000
-9.356700 0.000000
-9.334000 0.000000
-9.311400 0.000000
-9.288700 0.000000
-9.266100 0.000000
-9.243400 0.000000
-9.220700 0.000000
-9.198100 0.000000
-9.175400 0.000000
-9.152800 0.000000
-9.130100 0.000000
-9.107400 0.000000
-9.084800 0.000000
-9.062100 0.000000
-9.039400 0.000000
-9.016800 0.000000
-8.994100 0.000000
-8.971500 0.000000
-8.948800 0.000000
-8.926100 0.000000
-8.903500 0.000000
-8.880800 0.000000
-8.858200 0.000000
-8.835500 0.000000
-8.812800 0.000000
-8.790200 0.000000
-8.767500 0.000000
-8.744800 0.000000
-8.722200 0.000000
-8.699500 0.000000
-8.676900 0.000000
-8.654200 0.000000
-8.631500 0.000000
-8.608900 0.000000
-8.586200 0.000000
-8.563600 0.000000
-8.540900 0.000000
-8.518200 0.000000
-8.495600 0.000000
-8.472900 0.000000
-8.450200 0.000000
-8.427600 0.000000
-8.404900 0.000000
-8.382300 0.000000
-8.359600 0.000000
-8.336900 0.000000
-8.314300 0.000000
-8.291600 0.000000
-8.269000 0.000000
-8.246300 0.000000
-8.223600 0.000000
-8.201000 0.000000
-8.178300 0.000000
-8.155700 0.000000
-8.133000 0.000000
-8.110300 0.000000
-8.087700 0.000000
-8.065000 0.000000
-8.042300 0.000000
-8.019700 0.000000
-7.997000 0.000000
-7.974400 0.000000
-7.951700 0.000000
-7.929000 0.000200
-7.906400 0.025600
-7.883700 0.094100
-7.861100 0.181400
-7.838400 0.205900
-7.815700 0.207000
-7.793100 0.237100
-7.770400 0.268500
-7.747700 0.301100
-7.725100 0.333400
-7.702400 0.355300
-7.679800 0.365000
-7.657100 0.374000
-7.634400 0.388500
-7.611800 0.406300
-7.589100 0.424700
-7.566500 0.443200
-7.543800 0.461600
-7.521100 0.480500
-7.498500 0.500600
-7.475800 0.519800
-7.453100 0.531100
-7.430500 0.540100
-7.407800 0.553700
-7.385200 0.566900
-7.362500 0.579700
-7.339800 0.592300
-7.317200 0.605300
-7.294500 0.619000
-7.271900 0.634000
-7.249200 0.649500
-7.226500 0.665500
-7.203900 0.681700
-7.181200 0.698100
-7.158500 0.713800
-7.135900 0.726800
-7.113200 0.737700
-7.090600 0.749000
-7.067900 0.761200
-7.045200 0.774600
-7.022600 0.788100
-6.999900 0.801800
-6.977300 0.815500
-6.954600 0.829700
-6.931900 0.844300
-6.909300 0.859200
-6.886600 0.874500
-6.864000 0.889900
-6.841300 0.905600
-6.818600 0.921300
-6.796000 0.937200
-6.773300 0.952900
-6.750600 0.968900
-6.728000 0.984800
-6.705300 1.001000
-6.682700 1.017800
-6.660000 1.034600
-6.637300 1.051800
-6.614700 1.069700
-6.592000 1.088100
-6.569400 1.106800
-6.546700 1.125900
-6.524000 1.145300
-6.501400 1.165000
-6.478700 1.185000
-6.456000 1.205500
-6.433400 1.227300
-6.410700 1.250700
-6.388100 1.275700
-6.365400 1.302400
-6.342700 1.329200
-6.320100 1.356800
-6.297400 1.386600
-6.274800 1.418800
-6.252100 1.452800
-6.229400 1.488200
-6.206800 1.524900
-6.184100 1.565600
-6.161400 1.614000
-6.138800 1.667300
-6.116100 1.724500
-6.093500 1.787500
-6.070800 1.894800
-6.048100 2.049700
-6.025500 2.117300
-6.002800 2.150200
-5.980200 2.169600
-5.957500 2.186300
-5.934800 2.250900
-5.912200 2.321500
-5.889500 2.249700
-5.866900 2.222500
-5.844200 2.221800
-5.821500 2.217600
-5.798900 2.199400
-5.776200 2.182700
-5.753500 2.172500
-5.730900 2.165900
-5.708200 2.159200
-5.685600 2.152200
-5.662900 2.146500
-5.640200 2.134600
-5.617600 2.135400
-5.594900 2.140800
-5.572300 2.147600
-5.549600 2.156000
-5.526900 2.169000
-5.504300 2.240400
-5.481600 2.090600
-5.458900 2.101600
-5.436300 2.095700
-5.413600 2.091000
-5.391000 2.084500
-5.368300 2.080500
-5.345600 2.081400
-5.323000 2.075800
-5.300300 2.103300
-5.277700 2.173800
-5.255000 2.250900
-5.232300 2.306600
-5.209700 2.469900
-5.187000 2.584500
-5.164300 3.224400
-5.141700 3.136200
-5.119000 2.855700
-5.096400 2.956200
-5.073700 3.868500
-5.051000 3.681500
-5.028400 1.554800
-5.005700 0.229700
-4.983100 0.000000
-4.960400 0.000000
-4.937700 0.000000
-4.915100 0.000000
-4.892400 0.000000
-4.869700 0.000000
-4.847100 0.000000
-4.824400 0.000000
-4.801800 0.000000
-4.779100 0.000000
-4.756400 0.000000
-4.733800 0.000000
-4.711100 0.000000
-4.688500 0.000000
-4.665800 0.000000
-4.643100 0.000000
-4.620500 0.000000
-4.597800 0.000000
-4.575200 0.000000
-4.552500 0.000000
-4.529800 0.000000
-4.507200 0.000000
-4.484500 0.000000
-4.461800 0.000000
-4.439200 0.000000
-4.416500 0.000000
-4.393900 0.000000
-4.371200 0.000000
-4.348500 0.000000
-4.325900 0.000000
-4.303200 0.000000
-4.280600 0.000000
-4.257900 0.000000
-4.235200 0.000000
-4.212600 0.000000
-4.189900 0.000000
-4.167200 0.000000
-4.144600 0.000000
-4.121900 0.000000
-4.099300 0.000000
-4.076600 0.000000
-4.053900 0.000000
-4.031300 0.000000
-4.008600 0.000000
-3.986000 0.000000
-3.963300 0.000000
-3.940600 0.000000
-3.918000 0.000000
-3.895300 0.000000
-3.872600 0.000000
-3.850000 0.000000
-3.827300 0.000000
-3.804700 0.000000
-3.782000 0.000000
-3.759300 0.000000
-3.736700 0.000000
-3.714000 0.000000
-3.691400 0.000000
-3.668700 0.000000
-3.646000 0.000000
-3.623400 0.000000
-3.600700 0.000000
-3.578000 0.000000
-3.555400 0.000000
-3.532700 0.000000
-3.510100 0.000000
-3.487400 0.000000
-3.464700 0.000000
-3.442100 0.000000
-3.419400 0.000000
-3.396800 0.000000
-3.374100 0.000000
-3.351400 0.000000
-3.328800 0.000000
-3.306100 0.000000
-3.283500 0.000000
-3.260800 0.000000
-3.238100 0.000000
-3.215500 0.000000
-3.192800 0.000000
-3.170100 0.000000
-3.147500 0.000000
-3.124800 0.000000
-3.102200 0.000000
-3.079500 0.000000
-3.056800 0.000000
-3.034200 0.000000
-3.011500 0.000000
-2.988900 0.000000
-2.966200 0.000000
-2.943500 0.000000
-2.920900 0.000000
-2.898200 0.000000
-2.875500 0.000000
-2.852900 0.000000
-2.830200 0.000000
-2.807600 0.000000
-2.784900 0.000000
-2.762200 0.000000
-2.739600 0.000000
-2.716900 0.000000
-2.694300 0.000000
-2.671600 0.000000
-2.648900 0.000000
-2.626300 0.000000
-2.603600 0.000000
-2.580900 0.000000
-2.558300 0.000000
-2.535600 0.000000
-2.513000 0.000000
-2.490300 0.000000
-2.467600 0.000000
-2.445000 0.000000
-2.422300 0.000000
-2.399700 0.000000
-2.377000 0.000000
-2.354300 0.000000
-2.331700 0.000000
-2.309000 0.000000
-2.286400 0.000000
-2.263700 0.000000
-2.241000 0.000000
-2.218400 0.000000
-2.195700 0.000000
-2.173000 0.000000
-2.150400 0.000000
-2.127700 0.000000
-2.105100 0.000000
-2.082400 0.000000
-2.059700 0.000000
-2.037100 0.000000
-2.014400 0.000000
-1.991800 0.000000
-1.969100 0.000000
-1.946400 0.000000
-1.923800 0.000000
-1.901100 0.000000
-1.878400 0.000000
-1.855800 0.000000
-1.833100 0.000000
-1.810500 0.000000
-1.787800 0.000000
-1.765100 0.000000
-1.742500 0.000000
-1.719800 0.521500
-1.697200 0.868600
-1.674500 1.141700
-1.651800 1.649700
-1.629200 1.990900
-1.606500 2.080300
-1.583800 2.179000
-1.561200 2.314100
-1.538500 2.601900
-1.515900 3.099100
-1.493200 3.686700
-1.470500 3.612800
-1.447900 3.690400
-1.425200 3.741800
-1.402600 3.076300
-1.379900 2.792500
-1.357200 2.697200
-1.334600 2.640600
-1.311900 2.655700
-1.289200 2.852200
-1.266600 2.714900
-1.243900 2.554400
-1.221300 2.419700
-1.198600 2.258000
-1.175900 2.103700
-1.153300 1.949500
-1.130600 1.755200
-1.108000 1.553300
-1.085300 1.520700
-1.062600 1.487900
-1.040000 1.462700
-1.017300 1.446200
-0.994700 1.431900
-0.972000 1.419100
-0.949300 1.407100
-0.926700 1.395700
-0.904000 1.386700
-0.881300 1.380100
-0.858700 1.375400
-0.836000 1.368500
-0.813400 1.394400
-0.790700 1.404200
-0.768000 1.410600
-0.745400 1.412000
-0.722700 1.409100
-0.700100 1.361700
-0.677400 1.342700
-0.654700 1.329700
-0.632100 1.319300
-0.609400 1.321500
-0.586700 1.322400
-0.564100 1.361800
-0.541400 1.388900
-0.518800 1.392800
-0.496100 1.385000
-0.473400 1.349500
-0.450800 1.283800
-0.428100 1.188000
-0.405500 1.125000
-0.382800 1.087100
-0.360100 1.053500
-0.337500 1.022400
-0.314800 0.993700
-0.292100 0.968000
-0.269500 0.946000
-0.246800 0.925300
-0.224200 0.906000
-0.201500 0.888100
-0.178800 0.871400
-0.156200 0.855600
-0.133500 0.840800
-0.110900 0.826700
-0.088200 0.812900
-0.065500 0.799300
-0.042900 0.785900
-0.020200 0.772800
0.002400 0.759900
0.025100 0.747100
0.047800 0.734500
0.070400 0.721900
0.093100 0.709300
0.115800 0.696700
0.138400 0.683700
0.161100 0.670900
0.183700 0.658200
0.206400 0.646000
0.229100 0.634500
0.251700 0.621800
0.274400 0.609200
0.297000 0.600800
0.319700 0.593100
0.342400 0.586100
0.365000 0.579500
0.387700 0.573000
0.410400 0.566700
0.433000 0.560400
0.455700 0.554200
0.478300 0.548100
0.501000 0.542000
0.523700 0.536100
0.546300 0.530300
0.569000 0.524800
0.591600 0.519400
0.614300 0.514400
0.637000 0.509700
0.659600 0.568900
0.682300 0.607200
0.705000 0.647100
0.727600 0.628400
0.750300 0.642600
0.772900 0.657500
0.795600 0.673200
0.818300 0.689500
0.840900 0.706800
0.863600 0.726300
0.886200 0.735400
0.908900 0.754600
0.931600 0.776900
0.954200 0.821000
0.976900 0.899800
0.999600 0.994400
1.022200 1.106500
1.044900 1.240000
1.067500 1.414900
1.090200 1.629600
1.112900 1.849500
1.135500 1.927700
1.158200 1.927900
1.180800 1.928700
1.203500 1.908100
1.226200 1.869000
1.248800 1.780400
1.271500 1.653500
1.294100 1.577400
1.316800 1.489400
1.339500 1.450700
1.362100 1.427500
1.384800 1.407600
1.407500 1.390800
1.430100 1.377100
1.452800 1.365700
1.475400 1.359000
1.498100 1.361900
1.520800 1.375000
1.543400 1.394100
1.566100 1.414000
1.588700 1.435900
1.611400 1.462900
1.634100 1.489300
1.656700 1.503100
1.679400 1.510800
1.702100 1.512900
1.724700 1.517200
1.747400 1.535300
1.770000 1.556500
1.792700 1.571500
1.815400 1.580200
1.838000 1.583000
1.860700 1.586800
1.883300 1.631500
1.906000 1.670800
1.928700 1.743200
1.951300 1.767900
1.974000 1.777100
1.996700 1.787600
2.019300 1.803600
2.042000 1.838900
2.064600 1.833600
2.087300 1.832500
2.110000 1.845500
2.132600 1.871200
2.155300 1.906000
2.177900 1.950600
2.200600 2.004700
2.223300 2.159500
2.245900 2.031200
2.268600 2.036800
2.291200 2.025200
2.313900 1.999100
2.336600 1.959100
2.359200 1.905000
2.381900 1.870600
2.404600 1.838600
2.427200 1.821200
2.449900 1.823200
2.472500 1.849800
2.495200 1.860200
2.517900 1.872200
2.540500 1.983700
2.563200 2.066600
2.585800 2.163500
2.608500 2.181200
2.631200 2.249800
2.653800 2.331900
2.676500 2.368900
2.699200 2.387200
2.721800 2.392000
2.744500 2.403700
2.767100 2.378700
2.789800 2.357200
2.812500 2.353300
2.835100 2.351300
2.857800 2.354800
2.880400 2.365000
2.903100 2.384400
2.925800 2.414100
2.948400 2.451100
2.971100 2.500200
2.993800 2.563500
3.016400 2.662800
3.039100 2.694500
3.061700 2.852000
3.084400 2.793000
3.107100 2.777400
3.129700 2.757200
3.152400 2.732900
3.175000 2.645400
3.197700 2.565800
3.220400 2.508400
3.243000 2.451200
3.265700 2.407700
3.288400 2.395100
3.311000 2.454200
3.333700 2.467500
3.356300 2.492300
3.379000 2.526400
3.401700 2.582100
3.424300 2.652600
3.447000 2.736100
3.469600 2.832000
3.492300 2.943900
3.515000 3.037100
3.537600 3.073200
3.560300 3.064700
3.582900 3.055800
3.605600 3.065800
3.628300 3.083100
3.650900 3.108700
3.673600 3.158800
3.696300 3.255000
3.718900 3.366900
3.741600 3.560700
3.764200 3.646500
3.786900 3.705900
3.809600 3.568800
3.832200 3.525000
3.854900 3.434400
3.877500 3.190000
3.900200 3.014300
3.922900 2.969000
3.945500 2.886700
3.968200 2.815800
3.990900 2.811500
4.013500 2.516600
4.036200 2.410300
4.058800 2.356900
4.081500 2.306100
4.104200 2.259500
4.126800 2.215700
4.149500 2.169000
4.172100 2.119500
4.194800 2.069500
4.217500 2.022000
4.240100 1.980100
4.262800 1.948900
4.285500 1.945000
4.308100 1.934500
4.330800 1.884300
4.353400 1.828900
4.376100 1.764300
4.398800 1.694800
4.421400 1.622100
4.444100 1.555200
4.466700 1.513100
4.489400 1.475200
4.512100 1.436200
4.534700 1.407100
4.557400 1.368000
4.580100 1.316800
4.602700 1.274500
4.625400 1.239200
4.648000 1.206600
4.670700 1.171500
4.693400 1.134700
4.716000 1.100700
4.738700 1.067500
4.761300 1.034500
4.784000 1.002300
4.806700 0.972700
4.829300 0.945900
4.852000 0.920200
4.874600 0.897700
4.897300 0.877800
4.920000 0.857200
4.942600 0.837400
4.965300 0.814100
4.988000 0.789400
5.010600 0.764800
5.033300 0.740600
5.055900 0.719900
5.078600 0.701900
5.101300 0.682800
5.123900 0.660700
5.146600 0.641500
5.169200 0.623100
5.191900 0.605400
5.214600 0.588300
5.237200 0.569800
5.259900 0.550600
5.282600 0.532600
5.305200 0.517400
5.327900 0.501600
5.350500 0.485200
5.373200 0.468400
5.395900 0.451500
5.418500 0.435100
5.441200 0.418800
5.463800 0.402700
5.486500 0.386800
5.509200 0.371100
5.531800 0.355600
5.554500 0.341800
5.577200 0.330300
5.599800 0.319900
5.622500 0.310500
5.645100 0.299000
5.667800 0.283200
5.690500 0.264300
5.713100 0.244700
5.735800 0.224700
5.758400 0.204600
5.781100 0.188000
5.803800 0.172700
5.826400 0.157800
5.849100 0.143500
5.871700 0.133800
5.894400 0.127300
5.917100 0.118800
5.939700 0.108300
5.962400 0.095800
5.985100 0.068300
6.007700 0.043100
6.030400 0.023500
6.053000 0.010000
6.075700 0.002500
6.098400 0.000000
6.121000 0.001000
6.143700 0.002600
6.166300 0.004500
6.189000 0.006500
6.211700 0.008900
6.234300 0.011400
6.257000 0.014100
6.279700 0.017100
6.302300 0.020200
6.325000 0.023400
6.347600 0.026900
6.370300 0.030500
6.393000 0.034400
6.415600 0.038400
6.438300 0.042500
6.460900 0.046900
6.483600 0.051400
6.506300 0.066600
6.528900 0.113000
6.551600 0.177500
6.574300 0.252700
6.596900 0.339100
6.619600 0.431100
6.642200 0.522700
6.664900 0.614500
6.687600 0.706100
6.710200 0.813900
6.732900 1.008600
6.755500 1.129800
6.778200 1.223200
6.800900 1.299900
6.823500 1.374800
6.846200 1.447300
6.868900 1.515500
6.891500 1.577600
6.914200 1.638100
6.936800 1.744400
6.959500 1.806700
6.982200 1.880000
7.004800 1.949200
7.027500 2.016000
7.050100 2.078900
7.072800 2.128700
7.095500 2.163600
7.118100 2.184900
7.140800 2.166300
7.163400 2.197000
7.186100 2.233700
7.208800 2.277800
7.231400 2.346200
7.254100 2.449700
7.276800 2.554200
7.299400 2.473400
7.322100 2.450800
7.344700 2.488800
7.367400 2.533600
7.390100 2.736600
7.412700 2.968800
7.435400 2.850400
7.458000 2.950400
7.480700 3.053500
7.503400 2.970100
7.526000 2.900500
7.548700 2.843400
7.571400 2.807800
7.594000 2.789300
7.616700 2.761700
7.639300 2.778300
7.662000 2.839200
7.684700 2.926200
7.707300 3.002600
7.730000 3.065900
7.752600 3.079900
7.775300 3.083700
7.798000 3.102800
7.820600 3.176200
7.843300 3.207100
7.866000 3.080400
7.888600 2.874500
7.911300 2.716800
7.933900 2.603600
7.956600 2.577500
7.979300 2.590300
8.001900 2.651100
8.024600 2.549700
8.047200 2.257400
8.069900 2.039600
8.092600 1.860300
8.115200 1.702000
8.137900 1.565500
8.160500 1.450900
8.183200 1.348600
8.205900 1.248500
8.228500 1.163500
8.251200 1.091600
8.273900 1.043600
8.296500 1.024000
8.319200 1.059900
8.341800 1.002100
8.364500 0.889800
8.387200 0.839800
8.409800 0.793100
8.432500 0.748700
8.455100 0.717500
8.477800 0.727100
8.500500 0.781500
8.523100 0.857900
8.545800 0.942500
8.568500 1.035800
8.591100 1.144100
8.613800 1.220500
8.636400 1.194700
8.659100 1.199900
8.681800 1.271800
8.704400 1.382700
8.727100 1.503200
8.749700 1.602600
8.772400 1.730500
8.795100 1.864400
8.817700 2.011900
8.840400 2.162200
8.863100 2.320900
8.885700 2.490700
8.908400 2.686300
8.931000 2.895100
8.953700 3.116800
8.976400 3.394500
8.999000 3.562500
9.021700 3.684100
9.044300 3.816900
9.067000 3.830100
9.089700 3.804500
9.112300 3.765900
9.135000 3.793700
9.157700 3.937500
9.180300 4.104000
9.203000 4.037600
9.225600 3.777400
9.248300 3.644400
9.271000 3.567700
9.293600 3.525700
9.316300 3.402500
9.338900 3.170200
9.361600 3.029700
9.384300 2.865700
9.406900 2.607400
9.429600 2.380100
9.452200 2.215900
9.474900 2.298900
9.497600 2.444600
9.520200 2.598000
9.542900 2.685000
9.565600 2.782600
9.588200 2.874000
9.610900 2.868100
9.633500 2.852000
9.656200 2.912200
9.678900 2.995200
9.701500 3.091200
9.724200 3.132900
9.746800 3.162800
9.769500 3.133000
9.792200 3.049800
9.814800 3.008800
9.837500 2.946300
9.860200 2.877300
9.882800 2.820800
9.905500 2.802400
9.928100 2.850800
9.950800 2.584700
9.973500 2.508200
9.996100 2.409700
10.018800 2.314400
10.041400 2.194200
10.064100 2.088100
10.086800 2.026600
10.109400 1.997100
10.132100 1.977700
10.154800 1.918600
10.177400 1.937100
10.200100 1.969300
10.222700 1.972300
10.245400 2.118400
10.268100 2.155900
10.290700 2.200600
10.313400 2.244000
10.336000 2.380300
10.358700 2.522700
10.381400 2.695700
10.404000 2.864300
10.426700 3.025600
10.449300 3.211700
10.472000 3.340300
10.494700 3.286900
10.517300 3.291100
10.540000 3.196600
10.562700 3.093100
10.585300 3.013800
10.608000 2.967800
10.630600 2.954500
10.653300 2.928800
10.676000 2.923200
10.698600 2.932500
10.721300 2.937000
10.743900 3.026800
10.766600 2.876200
10.789300 2.718200
10.811900 2.603600
10.834600 2.530500
10.857300 2.476600
10.879900 2.464500
10.902600 2.230200
10.925200 2.161200
10.947900 2.120900
10.970600 1.998100
10.993200 1.933800
11.015900 1.906500
11.038500 1.881300
11.061200 1.858500
11.083900 1.850800
11.106500 1.847600
11.129200 1.845200
11.151900 1.848900
11.174500 1.865500
11.197200 1.886200
11.219800 1.920900
11.242500 1.949800
11.265200 1.956800
11.287800 1.938600
11.310500 1.920300
11.333100 1.935200
11.355800 1.959800
11.378500 1.987200
11.401100 2.018700
11.423800 2.061700
11.446500 2.133100
11.469100 2.224600
11.491800 2.394300
11.514400 2.450800
11.537100 2.496100
11.559800 2.535900
11.582400 2.566000
11.605100 2.587100
11.627700 2.602500
11.650400 2.655900
11.673100 2.712300
11.695700 2.785700
11.718400 2.855200
11.741000 2.790100
11.763700 2.771700
11.786400 2.766200
11.809000 2.764300
11.831700 2.659500
11.854400 2.638200
11.877000 2.597100
11.899700 2.551200
11.922300 2.586900
11.945000 2.482300
11.967700 2.380200
11.990300 2.227400
12.013000 2.110500
12.035600 2.012800
12.058300 1.941000
12.081000 1.899100
12.103600 1.868900
12.126300 1.844900
12.149000 1.826800
12.171600 1.836200
12.194300 1.881000
12.216900 1.952500
12.239600 2.030900
12.262300 2.083900
12.284900 2.160300
12.307600 2.260500
12.330200 2.402800
12.352900 2.644000
12.375600 2.948100
12.398200 3.238700
12.420900 3.381600
12.443600 3.307300
12.466200 3.462500
12.488900 3.401500
12.511500 3.378400
12.534200 3.475600
12.556900 3.504500
12.579500 3.659000
12.602200 3.827800
12.624800 3.912900
12.647500 3.818800
12.670200 3.725600
12.692800 3.443800
12.715500 3.505000
12.738200 3.146100
12.760800 2.896500
12.783500 2.864100
12.806100 2.840500
12.828800 2.841100
12.851500 2.877300
12.874100 2.911300
12.896800 2.924700
12.919400 2.881500
12.942100 2.784200
12.964800 2.708700
12.987400 2.642300
13.010100 2.565600
13.032700 2.468900
13.055400 2.355800
13.078100 2.095400
13.100700 1.906000
13.123400 1.930100
13.146100 1.830800
13.168700 1.741400
13.191400 1.680700
13.214000 1.332200
13.236700 1.293200
13.259400 1.264900
13.282000 1.242700
13.304700 1.223600
13.327300 1.198400
13.350000 1.164600
13.372700 1.157500
13.395300 1.159600
13.418000 1.166200
13.440700 1.174400
13.463300 1.178600
13.486000 1.182800
13.508600 1.186900
13.531300 1.190800
13.554000 1.194700
13.576600 1.193600
13.599300 1.187300
13.621900 1.191200
13.644600 1.197800
13.667300 1.204300
13.689900 1.216000
13.712600 1.270800
13.735300 1.375200
13.757900 1.483700
13.780600 1.595000
13.803200 1.709300
13.825900 1.646700
13.848600 1.637400
13.871200 1.708800
13.893900 1.764600
13.916500 1.812900
13.939200 1.855600
13.961900 1.893200
13.984500 1.927600
14.007200 1.961200
14.029800 2.004000
