set title 'mp-856 - Density of States'
set xlabel 'Energy (eV)'
set ylabel 'DOS (states/eV)'
set grid
set xrange [-10:10]
set yrange [0:15.510]
set xzeroaxis lt -1
set terminal png size 800,600
set output 'mp-856_dos_gnuplot.png'
plot '-' using 1:2 with lines title 'DOS'
-17.571100 0.000000
-17.549100 0.000000
-17.527000 0.000000
-17.505000 0.000000
-17.483000 0.000000
-17.460900 0.000000
-17.438900 0.000000
-17.416800 0.000000
-17.394800 0.000000
-17.372800 0.000000
-17.350700 0.000000
-17.328700 0.000000
-17.306600 0.000000
-17.284600 0.000000
-17.262600 0.000000
-17.240500 0.000000
-17.218500 0.000000
-17.196400 0.000000
-17.174400 0.000000
-17.152400 0.000000
-17.130300 0.000000
-17.108300 0.000000
-17.086200 0.000000
-17.064200 0.000000
-17.042200 0.000000
-17.020100 0.000000
-16.998100 0.000000
-16.976000 0.000000
-16.954000 0.000000
-16.932000 0.000000
-16.909900 0.000000
-16.887900 0.000000
-16.865800 0.000000
-16.843800 0.000000
-16.821800 0.000000
-16.799700 0.000000
-16.777700 0.000000
-16.755600 0.000000
-16.733600 0.000000
-16.711600 0.000000
-16.689500 0.000000
-16.667500 0.000000
-16.645400 0.000000
-16.623400 0.000000
-16.601400 0.000000
-16.579300 0.000000
-16.557300 0.000000
-16.535200 0.000000
-16.513200 0.000000
-16.491200 0.000000
-16.469100 0.000000
-16.447100 0.000000
-16.425000 0.000000
-16.403000 0.000000
-16.380900 0.000000
-16.358900 0.000000
-16.336900 0.000000
-16.314800 0.000000
-16.292800 0.000000
-16.270700 0.000000
-16.248700 0.000000
-16.226700 0.000000
-16.204600 0.000000
-16.182600 0.000000
-16.160500 0.000000
-16.138500 0.000000
-16.116500 0.000000
-16.094400 0.000000
-16.072400 0.000000
-16.050300 0.000000
-16.028300 0.000000
-16.006300 0.000000
-15.984200 0.000000
-15.962200 0.000000
-15.940100 0.000000
-15.918100 0.000000
-15.896100 0.000000
-15.874000 0.000000
-15.852000 0.000000
-15.829900 0.000000
-15.807900 0.000000
-15.785900 0.000000
-15.763800 0.000000
-15.741800 0.000000
-15.719700 0.000000
-15.697700 0.000000
-15.675700 0.000000
-15.653600 0.000000
-15.631600 0.000000
-15.609500 0.000000
-15.587500 0.000000
-15.565500 0.014300
-15.543400 0.639400
-15.521400 1.039400
-15.499300 6.779300
-15.477300 7.936600
-15.455300 8.312200
-15.433200 9.186700
-15.411200 9.959100
-15.389100 11.457200
-15.367100 15.077500
-15.345100 15.688800
-15.323000 13.546500
-15.301000 11.587500
-15.278900 9.411300
-15.256900 7.410500
-15.234800 6.811000
-15.212800 8.261500
-15.190800 6.487300
-15.168700 5.803100
-15.146700 4.918700
-15.124600 4.217300
-15.102600 3.633200
-15.080600 4.292000
-15.058500 5.043400
-15.036500 5.763000
-15.014400 6.306800
-14.992400 7.323100
-14.970400 8.566700
-14.948300 10.629400
-14.926300 9.108700
-14.904200 8.750200
-14.882200 9.024100
-14.860200 9.551200
-14.838100 11.037800
-14.816100 13.333400
-14.794000 18.731300
-14.772000 16.240900
-14.750000 18.969100
-14.727900 39.117000
-14.705900 15.253200
-14.683800 22.930800
-14.661800 22.592500
-14.639800 24.313900
-14.617700 16.421600
-14.595700 32.866900
-14.573600 59.712800
-14.551600 195.242900
-14.529600 56.320200
-14.507500 67.280500
-14.485500 0.000000
-14.463400 0.000000
-14.441400 0.000000
-14.419400 0.000000
-14.397300 0.000000
-14.375300 0.000000
-14.353200 0.000000
-14.331200 0.000000
-14.309200 0.000000
-14.287100 0.000000
-14.265100 0.000000
-14.243000 0.000000
-14.221000 0.000000
-14.199000 0.000000
-14.176900 0.000000
-14.154900 0.000000
-14.132800 0.000000
-14.110800 0.000000
-14.088700 0.000000
-14.066700 0.000000
-14.044700 0.000000
-14.022600 0.000000
-14.000600 0.000000
-13.978500 0.000000
-13.956500 0.000000
-13.934500 0.000000
-13.912400 0.000000
-13.890400 0.000000
-13.868300 0.000000
-13.846300 0.000000
-13.824300 0.000000
-13.802200 0.000000
-13.780200 0.000000
-13.758100 0.000000
-13.736100 0.000000
-13.714100 0.000000
-13.692000 0.000000
-13.670000 0.000000
-13.647900 0.000000
-13.625900 0.000000
-13.603900 0.000000
-13.581800 0.000000
-13.559800 0.000000
-13.537700 0.000000
-13.515700 0.000000
-13.493700 0.000000
-13.471600 0.000000
-13.449600 0.000000
-13.427500 0.000000
-13.405500 0.000000
-13.383500 0.000000
-13.361400 0.000000
-13.339400 0.000000
-13.317300 0.000000
-13.295300 0.000000
-13.273300 0.000000
-13.251200 0.000000
-13.229200 0.000000
-13.207100 0.000000
-13.185100 0.000000
-13.163100 0.000000
-13.141000 0.000000
-13.119000 0.104300
-13.096900 0.295900
-13.074900 0.385800
-13.052900 0.487000
-13.030800 0.521300
-13.008800 0.583800
-12.986700 0.644900
-12.964700 0.694800
-12.942600 0.726400
-12.920600 0.764700
-12.898600 0.805200
-12.876500 0.849900
-12.854500 0.888200
-12.832400 0.919300
-12.810400 0.946800
-12.788400 0.979200
-12.766300 1.011400
-12.744300 1.046300
-12.722200 1.082600
-12.700200 1.114800
-12.678200 1.143800
-12.656100 1.170100
-12.634100 1.198600
-12.612000 1.227000
-12.590000 1.257400
-12.568000 1.292800
-12.545900 1.328500
-12.523900 1.369900
-12.501800 1.573800
-12.479800 1.508900
-12.457800 1.522100
-12.435700 1.531600
-12.413700 1.513900
-12.391600 1.511800
-12.369600 1.515000
-12.347600 1.513700
-12.325500 1.539600
-12.303500 1.740200
-12.281400 1.726600
-12.259400 1.771100
-12.237400 1.827600
-12.215300 1.857500
-12.193300 1.893400
-12.171200 1.946200
-12.149200 2.000300
-12.127200 2.050400
-12.105100 2.104500
-12.083100 2.151200
-12.061000 2.209200
-12.039000 2.284400
-12.017000 2.354200
-11.994900 2.428900
-11.972900 2.505200
-11.950800 2.590400
-11.928800 2.711600
-11.906800 2.816900
-11.884700 2.926100
-11.862700 3.075400
-11.840600 3.270300
-11.818600 4.621100
-11.796500 3.488500
-11.774500 3.737000
-11.752500 3.457200
-11.730400 3.237800
-11.708400 3.289300
-11.686300 3.310800
-11.664300 3.423500
-11.642300 3.512600
-11.620200 3.613500
-11.598200 3.766400
-11.576100 3.918900
-11.554100 4.143700
-11.532100 4.513200
-11.510000 4.974100
-11.488000 4.893700
-11.465900 5.468500
-11.443900 3.852800
-11.421900 2.748500
-11.399800 2.634100
-11.377800 2.509600
-11.355700 2.375100
-11.333700 2.343500
-11.311700 2.333700
-11.289600 2.189700
-11.267600 2.130900
-11.245500 2.079800
-11.223500 2.042300
-11.201500 1.969800
-11.179400 1.939000
-11.157400 1.909000
-11.135300 1.884700
-11.113300 1.859100
-11.091300 1.832800
-11.069200 1.823700
-11.047200 1.828600
-11.025100 1.830300
-11.003100 1.805500
-10.981100 1.802800
-10.959000 1.800400
-10.937000 1.805500
-10.914900 1.813500
-10.892900 1.822900
-10.870900 1.834200
-10.848800 1.847500
-10.826800 1.871100
-10.804700 1.882200
-10.782700 1.896700
-10.760700 1.928200
-10.738600 1.963600
-10.716600 1.993000
-10.694500 2.031500
-10.672500 2.077000
-10.650400 2.206200
-10.628400 2.157300
-10.606400 2.152200
-10.584300 2.165800
-10.562300 2.225800
-10.540200 2.306100
-10.518200 2.403500
-10.496200 2.507200
-10.474100 2.734900
-10.452100 2.923900
-10.430000 2.948200
-10.408000 3.062800
-10.386000 3.258000
-10.363900 3.468100
-10.341900 3.712200
-10.319800 3.939200
-10.297800 4.278800
-10.275800 4.772200
-10.253700 5.341700
-10.231700 6.489600
-10.209600 7.021500
-10.187600 7.746900
-10.165600 10.089600
-10.143500 7.754100
-10.121500 6.646500
-10.099400 6.159600
-10.077400 5.777700
-10.055400 5.422800
-10.033300 5.269300
-10.011300 4.561600
-9.989200 0.605500
-9.967200 0.413000
-9.945200 0.041600
-9.923100 0.000000
-9.901100 0.000000
-9.879000 0.000000
-9.857000 0.000000
-9.835000 0.000000
-9.812900 0.000000
-9.790900 0.000000
-9.768800 0.000000
-9.746800 0.000000
-9.724800 0.000000
-9.702700 0.000000
-9.680700 0.000000
-9.658600 0.000000
-9.636600 0.000000
-9.614600 0.000000
-9.592500 0.000000
-9.570500 0.000000
-9.548400 0.000000
-9.526400 0.000000
-9.504300 0.000000
-9.482300 0.000000
-9.460300 0.000000
-9.438200 0.000000
-9.416200 0.000000
-9.394100 0.000000
-9.372100 0.000000
-9.350100 0.000000
-9.328000 0.000000
-9.306000 0.000000
-9.283900 0.000000
-9.261900 0.000000
-9.239900 0.000000
-9.217800 0.000000
-9.195800 0.000000
-9.173700 0.000000
-9.151700 0.000000
-9.129700 0.000000
-9.107600 0.000000
-9.085600 0.000000
-9.063500 0.000000
-9.041500 0.000000
-9.019500 0.000000
-8.997400 0.000000
-8.975400 0.000000
-8.953300 0.000000
-8.931300 0.000000
-8.909300 0.000000
-8.887200 0.000000
-8.865200 0.000000
-8.843100 0.000000
-8.821100 0.000000
-8.799100 0.000000
-8.777000 0.000000
-8.755000 0.000000
-8.732900 0.000000
-8.710900 0.000000
-8.688900 0.000000
-8.666800 0.000000
-8.644800 0.000000
-8.622700 0.000000
-8.600700 0.000000
-8.578700 0.000000
-8.556600 0.000000
-8.534600 0.000000
-8.512500 0.000000
-8.490500 0.000000
-8.468500 0.000000
-8.446400 0.000000
-8.424400 0.000000
-8.402300 0.000000
-8.380300 0.000000
-8.358200 0.000000
-8.336200 0.000000
-8.314200 0.000000
-8.292100 0.000000
-8.270100 0.000000
-8.248000 0.000000
-8.226000 0.000000
-8.204000 0.000000
-8.181900 0.000000
-8.159900 0.000000
-8.137800 0.000000
-8.115800 0.000000
-8.093800 0.000000
-8.071700 0.000000
-8.049700 0.000000
-8.027600 0.000000
-8.005600 0.000000
-7.983600 0.000000
-7.961500 0.000000
-7.939500 0.000000
-7.917400 0.000000
-7.895400 0.000000
-7.873400 0.000000
-7.851300 0.000000
-7.829300 0.000000
-7.807200 0.000000
-7.785200 0.000000
-7.763200 0.000000
-7.741100 0.000000
-7.719100 0.000000
-7.697000 0.000000
-7.675000 0.000000
-7.653000 0.000000
-7.630900 0.000000
-7.608900 0.000000
-7.586800 0.000000
-7.564800 0.000000
-7.542800 0.000000
-7.520700 0.000000
-7.498700 0.000000
-7.476600 0.000000
-7.454600 0.000000
-7.432600 0.000000
-7.410500 0.000000
-7.388500 0.000000
-7.366400 0.000000
-7.344400 0.000000
-7.322400 0.000000
-7.300300 0.000000
-7.278300 0.000000
-7.256200 0.000000
-7.234200 0.000000
-7.212100 0.000000
-7.190100 0.000000
-7.168100 0.000000
-7.146000 0.000000
-7.124000 0.000000
-7.101900 0.000000
-7.079900 0.000000
-7.057900 0.000000
-7.035800 0.000000
-7.013800 0.000000
-6.991700 0.000000
-6.969700 0.000000
-6.947700 0.000000
-6.925600 0.000000
-6.903600 0.000000
-6.881500 0.000000
-6.859500 0.000000
-6.837500 0.000000
-6.815400 0.000000
-6.793400 0.000000
-6.771300 0.000000
-6.749300 0.000000
-6.727300 0.000000
-6.705200 0.000000
-6.683200 0.000000
-6.661100 0.000000
-6.639100 0.000000
-6.617100 0.000000
-6.595000 0.000000
-6.573000 0.000000
-6.550900 0.000000
-6.528900 0.000000
-6.506900 0.000000
-6.484800 0.000000
-6.462800 0.000000
-6.440700 0.000000
-6.418700 0.000000
-6.396700 0.000000
-6.374600 0.000000
-6.352600 0.000000
-6.330500 0.000000
-6.308500 0.000000
-6.286500 0.000000
-6.264400 0.000000
-6.242400 0.000000
-6.220300 0.000000
-6.198300 0.000000
-6.176300 0.000000
-6.154200 0.000000
-6.132200 0.000000
-6.110100 0.000000
-6.088100 0.000000
-6.066000 0.000000
-6.044000 0.000000
-6.022000 0.000000
-5.999900 0.000000
-5.977900 0.000000
-5.955800 0.000000
-5.933800 0.000000
-5.911800 0.000000
-5.889700 0.000000
-5.867700 0.000000
-5.845600 0.000000
-5.823600 0.000000
-5.801600 0.000000
-5.779500 0.000000
-5.757500 0.000000
-5.735400 0.000000
-5.713400 0.000000
-5.691400 0.000000
-5.669300 0.000000
-5.647300 0.000000
-5.625200 0.000000
-5.603200 0.000000
-5.581200 0.000000
-5.559100 0.000000
-5.537100 0.000000
-5.515000 0.000000
-5.493000 0.000000
-5.471000 0.000000
-5.448900 0.000000
-5.426900 0.000000
-5.404800 0.000000
-5.382800 0.000000
-5.360800 0.000000
-5.338700 0.000000
-5.316700 0.000000
-5.294600 0.000000
-5.272600 0.000000
-5.250600 0.000000
-5.228500 0.000000
-5.206500 0.000000
-5.184400 0.000000
-5.162400 0.000000
-5.140400 0.000000
-5.118300 0.000000
-5.096300 0.000000
-5.074200 0.000000
-5.052200 0.000000
-5.030200 0.000000
-5.008100 0.000000
-4.986100 0.000000
-4.964000 0.000000
-4.942000 0.000000
-4.919900 0.000000
-4.897900 0.000000
-4.875900 0.000000
-4.853800 0.000000
-4.831800 0.000000
-4.809700 0.000000
-4.787700 0.000000
-4.765700 0.000000
-4.743600 0.000000
-4.721600 0.000000
-4.699500 0.000000
-4.677500 0.000000
-4.655500 0.000000
-4.633400 0.000000
-4.611400 0.000000
-4.589300 0.000000
-4.567300 0.000000
-4.545300 0.000000
-4.523200 0.000000
-4.501200 0.000000
-4.479100 0.000000
-4.457100 0.000000
-4.435100 0.000000
-4.413000 0.000000
-4.391000 0.000000
-4.368900 0.000000
-4.346900 0.000000
-4.324900 0.000000
-4.302800 0.000000
-4.280800 0.000000
-4.258700 0.000000
-4.236700 0.000000
-4.214700 0.000000
-4.192600 0.000000
-4.170600 0.000000
-4.148500 0.000000
-4.126500 0.000000
-4.104500 0.000000
-4.082400 0.000000
-4.060400 0.000000
-4.038300 0.000000
-4.016300 0.000000
-3.994300 0.000000
-3.972200 0.000000
-3.950200 0.000000
-3.928100 0.000000
-3.906100 0.000000
-3.884100 0.000000
-3.862000 0.000000
-3.840000 0.000000
-3.817900 0.000000
-3.795900 0.000000
-3.773800 0.000000
-3.751800 0.000000
-3.729800 0.000000
-3.707700 0.000000
-3.685700 0.000000
-3.663600 0.000000
-3.641600 0.000000
-3.619600 0.000000
-3.597500 0.000000
-3.575500 0.000000
-3.553400 0.000000
-3.531400 0.000000
-3.509400 0.000000
-3.487300 0.000000
-3.465300 0.000000
-3.443200 0.000000
-3.421200 0.000000
-3.399200 0.000000
-3.377100 0.000000
-3.355100 0.000000
-3.333000 0.000000
-3.311000 0.000000
-3.289000 0.000000
-3.266900 0.000000
-3.244900 0.000000
-3.222800 0.000000
-3.200800 0.000000
-3.178800 0.000000
-3.156700 0.000000
-3.134700 0.000000
-3.112600 0.000000
-3.090600 0.000000
-3.068600 0.000000
-3.046500 0.000000
-3.024500 0.000000
-3.002400 0.000000
-2.980400 0.000000
-2.958400 0.000000
-2.936300 0.000000
-2.914300 0.000000
-2.892200 0.000000
-2.870200 0.000000
-2.848200 0.000000
-2.826100 0.000000
-2.804100 0.000000
-2.782000 0.000000
-2.760000 0.000000
-2.738000 0.000000
-2.715900 0.000000
-2.693900 0.000000
-2.671800 0.000000
-2.649800 0.000000
-2.627700 0.000000
-2.605700 0.000000
-2.583700 0.000000
-2.561600 0.000000
-2.539600 0.000000
-2.517500 0.000000
-2.495500 0.000000
-2.473500 0.000000
-2.451400 0.000000
-2.429400 0.013100
-2.407300 0.251500
-2.385300 0.478200
-2.363300 0.477400
-2.341200 0.479000
-2.319200 0.524800
-2.297100 0.581000
-2.275100 0.647400
-2.253100 0.654700
-2.231000 0.640100
-2.209000 0.660600
-2.186900 0.688300
-2.164900 0.867200
-2.142900 0.982200
-2.120800 1.059600
-2.098800 1.166400
-2.076700 1.272900
-2.054700 1.324700
-2.032700 1.395300
-2.010600 1.450700
-1.988600 1.526600
-1.966500 1.611700
-1.944500 1.708000
-1.922500 1.820600
-1.900400 1.976000
-1.878400 2.156500
-1.856300 2.421600
-1.834300 2.535300
-1.812300 2.473500
-1.790200 2.470600
-1.768200 2.444200
-1.746100 2.385700
-1.724100 2.333800
-1.702100 2.309600
-1.680000 2.292700
-1.658000 2.643000
-1.635900 2.245800
-1.613900 2.105100
-1.591800 2.056900
-1.569800 2.011800
-1.547800 1.966200
-1.525700 1.941900
-1.503700 1.917600
-1.481600 1.892200
-1.459600 1.859100
-1.437600 1.835600
-1.415500 1.815600
-1.393500 1.810600
-1.371400 1.806700
-1.349400 1.799700
-1.327400 1.791800
-1.305300 2.047000
-1.283300 2.059100
-1.261200 2.065600
-1.239200 2.207000
-1.217200 2.222500
-1.195100 2.210600
-1.173100 2.047900
-1.151000 1.845200
-1.129000 1.804500
-1.107000 1.802600
-1.084900 2.033200
-1.062900 2.186300
-1.040800 1.628400
-1.018800 1.541600
-0.996800 1.459000
-0.974700 1.396700
-0.952700 1.335400
-0.930600 1.260000
-0.908600 1.211500
-0.886600 1.181300
-0.864500 1.161400
-0.842500 1.141600
-0.820400 1.122800
-0.798400 1.098900
-0.776400 1.084500
-0.754300 1.075600
-0.732300 1.081800
-0.710200 1.090500
-0.688200 1.097200
-0.666200 1.138300
-0.644100 1.657100
-0.622100 1.355400
-0.600000 1.244100
-0.578000 1.231600
-0.556000 1.193800
-0.533900 1.166000
-0.511900 1.130100
-0.489800 1.111700
-0.467800 1.092400
-0.445700 1.076400
-0.423700 1.065100
-0.401700 1.053200
-0.379600 1.040400
-0.357600 1.019100
-0.335500 1.007000
-0.313500 0.993800
-0.291500 0.986600
-0.269400 0.985200
-0.247400 0.973100
-0.225300 0.957200
-0.203300 0.947300
-0.181300 0.937600
-0.159200 0.921800
-0.137200 0.915300
-0.115100 0.893800
-0.093100 0.882000
-0.071100 0.885300
-0.049000 0.891900
-0.027000 0.856700
-0.004900 0.794900
0.017100 0.728500
0.039100 0.705300
0.061200 0.693400
0.083200 0.670000
0.105300 0.649900
0.127300 0.611900
0.149300 0.595800
0.171400 0.580700
0.193400 0.614200
0.215500 0.765100
0.237500 0.908500
0.259500 1.072400
0.281600 1.177500
0.303600 1.209300
0.325700 1.279000
0.347700 1.343800
0.369700 1.563300
0.391800 1.644000
0.413800 1.703200
0.435900 1.797800
0.457900 1.894800
0.479900 1.909200
0.502000 1.906000
0.524000 1.912100
0.546100 1.915500
0.568100 1.906100
0.590100 1.904300
0.612200 1.900400
0.634200 1.885800
0.656300 1.892200
0.678300 1.901900
0.700400 1.924000
0.722400 1.955100
0.744400 1.992500
0.766500 2.173300
0.788500 2.543100
0.810600 2.955600
0.832600 2.937900
0.854600 2.954600
0.876700 2.905500
0.898700 2.783600
0.920800 2.686000
0.942800 2.550500
0.964800 2.491100
0.986900 2.465000
1.008900 2.467100
1.031000 2.473300
1.053000 2.486200
1.075000 2.535700
1.097100 2.553800
1.119100 2.576200
1.141200 2.609000
1.163200 2.628200
1.185200 2.667600
1.207300 2.714700
1.229300 2.780300
1.251400 2.810900
1.273400 2.850900
1.295400 2.900700
1.317500 2.952600
1.339500 2.994100
1.361600 3.046100
1.383600 3.069300
1.405600 3.335000
1.427700 3.359000
1.449700 3.393100
1.471800 3.360000
1.493800 3.451200
1.515800 3.660500
1.537900 3.680000
1.559900 3.761700
1.582000 3.829200
1.604000 3.991600
1.626000 4.524500
1.648100 4.716700
1.670100 4.720300
1.692200 4.459600
1.714200 4.352400
1.736200 4.474900
1.758300 4.351800
1.780300 4.611500
1.802400 4.670200
1.824400 4.690700
1.846500 4.474400
1.868500 4.653400
1.890500 4.528600
1.912600 4.353000
1.934600 4.141700
1.956700 3.924600
1.978700 3.663500
2.000700 3.434200
2.022800 3.215500
2.044800 3.128300
2.066900 3.147400
2.088900 3.264700
2.110900 3.303500
2.133000 3.312900
2.155000 3.297600
2.177100 3.285800
2.199100 3.239400
2.221100 3.262000
2.243200 3.357700
2.265200 3.620600
2.287300 3.680400
2.309300 3.589000
2.331300 3.509800
2.353400 3.410500
2.375400 3.271800
2.397500 3.112100
2.419500 2.870200
2.441500 2.864900
2.463600 2.770100
2.485600 2.762700
2.507700 2.857800
2.529700 2.923400
2.551700 3.063100
2.573800 3.213400
2.595800 3.261600
2.617900 3.270700
2.639900 3.725000
2.661900 3.363700
2.684000 3.260800
2.706000 3.099100
2.728100 3.821900
2.750100 3.299000
2.772100 3.522200
2.794200 3.621000
2.816200 3.171600
2.838300 3.107700
2.860300 3.116300
2.882300 3.151300
2.904400 3.171100
2.926400 3.413700
2.948500 3.499300
2.970500 3.391000
2.992600 3.302900
3.014600 3.277400
3.036600 3.293500
3.058700 3.432200
3.080700 3.642400
3.102800 3.550000
3.124800 3.474200
3.146800 3.312800
3.168900 3.090200
3.190900 2.939300
3.213000 2.879100
3.235000 2.841200
3.257000 2.843300
3.279100 2.801700
3.301100 2.963400
3.323200 3.252100
3.345200 3.370600
3.367200 3.451700
3.389300 3.485700
3.411300 3.544300
3.433400 3.634500
3.455400 3.681000
3.477400 3.854900
3.499500 4.028100
3.521500 3.407500
3.543600 3.357100
3.565600 3.417600
3.587600 3.471900
3.609700 3.573200
3.631700 3.790200
3.653800 4.011200
3.675800 4.520700
3.697800 4.604100
3.719900 4.364800
3.741900 4.515500
3.764000 4.623900
3.786000 4.717200
3.808000 4.905100
3.830100 5.320700
3.852100 6.086400
3.874200 6.524500
3.896200 6.440300
3.918200 6.596000
3.940300 5.955600
3.962300 5.267500
3.984400 5.012800
4.006400 4.475300
4.028400 4.791300
4.050500 5.550500
4.072500 7.071900
4.094600 5.973900
4.116600 5.518700
4.138700 5.971800
4.160700 6.524100
4.182700 7.672200
4.204800 8.523100
4.226800 8.618300
4.248900 8.780100
4.270900 10.036300
4.292900 10.107700
4.315000 6.074900
4.337000 6.321500
4.359100 6.238600
4.381100 6.596800
4.403100 7.020100
4.425200 7.648600
4.447200 8.768400
4.469300 9.577100
4.491300 8.793100
4.513300 9.814100
4.535400 6.692900
4.557400 6.105400
4.579500 6.205800
4.601500 7.864500
4.623500 10.181400
4.645600 9.850600
4.667600 9.561000
4.689700 11.004300
4.711700 14.100100
4.733700 13.394700
4.755800 12.566800
4.777800 13.754800
4.799900 7.860600
4.821900 5.735100
4.843900 5.007000
4.866000 4.929600
4.888000 4.475700
4.910100 3.876500
4.932100 3.316800
4.954100 3.084000
4.976200 2.807100
4.998200 2.588600
5.020300 2.345700
5.042300 2.116000
5.064300 1.949400
5.086400 1.807000
5.108400 1.623400
