set title 'mp-971631 - Density of States'
set xlabel 'Energy (eV)'
set ylabel 'DOS (states/eV)'
set grid
set xrange [-10:10]
set yrange [0:34.875]
set xzeroaxis lt -1
set terminal png size 800,600
set output 'mp-971631_dos_gnuplot.png'
plot '-' using 1:2 with lines title 'DOS'
-13.481100 0.000000
-13.441000 0.000000
-13.400800 0.000000
-13.360700 0.000000
-13.320500 0.000000
-13.280400 0.000000
-13.240200 0.000000
-13.200100 0.000000
-13.159900 0.000000
-13.119800 0.000000
-13.079600 0.000000
-13.039500 0.000000
-12.999300 0.000000
-12.959200 0.000000
-12.919000 0.000000
-12.878900 0.000000
-12.838700 0.000000
-12.798600 0.000000
-12.758400 0.000000
-12.718300 0.000000
-12.678100 0.000000
-12.638000 0.000000
-12.597800 0.000000
-12.557700 0.000000
-12.517500 0.000000
-12.477400 0.000000
-12.437200 0.000000
-12.397100 0.000000
-12.356900 0.000000
-12.316800 0.000000
-12.276600 0.000000
-12.236500 0.000000
-12.196300 0.000000
-12.156200 0.000000
-12.116000 0.000000
-12.075900 0.000000
-12.035700 0.000000
-11.995600 0.000000
-11.955400 0.000000
-11.915300 0.000000
-11.875100 0.000000
-11.835000 0.000000
-11.794800 0.000000
-11.754700 0.000000
-11.714500 0.000000
-11.674400 0.000000
-11.634200 0.000000
-11.594100 0.000000
-11.553900 0.000000
-11.513800 0.000000
-11.473600 0.000000
-11.433500 0.000000
-11.393300 0.000000
-11.353200 0.000000
-11.313000 0.000000
-11.272900 0.000000
-11.232700 0.000000
-11.192600 0.000000
-11.152400 0.000000
-11.112300 0.000000
-11.072100 0.000000
-11.032000 0.000000
-10.991800 0.000000
-10.951700 0.000000
-10.911500 0.000000
-10.871400 0.000000
-10.831200 0.000000
-10.791100 0.000000
-10.750900 0.000000
-10.710800 0.000000
-10.670600 0.000000
-10.630500 0.000000
-10.590300 0.000000
-10.550200 0.000000
-10.510000 0.000000
-10.469900 0.000000
-10.429700 0.000000
-10.389600 0.000000
-10.349400 0.000000
-10.309300 0.000000
-10.269100 0.000000
-10.229000 0.000000
-10.188800 0.000000
-10.148700 0.000000
-10.108500 0.000000
-10.068400 0.000000
-10.028200 0.000000
-9.988100 0.000000
-9.947900 0.000000
-9.907800 0.000000
-9.867600 0.000000
-9.827500 0.757300
-9.787300 2.015000
-9.747200 2.489300
-9.707000 3.361800
-9.666900 5.408400
-9.626700 7.722900
-9.586600 8.103300
-9.546400 7.715300
-9.506300 7.938000
-9.466100 20.250600
-9.426000 21.949800
-9.385800 21.866200
-9.345700 31.038400
-9.305500 19.595300
-9.265400 19.323100
-9.225200 23.097600
-9.185100 31.704800
-9.144900 7.413000
-9.104800 5.610000
-9.064600 1.881800
-9.024500 1.515500
-8.984300 1.389500
-8.944200 1.183700
-8.904000 0.000000
-8.863900 0.000000
-8.823700 0.000000
-8.783600 0.000000
-8.743400 0.000000
-8.703300 0.000000
-8.663100 0.000000
-8.623000 0.000000
-8.582800 0.000000
-8.542700 0.000000
-8.502500 0.000000
-8.462400 0.000000
-8.422200 0.000000
-8.382100 0.000000
-8.341900 0.000000
-8.301800 0.000000
-8.261600 0.019500
-8.221500 0.091000
-8.181300 0.122300
-8.141200 0.144100
-8.101000 0.172600
-8.060900 0.207000
-8.020700 0.241200
-7.980600 0.281700
-7.940400 0.307500
-7.900300 0.294600
-7.860100 0.299100
-7.820000 0.306500
-7.779800 0.311200
-7.739700 0.306500
-7.699500 0.302000
-7.659400 0.303300
-7.619200 0.304600
-7.579100 0.305900
-7.538900 0.306800
-7.498800 0.307600
-7.458600 0.306100
-7.418500 0.306600
-7.378300 0.309700
-7.338200 0.310700
-7.298000 0.310000
-7.257900 0.310200
-7.217700 0.310900
-7.177600 0.311400
-7.137400 0.311500
-7.097300 0.311100
-7.057100 0.309500
-7.017000 0.309900
-6.976800 0.311300
-6.936700 0.313000
-6.896500 0.315000
-6.856400 0.316900
-6.816200 0.317200
-6.776100 0.317400
-6.735900 0.317700
-6.695800 0.318000
-6.655600 0.318000
-6.615500 0.317700
-6.575300 0.316800
-6.535200 0.316900
-6.495000 0.317700
-6.454900 0.318700
-6.414700 0.319900
-6.374600 0.321300
-6.334400 0.323000
-6.294300 0.324700
-6.254100 0.326200
-6.214000 0.326700
-6.173800 0.327200
-6.133700 0.327900
-6.093500 0.328400
-6.053400 0.328800
-6.013200 0.328700
-5.973100 0.329000
-5.932900 0.329900
-5.892800 0.330900
-5.852600 0.332000
-5.812500 0.333200
-5.772300 0.334600
-5.732200 0.336100
-5.692000 0.337700
-5.651900 0.339300
-5.611700 0.341000
-5.571600 0.342700
-5.531400 0.344400
-5.491300 0.346200
-5.451100 0.348000
-5.411000 0.349900
-5.370800 0.351900
-5.330700 0.353900
-5.290500 0.355900
-5.250400 0.357900
-5.210200 0.360000
-5.170100 0.362000
-5.129900 0.364100
-5.089800 0.366100
-5.049600 0.368200
-5.009500 0.370300
-4.969300 0.372300
-4.929200 0.375900
-4.889000 0.383700
-4.848900 0.391800
-4.808700 0.400600
-4.768600 0.423100
-4.728400 0.467500
-4.688300 0.479700
-4.648100 0.489800
-4.608000 0.507200
-4.567800 0.525000
-4.527700 0.540200
-4.487500 0.549900
-4.447400 0.653900
-4.407200 0.738800
-4.367100 0.704200
-4.326900 0.732600
-4.286800 0.638100
-4.246600 0.596000
-4.206500 0.565200
-4.166300 0.543000
-4.126200 0.523400
-4.086000 0.508500
-4.045900 0.504200
-4.005700 0.499600
-3.965600 0.495200
-3.925400 0.483800
-3.885300 0.476500
-3.845100 0.469400
-3.805000 0.463500
-3.764800 0.461000
-3.724700 0.458800
-3.684500 0.456900
-3.644400 0.455100
-3.604200 0.453200
-3.564100 0.449800
-3.523900 0.445000
-3.483800 0.441800
-3.443600 0.438600
-3.403500 0.436800
-3.363300 0.437200
-3.323200 0.437700
-3.283000 0.438300
-3.242900 0.438900
-3.202700 0.439600
-3.162600 0.442700
-3.122400 0.445700
-3.082300 0.448300
-3.042100 0.448900
-3.002000 0.450900
-2.961800 0.453100
-2.921700 0.454700
-2.881500 0.458600
-2.841400 0.462000
-2.801200 0.460100
-2.761100 0.456500
-2.720900 0.454800
-2.680800 0.452700
-2.640600 0.449800
-2.600500 0.446500
-2.560300 0.444200
-2.520200 0.441300
-2.480000 0.438400
-2.439900 0.434000
-2.399700 0.430300
-2.359600 0.426600
-2.319400 0.422700
-2.279300 0.420300
-2.239100 0.418200
-2.199000 0.416100
-2.158800 0.414000
-2.118700 0.412000
-2.078500 0.410100
-2.038400 0.408100
-1.998200 0.406100
-1.958100 0.404000
-1.917900 0.401900
-1.877800 0.399900
-1.837600 0.398200
-1.797500 0.396500
-1.757300 0.394200
-1.717200 0.391900
-1.677000 0.389500
-1.636900 0.387300
-1.596700 0.385300
-1.556600 0.383400
-1.516400 0.381500
-1.476300 0.379800
-1.436100 0.378200
-1.396000 0.376700
-1.355800 0.375200
-1.315700 0.373800
-1.275500 0.372500
-1.235400 0.371300
-1.195200 0.370200
-1.155000 0.369100
-1.114900 0.368100
-1.074700 0.367100
-1.034600 0.367700
-0.994400 0.367700
-0.954300 0.368000
-0.914100 0.366200
-0.874000 0.385300
-0.833800 0.481100
-0.793700 0.477400
-0.753500 0.503400
-0.713400 0.532000
-0.673200 0.569800
-0.633100 0.606100
-0.592900 0.648900
-0.552800 0.676400
-0.512600 0.686500
-0.472500 0.721100
-0.432300 0.689400
-0.392200 0.604900
-0.352000 0.593900
-0.311900 0.586600
-0.271700 0.588500
-0.231600 0.618200
-0.191400 0.635900
-0.151300 0.600800
-0.111100 0.578300
-0.071000 0.620400
-0.030800 0.635200
0.009300 0.607500
0.049500 0.614100
0.089600 0.625200
0.129800 0.666900
0.169900 0.731600
0.210100 0.701200
0.250200 0.666400
0.290400 0.660300
0.330500 0.659400
0.370700 0.655800
0.410800 0.657900
0.451000 0.660300
0.491100 0.663900
0.531300 0.666900
0.571400 0.669000
0.611600 0.668800
0.651700 0.668000
0.691900 0.672300
0.732000 0.681400
0.772200 0.691800
0.812300 0.704900
0.852500 0.715500
0.892600 0.727500
0.932800 0.740300
0.972900 0.755000
1.013100 0.790600
1.053200 0.810400
1.093400 0.801600
1.133500 0.795100
1.173700 0.796100
1.213800 0.796000
1.254000 0.795400
1.294100 0.796400
1.334300 0.795400
1.374400 0.795600
1.414600 0.795200
1.454700 0.794400
1.494900 0.793300
1.535000 0.792100
1.575200 0.790700
1.615300 0.791100
1.655500 0.792800
1.695600 0.792800
1.735800 0.792100
1.775900 0.790500
1.816100 0.816700
1.856200 0.828100
1.896400 0.840000
1.936500 0.852300
1.976700 0.866700
2.016800 0.934200
2.057000 0.917000
2.097100 0.896100
2.137300 0.863500
2.177400 0.860600
2.217600 0.838400
2.257700 0.855400
2.297900 0.849000
2.338000 0.830300
2.378200 0.823600
2.418300 0.836600
2.458500 0.815100
2.498600 0.822000
2.538800 0.823700
2.578900 0.841800
2.619100 0.866600
2.659200 0.895200
2.699400 0.929100
2.739500 0.951600
2.779700 0.969300
2.819800 0.966500
2.860000 0.962400
2.900100 0.973200
2.940300 1.025100
2.980400 1.079600
3.020600 1.010400
3.060700 0.960400
3.100900 0.904000
3.141000 0.893600
3.181200 0.869600
3.221300 0.857600
3.261500 0.849300
3.301600 0.840900
3.341800 0.854000
3.381900 0.847200
3.422100 0.876500
3.462200 0.885300
3.502400 0.871500
3.542500 0.863900
3.582700 0.831500
3.622800 0.841800
3.663000 0.857400
3.703100 0.871400
3.743300 0.890300
3.783400 0.909400
3.823600 0.936100
3.863700 1.007300
3.903900 1.032900
3.944000 1.030500
3.984200 0.986400
4.024300 0.984700
4.064500 0.983600
4.104600 0.967600
4.144800 0.989100
4.184900 0.953400
4.225100 0.949900
4.265200 0.949900
4.305400 0.954400
4.345500 0.962200
4.385700 0.936700
4.425800 0.929900
4.466000 0.895600
4.506100 0.864900
4.546300 0.855300
4.586400 0.840400
4.626600 0.812700
4.666700 0.818300
4.706900 0.851200
4.747000 0.818300
4.787200 0.831900
4.827300 0.835400
4.867500 0.815900
4.907600 0.794600
4.947800 0.790400
4.987900 0.794400
5.028100 0.773500
5.068200 0.724300
5.108400 0.727100
5.148500 0.728100
5.188700 0.734400
5.228800 0.745700
5.269000 0.759800
5.309100 0.775800
5.349300 0.842200
5.389400 0.847900
5.429600 0.814300
5.469700 0.813400
5.509900 0.813400
5.550000 0.806000
5.590200 0.804700
5.630300 0.856200
5.670500 0.875900
5.710600 0.764300
5.750800 0.754300
5.790900 0.735500
5.831100 0.710900
5.871200 0.706700
5.911400 0.741800
5.951500 0.763500
5.991700 0.799000
6.031800 0.820900
6.072000 0.821200
6.112100 0.794800
6.152300 0.801800
6.192400 0.811700
6.232600 0.839400
6.272700 0.840300
6.312900 0.832200
6.353000 0.824600
6.393200 0.801500
6.433300 0.772900
6.473500 0.756800
6.513600 0.745800
6.553800 0.748600
6.593900 0.774000
6.634100 0.796000
6.674200 0.781500
6.714400 0.894900
6.754500 0.861400
6.794700 0.817300
6.834800 0.858000
6.875000 0.924600
6.915100 0.969700
6.955300 0.958300
6.995400 0.970000
7.035600 0.952800
7.075700 0.960100
7.115900 0.979800
7.156000 1.003400
7.196200 1.030400
7.236300 0.977000
7.276500 0.977400
7.316600 0.973000
7.356800 0.966500
7.396900 0.941500
7.437100 0.956900
7.477200 0.867700
7.517400 0.833200
7.557500 0.816900
7.597700 0.784500
7.637800 0.741400
7.678000 0.736500
7.718100 0.758500
7.758300 0.770800
7.798400 0.755800
7.838600 0.748100
7.878700 0.774600
7.918900 0.701600
7.959000 0.667300
7.999200 0.655800
8.039300 0.641700
8.079500 0.632300
8.119600 0.621600
8.159800 0.599400
8.199900 0.569700
8.240100 0.584800
8.280200 0.543400
8.320400 0.564000
8.360500 0.613900
8.400700 0.603100
8.440800 0.648100
8.481000 0.649200
8.521100 0.649200
8.561300 0.661200
8.601400 0.662600
8.641600 0.668800
8.681700 0.659300
8.721900 0.671200
8.762000 0.681600
8.802200 0.677600
8.842300 0.681800
8.882500 0.687400
8.922600 0.700100
8.962800 0.697800
9.002900 0.694000
9.043100 0.695800
9.083200 0.722300
9.123400 0.755300
9.163500 0.762500
9.203700 0.775000
9.243800 0.799200
9.284000 0.839400
9.324100 0.792600
9.364300 0.842800
9.404400 0.844700
9.444600 0.835300
9.484700 0.804200
9.524900 0.803100
9.565000 0.806500
9.605200 0.813400
9.645300 0.827400
9.685500 0.853100
9.725600 0.889200
9.765800 0.879200
9.805900 0.877400
9.846100 1.040900
9.886200 0.900300
9.926400 0.920000
9.966500 0.932000
10.006700 0.944600
10.046800 0.963500
10.087000 0.981600
10.127100 0.992300
10.167300 0.998500
10.207400 1.023000
10.247600 1.043500
10.287700 1.055400
10.327900 1.106900
10.368000 1.107300
10.408200 1.118700
10.448300 1.132500
10.488500 1.236300
10.528600 1.214100
10.568800 1.173000
10.608900 1.193800
10.649100 1.191900
10.689200 1.199100
10.729400 1.214100
10.769500 1.219400
10.809700 1.226900
10.849800 1.237800
10.890000 1.230500
10.930100 1.216600
10.970300 1.264100
11.010400 1.318500
11.050600 1.312100
11.090700 1.357400
11.130900 1.372100
11.171000 1.354900
11.211200 1.335300
11.251300 1.342400
11.291500 1.347700
11.331600 1.321100
11.371800 1.299700
11.411900 1.283200
11.452100 1.267500
11.492200 1.230700
11.532400 1.195900
11.572500 1.188900
11.612700 1.166000
11.652800 1.094100
11.693000 1.056900
11.733100 1.023900
11.773300 0.984500
11.813400 0.949100
11.853600 0.922200
11.893700 0.910300
11.933900 0.903000
11.974000 0.912000
12.014200 0.921500
12.054300 0.981700
12.094500 0.982200
12.134600 1.016700
12.174800 0.994600
12.214900 1.008400
12.255100 1.029400
12.295200 1.051800
12.335400 1.041000
12.375500 1.036300
12.415700 1.043000
12.455800 1.071200
12.496000 1.096600
12.536100 1.104800
12.576300 1.131900
12.616400 1.161000
12.656600 1.162400
12.696700 1.189600
12.736900 1.178300
12.777000 1.182000
12.817200 1.169700
12.857300 1.168000
12.897500 1.156500
12.937600 1.160200
12.977800 1.155300
13.017900 1.137700
13.058100 1.112200
13.098200 1.063500
13.138400 1.033600
13.178500 0.953500
13.218700 0.911400
13.258800 0.882500
13.299000 0.870400
13.339100 0.867800
13.379300 0.874100
13.419400 0.887900
13.459600 0.899200
13.499700 0.903400
13.539900 0.905000
13.580000 0.905100
13.620200 0.909900
13.660300 0.927200
13.700500 0.937400
13.740600 0.946200
13.780800 0.959200
13.820900 0.981000
13.861100 1.004900
13.901200 1.031300
13.941400 1.050700
13.981500 1.051400
14.021700 1.043800
14.061800 1.040800
14.102000 1.043300
14.142100 1.042600
14.182300 1.040100
14.222400 1.055800
14.262600 1.034800
14.302700 1.027400
14.342900 1.011100
14.383000 1.002400
14.423200 1.047700
14.463300 1.055200
14.503500 1.166000
14.543600 1.186800
14.583800 1.140600
14.623900 1.152700
14.664100 1.110300
14.704200 1.095300
14.744400 1.085100
14.784500 1.088700
14.824700 1.071500
14.864800 1.021500
14.905000 0.980500
14.945100 0.963100
14.985300 0.958100
15.025400 0.974100
15.065600 0.980000
15.105700 0.994100
15.145900 1.039600
15.186000 1.023700
15.226200 1.036800
15.266300 1.048400
15.306500 1.055800
15.346600 1.074000
15.386800 1.088400
15.426900 1.094300
15.467100 1.107800
15.507200 1.115900
15.547400 1.122000
15.587500 1.120900
15.627700 1.111600
15.667800 1.096600
15.708000 1.046700
15.748100 1.034000
15.788300 1.046700
15.828400 1.032000
15.868600 1.024900
15.908700 1.017100
15.948900 1.001000
15.989000 0.998500
16.029200 0.993600
16.069300 1.000000
16.109500 1.031100
16.149600 1.019700
16.189800 1.016000
16.229900 1.039800
16.270100 1.050900
16.310200 1.066800
16.350400 1.079600
16.390500 1.095100
16.430700 1.113200
16.470800 1.144200
16.511000 1.170400
16.551100 1.199600
16.591300 1.241300
16.631400 1.293700
16.671600 1.311400
16.711700 1.329100
16.751900 1.345700
16.792000 1.353200
16.832200 1.355900
16.872300 1.353200
16.912500 1.336600
16.952600 1.298000
16.992800 1.256500
17.032900 1.252200
17.073100 1.219900
17.113200 1.199200
17.153400 1.183600
17.193500 1.176000
17.233700 1.170100
17.273800 1.185300
17.314000 1.201500
17.354100 1.220900
17.394300 1.235000
17.434400 1.235300
17.474600 1.242900
17.514700 1.269200
17.554900 1.287600
17.595000 1.281900
17.635200 1.267600
17.675300 1.266500
17.715500 1.273800
17.755600 1.308700
17.795800 1.300500
17.835900 1.275800
17.876100 1.259700
17.916200 1.221700
17.956400 1.228400
17.996500 1.209200
18.036700 1.185000
18.076800 1.173700
18.117000 1.177200
18.157100 1.186300
18.197300 1.199000
18.237400 1.210300
18.277600 1.227000
18.317700 1.246600
18.357900 1.257400
18.398000 1.259400
18.438200 1.263100
18.478300 1.258100
18.518500 1.243500
18.558600 1.245800
18.598800 1.269800
18.639000 1.290900
18.679100 1.290300
18.719300 1.280100
18.759400 1.277100
18.799600 1.278200
18.839700 1.285700
18.879900 1.295800
18.920000 1.308600
18.960200 1.276900
19.000300 1.251900
19.040500 1.226300
19.080600 1.207800
19.120800 1.196600
19.160900 1.188700
19.201100 1.194900
19.241200 1.181300
19.281400 1.182100
19.321500 1.187300
19.361700 1.187500
19.401800 1.181800
19.442000 1.179500
19.482100 1.224600
19.522300 1.202400
19.562400 1.215500
19.602600 1.222200
19.642700 1.211300
19.682900 1.193100
19.723000 1.172300
19.763200 1.164200
19.803300 1.164000
19.843500 1.154900
19.883600 1.146200
19.923800 1.164600
19.963900 1.204000
20.004100 1.282700
20.044200 1.356500
20.084400 1.418000
20.124500 1.503600
20.164700 1.591300
20.204800 1.641200
20.245000 1.647400
20.285100 1.646300
20.325300 1.645200
20.365400 1.619100
20.405600 1.568900
20.445700 1.507700
20.485900 1.442300
20.526000 1.392100
20.566200 1.328500
20.606300 1.273200
20.646500 1.230200
20.686600 1.196500
20.726800 1.185700
20.766900 1.204800
20.807100 1.207700
20.847200 1.175300
20.887400 1.159200
20.927500 1.144700
20.967700 1.118100
21.007800 1.092900
21.048000 1.071600
21.088100 1.040500
21.128300 1.024900
21.168400 1.012200
21.208600 1.008100
21.248700 0.991700
21.288900 0.997100
21.329000 1.013100
21.369200 1.039900
21.409300 1.093000
21.449500 1.163500
21.489600 1.226000
21.529800 1.288300
21.569900 1.339700
21.610100 1.386300
21.650200 1.411200
21.690400 1.411100
21.730500 1.385700
21.770700 1.405600
21.810800 1.389500
21.851000 1.397200
21.891100 1.416600
21.931300 1.443900
21.971400 1.444200
22.011600 1.457100
22.051700 1.400400
22.091900 1.381000
22.132000 1.368600
22.172200 1.352400
22.212300 1.317700
22.252500 1.290300
22.292600 1.269000
22.332800 1.251700
22.372900 1.229900
22.413100 1.202500
22.453200 1.182600
22.493400 1.189000
22.533500 1.170900
22.573700 1.161400
22.613800 1.182400
22.654000 1.204400
22.694100 1.229200
22.734300 1.256300
22.774400 1.275900
22.814600 1.301600
22.854700 1.315300
22.894900 1.351000
22.935000 1.395600
22.975200 1.415000
23.015300 1.429700
23.055500 1.439700
23.095600 1.462700
23.135800 1.487900
23.175900 1.470400
23.216100 1.462200
23.256200 1.469700
23.296400 1.492400
23.336500 1.452500
23.376700 1.424500
23.416800 1.388200
23.457000 1.362700
23.497100 1.353000
23.537300 1.339900
23.577400 1.343000
23.617600 1.332800
23.657700 1.342000
23.697900 1.346300
23.738000 1.347700
23.778200 1.346000
23.818300 1.347300
23.858500 1.366300
23.898600 1.381900
23.938800 1.424200
23.978900 1.411200
24.019100 1.424100
24.059200 1.448700
24.099400 1.417100
24.139500 1.411400
24.179700 1.418800
24.219800 1.433500
24.260000 1.371100
24.300100 1.326400
24.340300 1.289000
24.380400 1.277900
24.420600 1.272900
24.460700 1.295400
24.500900 1.321300
24.541000 1.360100
24.581200 1.359200
24.621300 1.344600
24.661500 1.348300
24.701600 1.335600
24.741800 1.316700
24.781900 1.313400
24.822100 1.307100
24.862200 1.302100
24.902400 1.296400
24.942500 1.302700
24.982700 1.316200
25.022800 1.328900
25.063000 1.333600
25.103100 1.311400
25.143300 1.292900
25.183400 1.289400
25.223600 1.286900
25.263700 1.306700
25.303900 1.322000
25.344000 1.353200
25.384200 1.384200
25.424300 1.408900
25.464500 1.435600
25.504600 1.432900
25.544800 1.450200
25.584900 1.475400
25.625100 1.506600
25.665200 1.513200
25.705400 1.530000
25.745500 1.549400
25.785700 1.568400
25.825800 1.601300
25.866000 1.609400
25.906100 1.609200
25.946300 1.597500
25.986400 1.573400
26.026600 1.539300
26.066700 1.500300
26.106900 1.460800
26.147000 1.410200
26.187200 1.349400
26.227300 1.318600
26.267500 1.284200
26.307600 1.258400
26.347800 1.250600
26.387900 1.247500
26.428100 1.259800
26.468200 1.272200
26.508400 1.263900
26.548500 1.255300
26.588700 1.250800
26.628800 1.255000
26.669000 1.312000
26.709100 1.360100
26.749300 1.367200
26.789400 1.326600
26.829600 1.294200
26.869700 1.274400
26.909900 1.270500
26.950000 1.258600
26.990200 1.239800
27.030300 1.261800
27.070500 1.261400
27.110600 1.302200
27.150800 1.328400
27.190900 1.346800
27.231100 1.356200
27.271200 1.365100
27.311400 1.360100
27.351500 1.370700
27.391700 1.432500
27.431800 1.440500
27.472000 1.444600
27.512100 1.450200
27.552300 1.445800
27.592400 1.466700
27.632600 1.506500
27.672700 1.531900
27.712900 1.566600
27.753000 1.600700
27.793200 1.599300
27.833300 1.634500
27.873500 1.674600
27.913600 1.709300
27.953800 1.734600
27.993900 1.785600
28.034100 1.757700
28.074200 1.687000
28.114400 1.563500
28.154500 1.394600
28.194700 1.302900
28.234800 1.232800
28.275000 1.181600
28.315100 1.134900
28.355300 1.100300
28.395400 1.058700
28.435600 1.046200
28.475700 1.153600
