set title 'mp-1105 - Density of States'
set xlabel 'Energy (eV)'
set ylabel 'DOS (states/eV)'
set grid
set xrange [-10:10]
set yrange [0:13.403]
set xzeroaxis lt -1
set terminal png size 800,600
set output 'mp-1105_dos_gnuplot.png'
plot '-' using 1:2 with lines title 'DOS'
-30.170300 0.000000
-30.104200 0.000000
-30.038200 0.000000
-29.972200 0.000000
-29.906200 0.000000
-29.840200 0.000000
-29.774100 0.000000
-29.708100 0.000000
-29.642100 0.000000
-29.576100 0.000000
-29.510100 0.000000
-29.444000 0.000000
-29.378000 0.000000
-29.312000 0.000000
-29.246000 0.000000
-29.179900 0.000000
-29.113900 0.000000
-29.047900 0.000000
-28.981900 0.000000
-28.915900 0.000000
-28.849800 0.000000
-28.783800 0.000000
-28.717800 0.000000
-28.651800 0.000000
-28.585800 0.000000
-28.519700 0.000000
-28.453700 0.000000
-28.387700 0.000000
-28.321700 0.000000
-28.255600 0.000000
-28.189600 0.000000
-28.123600 0.000000
-28.057600 0.000000
-27.991600 0.000000
-27.925500 0.000000
-27.859500 0.000000
-27.793500 0.000000
-27.727500 0.000000
-27.661500 0.000000
-27.595400 0.000000
-27.529400 0.000000
-27.463400 0.000000
-27.397400 0.000000
-27.331400 0.000000
-27.265300 0.000000
-27.199300 0.000000
-27.133300 0.000000
-27.067300 0.000000
-27.001200 0.000000
-26.935200 0.000000
-26.869200 0.000000
-26.803200 0.000000
-26.737200 0.000000
-26.671100 0.000000
-26.605100 0.000000
-26.539100 0.000000
-26.473100 0.000000
-26.407100 0.000000
-26.341000 0.000000
-26.275000 0.000000
-26.209000 0.000000
-26.143000 0.000000
-26.077000 0.000000
-26.010900 0.000000
-25.944900 0.000000
-25.878900 0.000000
-25.812900 0.000000
-25.746800 0.000000
-25.680800 0.000000
-25.614800 0.000000
-25.548800 0.000000
-25.482800 0.000000
-25.416700 0.000000
-25.350700 0.000000
-25.284700 0.000000
-25.218700 0.000000
-25.152700 0.000000
-25.086600 0.000000
-25.020600 0.000000
-24.954600 0.000000
-24.888600 0.000000
-24.822600 0.000000
-24.756500 0.000000
-24.690500 0.000000
-24.624500 0.000000
-24.558500 0.000000
-24.492400 0.000000
-24.426400 0.000000
-24.360400 0.000000
-24.294400 0.000000
-24.228400 0.000000
-24.162300 0.038200
-24.096300 2.322600
-24.030300 6.555100
-23.964300 16.229100
-23.898300 8.777000
-23.832200 0.000000
-23.766200 0.000000
-23.700200 0.000000
-23.634200 0.000000
-23.568100 0.000000
-23.502100 0.000000
-23.436100 0.000000
-23.370100 0.000000
-23.304100 0.000000
-23.238000 0.000000
-23.172000 0.000000
-23.106000 0.000000
-23.040000 0.000000
-22.974000 0.000000
-22.907900 0.000000
-22.841900 0.000000
-22.775900 0.000000
-22.709900 0.000000
-22.643900 0.000000
-22.577800 0.000000
-22.511800 0.000000
-22.445800 0.000000
-22.379800 0.000000
-22.313700 0.000000
-22.247700 0.000000
-22.181700 0.000000
-22.115700 0.000000
-22.049700 0.000000
-21.983600 0.000000
-21.917600 0.000000
-21.851600 0.000000
-21.785600 0.000000
-21.719600 0.000000
-21.653500 0.000000
-21.587500 0.000000
-21.521500 0.000000
-21.455500 0.000000
-21.389500 0.000000
-21.323400 0.000000
-21.257400 0.000000
-21.191400 0.000000
-21.125400 0.000000
-21.059300 0.000000
-20.993300 0.000000
-20.927300 0.000000
-20.861300 0.000000
-20.795300 0.000000
-20.729200 0.000000
-20.663200 0.000000
-20.597200 0.000000
-20.531200 0.000000
-20.465200 0.000000
-20.399100 0.000000
-20.333100 0.000000
-20.267100 0.000000
-20.201100 0.000000
-20.135000 0.000000
-20.069000 0.000000
-20.003000 0.000000
-19.937000 0.000000
-19.871000 0.000000
-19.804900 0.000000
-19.738900 0.000000
-19.672900 0.000000
-19.606900 0.000000
-19.540900 0.000000
-19.474800 0.000000
-19.408800 0.000000
-19.342800 0.000000
-19.276800 0.000000
-19.210800 0.000000
-19.144700 0.000000
-19.078700 0.000000
-19.012700 0.000000
-18.946700 0.000000
-18.880600 0.000000
-18.814600 0.000000
-18.748600 0.000000
-18.682600 0.000000
-18.616600 0.000000
-18.550500 0.000000
-18.484500 10.500000
-18.418500 17.862900
-18.352500 4.058100
-18.286500 1.732600
-18.220400 0.004700
-18.154400 0.000000
-18.088400 0.000000
-18.022400 0.000000
-17.956400 0.000000
-17.890300 0.000000
-17.824300 0.000000
-17.758300 0.000000
-17.692300 0.000000
-17.626200 0.000000
-17.560200 0.000000
-17.494200 0.000000
-17.428200 0.000000
-17.362200 0.000000
-17.296100 0.000000
-17.230100 0.000000
-17.164100 0.000000
-17.098100 0.000000
-17.032100 0.000000
-16.966000 0.000000
-16.900000 0.000000
-16.834000 0.000000
-16.768000 0.000000
-16.702000 0.000000
-16.635900 0.000000
-16.569900 0.000000
-16.503900 0.000000
-16.437900 0.000000
-16.371800 0.000000
-16.305800 0.000000
-16.239800 0.000000
-16.173800 0.000000
-16.107800 0.000000
-16.041700 0.000000
-15.975700 0.000000
-15.909700 0.000000
-15.843700 0.000000
-15.777700 0.000000
-15.711600 0.000000
-15.645600 0.000000
-15.579600 0.000000
-15.513600 0.000000
-15.447500 0.000000
-15.381500 0.000000
-15.315500 0.000000
-15.249500 0.000000
-15.183500 0.000000
-15.117400 0.000000
-15.051400 0.000000
-14.985400 0.000000
-14.919400 0.000000
-14.853400 0.000000
-14.787300 0.000000
-14.721300 0.000000
-14.655300 0.000000
-14.589300 0.000000
-14.523300 0.000000
-14.457200 0.000000
-14.391200 0.000000
-14.325200 0.000000
-14.259200 0.000000
-14.193100 0.000000
-14.127100 0.000000
-14.061100 0.000000
-13.995100 0.000000
-13.929100 0.000000
-13.863000 0.000000
-13.797000 0.000000
-13.731000 0.000000
-13.665000 0.000000
-13.599000 0.000000
-13.532900 0.000000
-13.466900 0.000000
-13.400900 0.000000
-13.334900 0.000000
-13.268900 0.000000
-13.202800 0.000000
-13.136800 0.000000
-13.070800 0.362900
-13.004800 0.322100
-12.938700 0.478800
-12.872700 0.704500
-12.806700 0.809900
-12.740700 1.005300
-12.674700 1.241100
-12.608600 1.630500
-12.542600 2.075900
-12.476600 2.806300
-12.410600 4.078100
-12.344600 5.981500
-12.278500 6.917800
-12.212500 1.848200
-12.146500 0.137800
-12.080500 0.000000
-12.014500 0.000000
-11.948400 0.000000
-11.882400 0.000000
-11.816400 0.000000
-11.750400 0.000000
-11.684300 0.000000
-11.618300 0.000000
-11.552300 0.000000
-11.486300 0.000000
-11.420300 0.000000
-11.354200 0.000000
-11.288200 0.000000
-11.222200 0.000000
-11.156200 0.000000
-11.090200 0.000000
-11.024100 0.000000
-10.958100 0.000000
-10.892100 0.000000
-10.826100 0.000000
-10.760000 0.000000
-10.694000 0.000000
-10.628000 0.000000
-10.562000 0.000000
-10.496000 0.000000
-10.429900 0.000000
-10.363900 0.000000
-10.297900 0.000000
-10.231900 0.000000
-10.165900 0.000000
-10.099800 0.000000
-10.033800 0.253100
-9.967800 0.754100
-9.901800 0.983300
-9.835800 1.235400
-9.769700 2.136400
-9.703700 2.257700
-9.637700 2.593100
-9.571700 2.873600
-9.505600 3.258900
-9.439600 4.391600
-9.373600 6.289700
-9.307600 7.935400
-9.241600 8.688700
-9.175500 7.534200
-9.109500 7.770900
-9.043500 7.279300
-8.977500 12.184500
-8.911500 5.460100
-8.845400 2.887400
-8.779400 1.185200
-8.713400 0.842300
-8.647400 0.439400
-8.581400 0.290900
-8.515300 0.020700
-8.449300 0.000000
-8.383300 0.000000
-8.317300 0.000000
-8.251200 0.000000
-8.185200 0.000000
-8.119200 0.000000
-8.053200 0.000000
-7.987200 0.000000
-7.921100 0.000000
-7.855100 0.000000
-7.789100 0.000000
-7.723100 0.000000
-7.657100 0.000000
-7.591000 0.000000
-7.525000 0.000000
-7.459000 0.000000
-7.393000 0.000000
-7.326900 0.000000
-7.260900 0.000000
-7.194900 0.000000
-7.128900 0.000000
-7.062900 0.000000
-6.996800 0.000000
-6.930800 0.000000
-6.864800 0.000000
-6.798800 0.000000
-6.732800 0.000000
-6.666700 0.000000
-6.600700 0.000000
-6.534700 0.000000
-6.468700 0.000000
-6.402700 0.000000
-6.336600 0.000000
-6.270600 0.000000
-6.204600 0.000000
-6.138600 0.000000
-6.072500 0.000000
-6.006500 0.000000
-5.940500 0.000000
-5.874500 0.000000
-5.808500 0.000000
-5.742400 0.000000
-5.676400 0.000000
-5.610400 0.000000
-5.544400 0.000000
-5.478400 0.000000
-5.412300 0.000000
-5.346300 0.000000
-5.280300 0.000000
-5.214300 0.000000
-5.148300 0.000000
-5.082200 0.000000
-5.016200 0.000000
-4.950200 0.000000
-4.884200 0.000000
-4.818100 0.000000
-4.752100 0.000000
-4.686100 0.000000
-4.620100 0.000000
-4.554100 0.000000
-4.488000 0.000000
-4.422000 0.000000
-4.356000 0.000000
-4.290000 0.000000
-4.224000 0.000000
-4.157900 0.000000
-4.091900 0.000000
-4.025900 0.000000
-3.959900 0.000000
-3.893900 0.000000
-3.827800 0.002900
-3.761800 0.053500
-3.695800 0.252500
-3.629800 0.399100
-3.563700 0.516200
-3.497700 0.928000
-3.431700 0.911400
-3.365700 1.093400
-3.299700 1.442400
-3.233600 2.010600
-3.167600 2.232000
-3.101600 2.464200
-3.035600 2.538600
-2.969600 2.966600
-2.903500 3.125500
-2.837500 3.937100
-2.771500 4.858700
-2.705500 0.203300
-2.639400 0.000000
-2.573400 0.000000
-2.507400 0.000000
-2.441400 0.000000
-2.375400 0.000000
-2.309300 0.000000
-2.243300 0.869700
-2.177300 2.460900
-2.111300 5.042400
-2.045300 4.472200
-1.979200 3.904600
-1.913200 3.489100
-1.847200 3.154600
-1.781200 2.996300
-1.715200 2.854600
-1.649100 2.821900
-1.583100 2.830400
-1.517100 2.864200
-1.451100 2.906700
-1.385000 4.377700
-1.319000 4.481100
-1.253000 4.545500
-1.187000 3.369900
-1.121000 1.720700
-1.054900 0.957600
-0.988900 0.425100
-0.922900 0.046700
-0.856900 0.000000
-0.790900 0.000000
-0.724800 0.000000
-0.658800 0.000000
-0.592800 0.000000
-0.526800 0.000000
-0.460800 0.000000
-0.394700 0.000000
-0.328700 0.000000
-0.262700 0.000000
-0.196700 0.000000
-0.130600 0.000000
-0.064600 0.000000
0.001400 0.000000
0.067400 0.000000
0.133400 0.000000
0.199500 0.023300
0.265500 0.101300
0.331500 0.220600
0.397500 0.294600
0.463500 0.383400
0.529600 0.760800
0.595600 0.557100
0.661600 0.635200
0.727600 0.724300
0.793600 0.829100
0.859700 0.947700
0.925700 1.327900
0.991700 1.291100
1.057700 1.565000
1.123800 1.502700
1.189800 1.700800
1.255800 1.769800
1.321800 1.894100
1.387800 2.044500
1.453900 2.260200
1.519900 2.511600
1.585900 2.760300
1.651900 3.470700
1.717900 4.303800
1.784000 5.033100
1.850000 6.350800
1.916000 5.675500
1.982000 5.591500
2.048100 2.466500
2.114100 1.299500
2.180100 0.000000
2.246100 0.000000
2.312100 0.000000
2.378200 0.000000
2.444200 0.000000
2.510200 0.000000
2.576200 0.000000
2.642200 0.000000
2.708300 0.000000
2.774300 0.000000
2.840300 0.000000
2.906300 0.000000
2.972300 0.000000
3.038400 0.000000
3.104400 0.000000
3.170400 0.000000
3.236400 0.000000
3.302500 0.000000
3.368500 0.000000
3.434500 0.000000
3.500500 0.000000
3.566500 0.000000
3.632600 0.000000
3.698600 0.000000
3.764600 0.000000
3.830600 0.000000
3.896600 0.000000
3.962700 0.000000
4.028700 0.000000
4.094700 0.000000
4.160700 0.000000
4.226700 0.000000
4.292800 0.000000
4.358800 0.000000
4.424800 0.000000
4.490800 0.004200
4.556900 0.015800
4.622900 0.030900
4.688900 0.049300
4.754900 0.071200
4.820900 0.096900
4.887000 0.127100
4.953000 0.163200
5.019000 0.198700
5.085000 0.272500
5.151000 0.397900
5.217100 0.787800
5.283100 1.444000
5.349100 1.902000
5.415100 2.042000
5.481200 2.141800
5.547200 2.049200
5.613200 1.858500
5.679200 1.724300
5.745200 1.608600
5.811300 1.526700
5.877300 1.495100
5.943300 1.499100
6.009300 1.602100
6.075300 1.693000
6.141400 1.678400
6.207400 1.613200
6.273400 1.768300
6.339400 1.614400
6.405400 1.505900
6.471500 1.797100
6.537500 1.532900
6.603500 1.112500
6.669500 0.859600
6.735600 0.719800
6.801600 0.667800
6.867600 0.670800
6.933600 0.699900
6.999600 0.760000
7.065700 0.838700
7.131700 1.114700
7.197700 1.206500
7.263700 1.269000
7.329700 1.322700
7.395800 1.388300
7.461800 1.272800
7.527800 1.235000
7.593800 1.295600
7.659800 1.460300
7.725900 1.764400
7.791900 2.376100
7.857900 4.741900
7.923900 4.513600
7.990000 3.646300
8.056000 3.309000
8.122000 3.112400
8.188000 2.551700
8.254000 2.078400
8.320100 0.973100
8.386100 0.866100
8.452100 0.815700
8.518100 0.800600
8.584100 2.009400
8.650200 1.911000
8.716200 1.823200
8.782200 1.700800
8.848200 1.956900
8.914200 2.813800
8.980300 3.866200
9.046300 4.002300
9.112300 4.484300
9.178300 4.754100
9.244400 5.932100
9.310400 3.533900
9.376400 2.270100
9.442400 2.184700
9.508400 2.208400
9.574500 2.660200
9.640500 2.918900
9.706500 2.897500
9.772500 2.745800
9.838500 2.178000
9.904600 1.946200
9.970600 1.834900
10.036600 1.709900
10.102600 1.680300
10.168700 1.611100
10.234700 1.593100
10.300700 1.505700
10.366700 1.565200
10.432700 1.574800
10.498800 1.664800
10.564800 1.758500
10.630800 1.826400
10.696800 2.004000
10.762800 2.408600
10.828900 2.105800
10.894900 2.115800
10.960900 2.303600
11.026900 2.155800
11.092900 2.045100
11.159000 1.933100
11.225000 1.730200
11.291000 1.476700
11.357000 1.326900
11.423100 1.220200
11.489100 1.147400
11.555100 1.084900
11.621100 0.746900
11.687100 0.781400
11.753200 0.806200
11.819200 0.795200
11.885200 0.822700
11.951200 0.849900
12.017200 0.876700
12.083300 0.903100
12.149300 0.929100
12.215300 0.954700
12.281300 1.127700
12.347300 1.110500
12.413400 1.132000
12.479400 1.172400
12.545400 1.104600
12.611400 1.102800
12.677500 1.088000
12.743500 1.066100
12.809500 1.007900
12.875500 0.919800
12.941500 0.801600
13.007600 0.659800
13.073600 0.446700
13.139600 0.358300
13.205600 0.310200
13.271600 0.312500
13.337700 0.326000
13.403700 0.426500
13.469700 0.587000
13.535700 0.786300
13.601700 1.032300
13.667800 1.183100
13.733800 1.236600
13.799800 1.348100
13.865800 0.964700
13.931900 0.981100
13.997900 1.015900
14.063900 1.054200
14.129900 1.099900
14.195900 1.282700
14.262000 1.275900
14.328000 1.235300
14.394000 1.221400
14.460000 1.205400
14.526000 1.169800
14.592100 1.125300
14.658100 1.108500
14.724100 1.082900
14.790100 1.061400
14.856200 1.069800
14.922200 1.158200
14.988200 1.184100
15.054200 1.106400
15.120200 1.070000
15.186300 1.076700
15.252300 1.093300
15.318300 1.111100
15.384300 1.123700
15.450300 1.112400
15.516400 1.133700
15.582400 1.222400
15.648400 1.356500
15.714400 1.528700
15.780400 1.822200
15.846500 2.184900
15.912500 2.386300
15.978500 1.739600
16.044500 1.154200
16.110600 0.985500
16.176600 1.014100
16.242600 1.020900
16.308600 1.075500
16.374600 1.171200
16.440700 1.286800
16.506700 1.387700
16.572700 1.492100
16.638700 1.599500
16.704700 1.690600
16.770800 2.025200
16.836800 1.769600
16.902800 1.673700
16.968800 1.599500
17.034800 1.445000
17.100900 1.159800
17.166900 1.104100
17.232900 1.064300
17.298900 1.028700
17.365000 0.990000
17.431000 0.934400
17.497000 0.892900
17.563000 0.853200
17.629000 0.825900
17.695100 0.813900
17.761100 0.803900
17.827100 0.796200
17.893100 0.790600
17.959100 0.787500
18.025200 0.787200
18.091200 0.851200
18.157200 1.228300
18.223200 1.002100
18.289300 1.091200
18.355300 1.190300
18.421300 1.290200
18.487300 1.376500
18.553300 1.481000
18.619400 1.652600
18.685400 1.935600
18.751400 2.388800
18.817400 2.751100
18.883400 2.764500
18.949500 2.489800
19.015500 2.150700
19.081500 1.850500
19.147500 1.565700
19.213500 1.306200
19.279600 1.080300
19.345600 0.923300
19.411600 0.935100
19.477600 1.005500
19.543700 1.507500
19.609700 1.713400
19.675700 1.742300
19.741700 1.869100
19.807700 1.950000
19.873800 2.096200
19.939800 3.077400
20.005800 3.037800
20.071800 2.574600
20.137800 2.013200
20.203900 1.314500
20.269900 0.835000
20.335900 0.703900
20.401900 0.910500
20.467900 1.113400
20.534000 1.453900
20.600000 1.779600
20.666000 2.092700
20.732000 2.562400
20.798100 2.604700
20.864100 2.425300
20.930100 2.265900
20.996100 2.081700
21.062100 2.067900
21.128200 2.011800
21.194200 2.083500
21.260200 1.897300
21.326200 1.856200
21.392200 1.874200
21.458300 1.645200
21.524300 1.572600
21.590300 1.778100
21.656300 1.901100
21.722300 2.258500
21.788400 2.125700
21.854400 2.158300
21.920400 2.232300
21.986400 2.291300
22.052500 2.568900
22.118500 2.515800
22.184500 2.477900
22.250500 2.407500
22.316500 2.285400
22.382600 2.061400
22.448600 2.041200
22.514600 2.277500
22.580600 2.795400
22.646600 3.713300
22.712700 3.614200
22.778700 3.176400
22.844700 2.915000
22.910700 2.804400
22.976800 2.697000
23.042800 2.915400
23.108800 3.026300
23.174800 2.671100
23.240800 2.617700
23.306900 2.494500
23.372900 2.627600
23.438900 2.822800
23.504900 2.788700
23.570900 2.280000
23.637000 1.897800
23.703000 1.708400
23.769000 1.775000
23.835000 1.481500
23.901000 1.323700
23.967100 1.209600
24.033100 1.112300
24.099100 1.087300
24.165100 1.085700
24.231200 1.239300
24.297200 1.278000
24.363200 1.362900
24.429200 1.470100
24.495200 1.631700
24.561300 2.343000
24.627300 1.452000
24.693300 1.622300
24.759300 1.833500
24.825300 1.968000
24.891400 2.145400
24.957400 2.112100
25.023400 2.162200
25.089400 1.849100
25.155400 1.633000
25.221500 1.851300
25.287500 1.940000
25.353500 1.271300
25.419500 1.601000
25.485600 2.668000
25.551600 2.532000
25.617600 2.473700
25.683600 2.404500
25.749600 2.332000
25.815700 2.254000
25.881700 2.220200
25.947700 2.252500
26.013700 2.439100
26.079700 2.414100
26.145800 2.185900
26.211800 2.029300
26.277800 1.871000
26.343800 1.760100
26.409800 1.731000
26.475900 1.660600
26.541900 1.662000
26.607900 1.652000
26.673900 1.717300
26.740000 1.729500
26.806000 1.739500
26.872000 1.734700
26.938000 1.699400
27.004000 1.644900
27.070100 1.602500
27.136100 1.558700
27.202100 1.673700
27.268100 1.645600
27.334100 1.732100
27.400200 1.859500
27.466200 1.901900
27.532200 1.867400
27.598200 1.775300
27.664300 1.746700
27.730300 1.712100
27.796300 1.651500
27.862300 1.618700
27.928300 1.605000
27.994400 1.561300
28.060400 1.551500
28.126400 1.571000
28.192400 1.514400
28.258400 1.582800
28.324500 1.666100
28.390500 1.832000
28.456500 2.159400
28.522500 2.006100
28.588500 2.315200
28.654600 2.504600
28.720600 2.581200
28.786600 2.492300
28.852600 2.270700
28.918700 2.174200
28.984700 1.933400
29.050700 1.904800
29.116700 1.926700
29.182700 2.135700
29.248800 2.219700
29.314800 2.316400
29.380800 2.285700
29.446800 2.264300
29.512800 2.384700
29.578900 2.406100
29.644900 2.340200
29.710900 2.171300
29.776900 1.997800
29.842900 1.900800
29.909000 1.817300
29.975000 1.814600
30.041000 1.862500
30.107000 1.820100
30.173100 1.784300
30.239100 1.763200
30.305100 1.849700
30.371100 1.909100
30.437100 1.924400
30.503200 2.104400
30.569200 2.165500
30.635200 2.114800
30.701200 2.044300
30.767200 2.063600
30.833300 1.998600
30.899300 2.232000
30.965300 2.561100
31.031300 2.857100
31.097400 2.624200
31.163400 2.544500
31.229400 2.566600
31.295400 2.671400
31.361400 2.646200
31.427500 2.684900
31.493500 2.840700
31.559500 2.467000
31.625500 2.037900
31.691500 2.081900
31.757600 2.270600
31.823600 2.601800
31.889600 2.765800
31.955600 2.897000
32.021600 2.583900
32.087700 2.495500
32.153700 2.446400
32.219700 2.379500
32.285700 2.225600
32.351800 2.179400
32.417800 2.237000
32.483800 2.393600
32.549800 2.544400
32.615800 2.611800
32.681900 2.499400
32.747900 2.427000
32.813900 2.349600
32.879900 2.270900
32.945900 2.259300
33.012000 2.259900
33.078000 2.253200
33.144000 2.226100
33.210000 2.202100
33.276000 2.192400
33.342100 2.188100
33.408100 2.203300
33.474100 2.339100
33.540100 2.448700
33.606200 2.348200
33.672200 2.353300
33.738200 2.410800
33.804200 2.381500
33.870200 2.362700
33.936300 2.275300
34.002300 2.302800
34.068300 2.377000
34.134300 2.356600
34.200300 2.526700
34.266400 2.711900
34.332400 2.963700
34.398400 3.339500
34.464400 3.144700
34.530400 3.238000
34.596500 3.173700
34.662500 2.816500
34.728500 2.352200
34.794500 2.044300
34.860600 1.964700
34.926600 2.020400
34.992600 2.283500
35.058600 2.505000
35.124600 2.346900
35.190700 2.079100
35.256700 2.111200
35.322700 2.337900
35.388700 2.592200
35.454700 2.811300
35.520800 2.908300
35.586800 2.801500
35.652800 2.600100
35.718800 2.626000
35.784900 2.420500
35.850900 2.209000
35.916900 1.932700
35.982900 2.331800
36.048900 3.168000
36.115000 2.995900
36.181000 2.632900
36.247000 2.695100
36.313000 2.665400
36.379000 2.473200
36.445100 2.194600
36.511100 2.096100
36.577100 2.041600
36.643100 2.013700
36.709100 2.114400
36.775200 2.477600
36.841200 2.512700
36.907200 2.387500
36.973200 2.406100
37.039300 2.535000
37.105300 2.126800
37.171300 2.010600
37.237300 2.318600
37.303300 2.289100
37.369400 2.217500
37.435400 2.165800
37.501400 2.125800
37.567400 2.183300
37.633400 2.228600
37.699500 2.268100
