set title 'mp-1183646 - Density of States'
set xlabel 'Energy (eV)'
set ylabel 'DOS (states/eV)'
set grid
set xrange [-10:10]
set yrange [0:51.575]
set xzeroaxis lt -1
set terminal png size 800,600
set output 'mp-1183646_dos_gnuplot.png'
plot '-' using 1:2 with lines title 'DOS'
-14.174600 0.000000
-14.153200 0.000000
-14.131900 0.000000
-14.110600 0.000000
-14.089200 0.000000
-14.067900 0.000000
-14.046500 0.000000
-14.025200 0.000000
-14.003800 0.000000
-13.982500 0.000000
-13.961100 0.000000
-13.939800 0.000000
-13.918400 0.000000
-13.897100 0.000000
-13.875700 0.000000
-13.854400 0.000000
-13.833100 0.000000
-13.811700 0.000000
-13.790400 0.000000
-13.769000 0.000000
-13.747700 0.000000
-13.726300 0.000000
-13.705000 0.000000
-13.683600 0.000000
-13.662300 0.000000
-13.640900 0.000000
-13.619600 0.000000
-13.598200 0.000000
-13.576900 0.000000
-13.555600 0.000000
-13.534200 0.000000
-13.512900 0.000000
-13.491500 0.000000
-13.470200 0.000000
-13.448800 0.000000
-13.427500 0.000000
-13.406100 0.000000
-13.384800 0.000000
-13.363400 0.000000
-13.342100 0.000000
-13.320700 0.000000
-13.299400 0.000000
-13.278100 0.000000
-13.256700 0.000000
-13.235400 0.000000
-13.214000 0.000000
-13.192700 0.000000
-13.171300 0.000000
-13.150000 0.000000
-13.128600 0.000000
-13.107300 0.000000
-13.085900 0.000000
-13.064600 0.000000
-13.043200 0.000000
-13.021900 0.000000
-13.000600 0.000000
-12.979200 0.000000
-12.957900 0.000000
-12.936500 0.000000
-12.915200 0.000000
-12.893800 0.000000
-12.872500 0.000000
-12.851100 0.000000
-12.829800 0.000000
-12.808400 0.000000
-12.787100 0.000000
-12.765700 0.000000
-12.744400 0.000000
-12.723100 0.000000
-12.701700 0.000000
-12.680400 0.000000
-12.659000 0.000000
-12.637700 0.000000
-12.616300 0.000000
-12.595000 0.000000
-12.573600 0.000000
-12.552300 0.000000
-12.530900 0.000000
-12.509600 0.000000
-12.488200 0.000000
-12.466900 0.000000
-12.445600 0.000000
-12.424200 0.000000
-12.402900 0.000000
-12.381500 0.000000
-12.360200 0.000000
-12.338800 0.000000
-12.317500 0.000000
-12.296100 0.000000
-12.274800 0.000000
-12.253400 0.000000
-12.232100 430.554100
-12.210700 156.721600
-12.189400 0.000000
-12.168100 0.000000
-12.146700 0.000000
-12.125400 0.000000
-12.104000 0.000000
-12.082700 0.000000
-12.061300 0.000000
-12.040000 0.000000
-12.018600 0.000000
-11.997300 0.000000
-11.975900 0.000000
-11.954600 0.000000
-11.933300 0.000000
-11.911900 0.000000
-11.890600 0.000000
-11.869200 0.000000
-11.847900 0.000000
-11.826500 0.000000
-11.805200 0.000000
-11.783800 0.000000
-11.762500 0.000000
-11.741100 0.000000
-11.719800 0.000000
-11.698400 0.000000
-11.677100 0.000000
-11.655800 0.000000
-11.634400 0.000000
-11.613100 0.000000
-11.591700 0.000000
-11.570400 0.000000
-11.549000 0.000000
-11.527700 0.000000
-11.506300 0.000000
-11.485000 0.000000
-11.463600 0.000000
-11.442300 0.000000
-11.420900 0.000000
-11.399600 0.000000
-11.378300 0.000000
-11.356900 0.000000
-11.335600 0.000000
-11.314200 0.000000
-11.292900 0.000000
-11.271500 0.000000
-11.250200 0.000000
-11.228800 0.000000
-11.207500 0.000000
-11.186100 0.000000
-11.164800 0.000000
-11.143400 0.000000
-11.122100 0.000000
-11.100800 0.000000
-11.079400 0.000000
-11.058100 0.000000
-11.036700 0.000000
-11.015400 0.000000
-10.994000 0.000000
-10.972700 0.000000
-10.951300 0.000000
-10.930000 0.000000
-10.908600 0.000000
-10.887300 0.000000
-10.865900 0.000000
-10.844600 0.000000
-10.823300 0.000000
-10.801900 0.000000
-10.780600 0.000000
-10.759200 0.000000
-10.737900 0.000000
-10.716500 0.000000
-10.695200 0.000000
-10.673800 0.000000
-10.652500 0.000000
-10.631100 0.000000
-10.609800 0.000000
-10.588400 0.000000
-10.567100 0.000000
-10.545800 0.000000
-10.524400 0.000000
-10.503100 0.000000
-10.481700 0.000000
-10.460400 0.000000
-10.439000 0.000000
-10.417700 0.000000
-10.396300 0.000000
-10.375000 0.000000
-10.353600 0.000000
-10.332300 0.000000
-10.310900 0.000000
-10.289600 0.000000
-10.268300 0.000000
-10.246900 0.000000
-10.225600 0.000000
-10.204200 0.000000
-10.182900 0.000000
-10.161500 0.000000
-10.140200 0.000000
-10.118800 0.000000
-10.097500 0.000000
-10.076100 0.000000
-10.054800 0.000000
-10.033400 0.000000
-10.012100 0.000000
-9.990800 0.000000
-9.969400 0.000000
-9.948100 0.000000
-9.926700 0.000000
-9.905400 0.000000
-9.884000 0.000000
-9.862700 0.000000
-9.841300 0.000000
-9.820000 0.000000
-9.798600 0.000000
-9.777300 0.000000
-9.755900 0.000000
-9.734600 0.000000
-9.713300 0.000000
-9.691900 0.000000
-9.670600 0.000000
-9.649200 0.000000
-9.627900 0.000000
-9.606500 0.000000
-9.585200 0.000000
-9.563800 0.000000
-9.542500 0.000000
-9.521100 0.000000
-9.499800 0.000000
-9.478400 0.000000
-9.457100 0.000000
-9.435800 0.000000
-9.414400 0.000000
-9.393100 0.000000
-9.371700 0.000000
-9.350400 0.000000
-9.329000 0.000000
-9.307700 0.000000
-9.286300 0.000000
-9.265000 0.000000
-9.243600 0.000000
-9.222300 0.000000
-9.200900 0.000000
-9.179600 0.000000
-9.158300 0.000000
-9.136900 0.000000
-9.115600 0.000000
-9.094200 0.000000
-9.072900 0.000000
-9.051500 0.000000
-9.030200 0.000000
-9.008800 0.000000
-8.987500 0.000000
-8.966100 0.000000
-8.944800 0.000000
-8.923400 0.000000
-8.902100 0.000000
-8.880800 0.000000
-8.859400 0.000000
-8.838100 0.000000
-8.816700 0.000000
-8.795400 0.000000
-8.774000 0.000000
-8.752700 0.000000
-8.731300 0.000000
-8.710000 0.000000
-8.688600 0.000000
-8.667300 0.000000
-8.645900 0.000000
-8.624600 0.000000
-8.603300 0.000000
-8.581900 0.000000
-8.560600 0.000000
-8.539200 0.000000
-8.517900 0.000000
-8.496500 0.000000
-8.475200 0.000000
-8.453800 0.000000
-8.432500 0.000000
-8.411100 0.000000
-8.389800 0.000000
-8.368400 0.000000
-8.347100 0.000000
-8.325800 0.000000
-8.304400 0.000000
-8.283100 0.000000
-8.261700 0.000000
-8.240400 0.000000
-8.219000 0.000000
-8.197700 0.000000
-8.176300 0.000000
-8.155000 0.000000
-8.133600 0.000000
-8.112300 0.000000
-8.090900 0.000000
-8.069600 0.000000
-8.048300 0.000000
-8.026900 0.000000
-8.005600 0.000000
-7.984200 0.000000
-7.962900 0.000000
-7.941500 0.000000
-7.920200 0.000000
-7.898800 0.000000
-7.877500 0.000000
-7.856100 0.000000
-7.834800 0.000000
-7.813400 0.000000
-7.792100 0.000000
-7.770800 0.000000
-7.749400 0.000000
-7.728100 0.000000
-7.706700 0.000000
-7.685400 0.000000
-7.664000 0.000000
-7.642700 0.000000
-7.621300 0.000000
-7.600000 0.000000
-7.578600 0.000000
-7.557300 0.000000
-7.536000 0.000000
-7.514600 0.000000
-7.493300 0.000000
-7.471900 0.000000
-7.450600 0.000000
-7.429200 0.000000
-7.407900 0.000000
-7.386500 0.000000
-7.365200 0.000000
-7.343800 0.000000
-7.322500 0.000000
-7.301100 0.000000
-7.279800 0.000000
-7.258500 0.000000
-7.237100 0.000000
-7.215800 0.000000
-7.194400 0.000000
-7.173100 0.000000
-7.151700 0.000000
-7.130400 0.000000
-7.109000 0.000000
-7.087700 0.000000
-7.066300 0.000000
-7.045000 0.000000
-7.023600 0.000000
-7.002300 0.000000
-6.981000 0.000000
-6.959600 0.174400
-6.938300 0.761400
-6.916900 0.983400
-6.895600 2.783800
-6.874200 6.174000
-6.852900 8.657500
-6.831500 9.797000
-6.810200 12.231500
-6.788800 16.419200
-6.767500 15.275800
-6.746100 12.479900
-6.724800 14.053200
-6.703500 16.795400
-6.682100 19.664100
-6.660800 22.473900
-6.639400 27.252400
-6.618100 27.829500
-6.596700 26.119500
-6.575400 23.392300
-6.554000 20.714500
-6.532700 21.868200
-6.511300 27.336800
-6.490000 30.639100
-6.468600 27.105200
-6.447300 23.994400
-6.426000 46.886300
-6.404600 30.057700
-6.383300 22.384700
-6.361900 22.512600
-6.340600 23.577400
-6.319200 19.944900
-6.297900 38.966900
-6.276500 24.406500
-6.255200 29.626400
-6.233800 24.971000
-6.212500 23.433900
-6.191100 21.435500
-6.169800 26.765100
-6.148500 27.985200
-6.127100 33.637700
-6.105800 31.526200
-6.084400 35.052800
-6.063100 41.142700
-6.041700 45.860100
-6.020400 34.506800
-5.999000 32.286600
-5.977700 30.021300
-5.956300 24.394800
-5.935000 22.596900
-5.913600 24.366100
-5.892300 26.368000
-5.871000 24.204900
-5.849600 25.081300
-5.828300 23.489600
-5.806900 27.116400
-5.785600 22.606000
-5.764200 27.484500
-5.742900 23.702300
-5.721500 15.768200
-5.700200 12.969100
-5.678800 11.598800
-5.657500 4.081700
-5.636100 2.483500
-5.614800 3.146900
-5.593500 2.931600
-5.572100 2.559000
-5.550800 2.313800
-5.529400 2.486100
-5.508100 2.188600
-5.486700 0.899400
-5.465400 0.628900
-5.444000 0.608000
-5.422700 0.591300
-5.401300 0.577200
-5.380000 0.565800
-5.358600 0.555300
-5.337300 0.551500
-5.316000 0.550000
-5.294600 0.550800
-5.273300 0.553700
-5.251900 0.558200
-5.230600 0.564100
-5.209200 0.570400
-5.187900 0.571000
-5.166500 0.575500
-5.145200 0.579200
-5.123800 0.582600
-5.102500 0.586700
-5.081100 0.591300
-5.059800 0.596100
-5.038500 0.601300
-5.017100 0.607700
-4.995800 0.614500
-4.974400 0.621500
-4.953100 0.629000
-4.931700 0.637000
-4.910400 0.645700
-4.889000 0.658300
-4.867700 0.669700
-4.846300 0.679800
-4.825000 0.688700
-4.803600 0.696300
-4.782300 0.702700
-4.761000 0.707800
-4.739600 0.711400
-4.718300 0.745400
-4.696900 0.722600
-4.675600 0.726800
-4.654200 0.730500
-4.632900 0.733700
-4.611500 0.736400
-4.590200 0.738700
-4.568800 0.740500
-4.547500 0.742600
-4.526100 0.744900
-4.504800 0.747600
-4.483500 0.750500
-4.462100 0.754200
-4.440800 0.758600
-4.419400 0.764100
-4.398100 0.770100
-4.376700 0.777700
-4.355400 0.788000
-4.334000 0.798400
-4.312700 0.809000
-4.291300 0.819400
-4.270000 0.832200
-4.248600 0.868500
-4.227300 0.887400
-4.206000 0.904300
-4.184600 0.919400
-4.163300 0.932900
-4.141900 0.944100
-4.120600 0.953100
-4.099200 0.960300
-4.077900 0.965100
-4.056500 0.967000
-4.035200 0.940700
-4.013800 0.926200
-3.992500 0.916200
-3.971100 0.905900
-3.949800 0.895400
-3.928500 0.958200
-3.907100 0.986400
-3.885800 0.997700
-3.864400 0.985700
-3.843100 0.942700
-3.821700 0.880400
-3.800400 0.844900
-3.779000 0.812800
-3.757700 0.783500
-3.736300 0.756800
-3.715000 0.732600
-3.693600 0.711200
-3.672300 0.698600
-3.651000 0.701600
-3.629600 0.702900
-3.608300 0.701300
-3.586900 0.690100
-3.565600 0.669100
-3.544200 0.642200
-3.522900 0.616900
-3.501500 0.609700
-3.480200 0.602900
-3.458800 0.595900
-3.437500 0.588600
-3.416100 0.582600
-3.394800 0.577500
-3.373500 0.572900
-3.352100 0.568200
-3.330800 0.563900
-3.309400 0.559300
-3.288100 0.554600
-3.266700 0.549600
-3.245400 0.544600
-3.224000 0.541900
-3.202700 0.540900
-3.181300 0.539700
-3.160000 0.538200
-3.138600 0.536300
-3.117300 0.534600
-3.096000 0.533900
-3.074600 0.533100
-3.053300 0.529700
-3.031900 0.537300
-3.010600 0.558900
-2.989200 0.594500
-2.967900 0.644200
-2.946500 0.707100
-2.925200 0.759300
-2.903800 0.775400
-2.882500 0.789500
-2.861200 0.811700
-2.839800 0.834100
-2.818500 0.857100
-2.797100 0.881600
-2.775800 0.972400
-2.754400 0.950400
-2.733100 0.994200
-2.711700 1.042700
-2.690400 1.098300
-2.669000 1.130700
-2.647700 1.158300
-2.626300 1.173300
-2.605000 1.169600
-2.583700 1.104100
-2.562300 1.041400
-2.541000 1.030700
-2.519600 1.029200
-2.498300 1.024700
-2.476900 1.017500
-2.455600 0.951200
-2.434200 0.908400
-2.412900 0.886900
-2.391500 0.878700
-2.370200 0.867700
-2.348800 0.858100
-2.327500 0.873900
-2.306200 0.871900
-2.284800 0.872900
-2.263500 0.876900
-2.242100 0.883200
-2.220800 0.890500
-2.199400 0.898800
-2.178100 0.907800
-2.156700 0.917600
-2.135400 0.928200
-2.114000 0.939500
-2.092700 0.951500
-2.071300 0.961500
-2.050000 0.964400
-2.028700 0.971600
-2.007300 0.980500
-1.986000 0.991500
-1.964600 1.004700
-1.943300 1.017100
-1.921900 1.028600
-1.900600 1.042800
-1.879200 1.059900
-1.857900 1.074500
-1.836500 1.084600
-1.815200 1.086400
-1.793800 1.085300
-1.772500 1.095000
-1.751200 1.102800
-1.729800 1.108700
-1.708500 1.119700
-1.687100 1.125100
-1.665800 1.124600
-1.644400 1.118400
-1.623100 1.107300
-1.601700 1.111800
-1.580400 1.117900
-1.559000 1.123500
-1.537700 1.128500
-1.516300 1.132700
-1.495000 1.135700
-1.473700 1.137200
-1.452300 1.136700
-1.431000 1.138600
-1.409600 1.142100
-1.388300 1.145900
-1.366900 1.149400
-1.345600 1.191700
-1.324200 1.187600
-1.302900 1.183600
-1.281500 1.179600
-1.260200 1.175900
-1.238800 1.173500
-1.217500 1.218900
-1.196200 1.213600
-1.174800 1.213900
-1.153500 1.209900
-1.132100 1.200700
-1.110800 1.186900
-1.089400 1.173900
-1.068100 1.161700
-1.046700 1.150200
-1.025400 1.163900
-1.004000 1.112100
-0.982700 1.079700
-0.961300 1.085500
-0.940000 1.092000
-0.918700 1.118500
-0.897300 1.125800
-0.876000 1.144700
-0.854600 1.156700
-0.833300 1.162500
-0.811900 1.169200
-0.790600 1.178700
-0.769200 1.187800
-0.747900 1.196600
-0.726500 1.205000
-0.705200 1.212900
-0.683800 1.214100
-0.662500 1.228000
-0.641200 1.227200
-0.619800 1.221200
-0.598500 1.215700
-0.577100 1.211000
-0.555800 1.206500
-0.534400 1.203200
-0.513100 1.202600
-0.491700 1.204700
-0.470400 1.211600
-0.449000 1.221700
-0.427700 1.233100
-0.406300 1.245700
-0.385000 1.259700
-0.363700 1.277400
-0.342300 1.300600
-0.321000 1.326200
-0.299600 1.404400
-0.278300 1.422500
-0.256900 1.443600
-0.235600 1.466900
-0.214200 1.501400
-0.192900 1.529000
-0.171500 1.551700
-0.150200 1.539200
-0.128800 1.575000
-0.107500 1.572800
-0.086200 1.570800
-0.064800 1.579500
-0.043500 1.610700
-0.022100 1.575900
-0.000800 1.505600
0.020600 1.463100
0.041900 1.437800
0.063300 1.417600
0.084600 1.399000
0.106000 1.383400
0.127300 1.368400
0.148700 1.352000
0.170000 1.338800
0.191300 1.332700
0.212700 1.329600
0.234000 1.292800
0.255400 1.270400
0.276700 1.246300
0.298100 1.219900
0.319400 1.193500
0.340800 1.172900
0.362100 1.158900
0.383500 1.150400
0.404800 1.139600
0.426200 1.176300
0.447500 1.126300
0.468800 1.105700
0.490200 1.109400
0.511500 1.112400
0.532900 1.095100
0.554200 1.082500
0.575600 1.044100
0.596900 1.023500
0.618300 1.007400
0.639600 0.994200
0.661000 0.983800
0.682300 0.970300
0.703700 0.973100
0.725000 0.981000
0.746300 0.994600
0.767700 1.004100
0.789000 1.025000
0.810400 1.049400
0.831700 1.075100
0.853100 1.097400
0.874400 1.122900
0.895800 1.159400
0.917100 1.198900
0.938500 1.267300
0.959800 1.349400
0.981200 1.409100
1.002500 1.436000
1.023800 1.448600
1.045200 1.488900
1.066500 1.514800
1.087900 1.526900
1.109200 1.526700
1.130600 1.522900
1.151900 1.531500
1.173300 1.553000
1.194600 1.567200
1.216000 1.599000
1.237300 1.629700
1.258700 1.659500
1.280000 1.675700
1.301300 1.646800
1.322700 1.632400
1.344000 1.625800
1.365400 1.626700
1.386700 1.621900
1.408100 1.612700
1.429400 1.603500
1.450800 1.603600
1.472100 1.617700
1.493500 1.632500
1.514800 1.663200
1.536200 1.669600
1.557500 1.640300
1.578800 1.589000
1.600200 1.553600
1.621500 1.563100
1.642900 1.522300
1.664200 1.496300
1.685600 1.476000
1.706900 1.457600
1.728300 1.452700
1.749600 1.454400
1.771000 1.460800
1.792300 1.467700
1.813600 1.481600
1.835000 1.498000
1.856300 1.515800
1.877700 1.520400
1.899000 1.531700
1.920400 1.738800
1.941700 1.504800
1.963100 1.510200
1.984400 1.520900
2.005800 1.524600
2.027100 1.526300
2.048500 1.529600
2.069800 1.539300
2.091100 1.488300
2.112500 1.483300
2.133800 1.473000
2.155200 1.453000
2.176500 1.447600
2.197900 1.441000
2.219200 1.434500
2.240600 1.430000
2.261900 1.424900
2.283300 1.418200
2.304600 1.412800
2.326000 1.409900
2.347300 1.409500
2.368600 1.411100
2.390000 1.401000
2.411300 1.387800
2.432700 1.382100
2.454000 1.386200
2.475400 1.381100
2.496700 1.375300
2.518100 1.372700
2.539400 1.371800
2.560800 1.367400
2.582100 1.368100
2.603500 1.374900
2.624800 1.387400
2.646100 1.401900
2.667500 1.414100
2.688800 1.424000
2.710200 1.423400
2.731500 1.431300
2.752900 1.441700
2.774200 1.459300
2.795600 1.463200
2.816900 1.510900
2.838300 1.469900
2.859600 1.470800
2.881000 1.481300
2.902300 1.493100
2.923600 1.503400
2.945000 1.514700
2.966300 1.529400
2.987700 1.553100
3.009000 1.585900
3.030400 1.618200
3.051700 1.653400
3.073100 1.694100
3.094400 1.743200
3.115800 1.782600
3.137100 1.809900
3.158500 1.844400
3.179800 1.849200
3.201100 1.828700
3.222500 1.818700
3.243800 1.808600
3.265200 1.798100
3.286500 1.786400
3.307900 1.776100
3.329200 1.775800
3.350600 1.803600
3.371900 1.805800
3.393300 1.809400
3.414600 1.808600
3.436000 1.802400
3.457300 1.793900
3.478600 1.778700
3.500000 1.760200
3.521300 1.738300
3.542700 1.723700
3.564000 1.689200
3.585400 1.665600
3.606700 1.648900
3.628100 1.635700
3.649400 1.626300
3.670800 1.629300
3.692100 1.599700
3.713500 1.581300
3.734800 1.566100
3.756100 1.553700
3.777500 1.548300
3.798800 1.545600
3.820200 1.545000
3.841500 1.592900
3.862900 1.570000
3.884200 1.567900
3.905600 1.559800
3.926900 1.548900
3.948300 1.522600
3.969600 1.506300
3.991000 1.491400
4.012300 1.500400
4.033600 1.497900
4.055000 1.499500
4.076300 1.503900
4.097700 1.506400
4.119000 1.505300
4.140400 1.479900
4.161700 1.482200
4.183100 1.485700
4.204400 1.489000
4.225800 1.492200
4.247100 1.495800
4.268500 1.500900
4.289800 1.510000
4.311100 1.537300
4.332500 1.551500
4.353800 1.565700
4.375200 1.581500
4.396500 1.598300
4.417900 1.615900
4.439200 1.630700
4.460600 1.649800
4.481900 1.675500
4.503300 1.704600
4.524600 1.739700
4.546000 1.782700
4.567300 1.807300
4.588600 1.834600
4.610000 1.856100
4.631300 1.864300
4.652700 1.867500
4.674000 1.872600
4.695400 1.867000
4.716700 1.847800
4.738100 1.820700
4.759400 1.790500
4.780800 1.770300
4.802100 1.751200
4.823500 1.733000
4.844800 1.723900
4.866100 1.733300
4.887500 1.748500
4.908800 1.744800
4.930200 1.735200
4.951500 1.726700
4.972900 1.717700
4.994200 1.707200
5.015600 1.722200
5.036900 1.664600
5.058300 1.650100
5.079600 1.638200
5.101000 1.628700
5.122300 1.634800
5.143600 1.642600
5.165000 1.703800
5.186300 1.709000
5.207700 1.726200
5.229000 1.751800
5.250400 1.774600
5.271700 1.795600
5.293100 1.816700
5.314400 1.844900
5.335800 1.877400
5.357100 1.896100
5.378500 1.932700
5.399800 1.941900
5.421100 1.953200
5.442500 1.916700
5.463800 1.931800
5.485200 1.942500
5.506500 1.953800
5.527900 1.970000
5.549200 2.014500
5.570600 2.036600
5.591900 2.052500
5.613300 2.077500
5.634600 2.107700
5.656000 2.175000
5.677300 2.177200
5.698600 2.160100
5.720000 2.149500
5.741300 2.143400
5.762700 2.137300
5.784000 2.129500
5.805400 2.109100
5.826700 2.077700
5.848100 2.040200
5.869400 2.011000
5.890800 1.988000
5.912100 1.931400
5.933500 1.877000
5.954800 1.826500
5.976100 1.769200
5.997500 1.704600
6.018800 1.656000
6.040200 1.603700
6.061500 1.567200
6.082900 1.533800
6.104200 1.487200
6.125600 1.480000
6.146900 1.412100
6.168300 1.415800
6.189600 1.436500
6.211000 1.499500
6.232300 1.533100
6.253600 1.531400
6.275000 1.547900
6.296300 1.573900
6.317700 1.604500
6.339000 1.657500
6.360400 1.698200
6.381700 1.737600
6.403100 1.740900
6.424400 1.771400
6.445800 1.798000
6.467100 1.797400
6.488400 1.803200
6.509800 1.819900
6.531100 1.836600
6.552500 1.856400
6.573800 1.953000
6.595200 1.869400
6.616500 1.882800
6.637900 1.897200
6.659200 1.914900
6.680600 1.934700
6.701900 1.950500
6.723300 1.961400
6.744600 1.967900
6.765900 1.972000
6.787300 2.013100
6.808600 2.009300
6.830000 2.003800
6.851300 1.996900
6.872700 2.003700
6.894000 2.076300
6.915400 2.071100
6.936700 2.054500
6.958100 1.968200
6.979400 1.972500
7.000800 1.916700
7.022100 2.053800
7.043400 2.045000
7.064800 2.060700
7.086100 2.085900
7.107500 2.131400
7.128800 2.175200
7.150200 2.208700
7.171500 2.251900
7.192900 2.288000
7.214200 2.305800
7.235600 2.320000
7.256900 2.330000
7.278300 2.329200
7.299600 2.336400
7.320900 2.328600
7.342300 2.302600
7.363600 2.299400
7.385000 2.298800
7.406300 2.316400
7.427700 2.359900
7.449000 2.364200
7.470400 2.339400
7.491700 2.312200
7.513100 2.265900
7.534400 2.212000
7.555800 2.152500
7.577100 2.124000
7.598400 2.138400
7.619800 2.197900
7.641100 2.269000
7.662500 2.243900
7.683800 2.253600
7.705200 2.250200
7.726500 2.241200
7.747900 2.216800
7.769200 2.208200
7.790600 2.211000
7.811900 2.173800
7.833300 2.167300
7.854600 2.192000
7.875900 2.217500
7.897300 2.249700
7.918600 2.315500
7.940000 2.334000
7.961300 2.340000
7.982700 2.353500
8.004000 2.365400
8.025400 2.334600
8.046700 2.298200
8.068100 2.257400
8.089400 2.209100
