set title 'mp-1066100 - Density of States'
set xlabel 'Energy (eV)'
set ylabel 'DOS (states/eV)'
set grid
set xrange [-10:10]
set yrange [0:9.231]
set xzeroaxis lt -1
set terminal png size 800,600
set output 'mp-1066100_dos_gnuplot.png'
plot '-' using 1:2 with lines title 'DOS'
-31.922100 0.000000
-31.863600 0.000000
-31.805100 0.000000
-31.746600 0.000000
-31.688100 0.000000
-31.629600 0.000000
-31.571100 0.000000
-31.512600 0.000000
-31.454100 0.000000
-31.395600 0.000000
-31.337100 0.000000
-31.278600 0.000000
-31.220100 0.000000
-31.161600 0.000000
-31.103100 0.000000
-31.044600 0.000000
-30.986100 0.000000
-30.927600 0.000000
-30.869100 0.000000
-30.810600 0.000000
-30.752100 0.000000
-30.693600 0.000000
-30.635100 0.000000
-30.576600 0.000000
-30.518200 0.000000
-30.459700 0.000000
-30.401200 0.000000
-30.342700 0.000000
-30.284200 0.000000
-30.225700 0.000000
-30.167200 0.000000
-30.108700 0.000000
-30.050200 0.000000
-29.991700 0.000000
-29.933200 0.000000
-29.874700 0.000000
-29.816200 0.000000
-29.757700 0.000000
-29.699200 0.000000
-29.640700 0.000000
-29.582200 0.000000
-29.523700 0.000000
-29.465200 0.000000
-29.406700 0.000000
-29.348200 0.000000
-29.289700 0.000000
-29.231200 0.000000
-29.172700 0.000000
-29.114200 0.000000
-29.055700 0.000000
-28.997200 0.000000
-28.938700 0.000000
-28.880200 0.000000
-28.821700 0.000000
-28.763200 0.000000
-28.704700 0.000000
-28.646200 0.000000
-28.587700 0.000000
-28.529200 0.000000
-28.470700 0.000000
-28.412200 0.000000
-28.353700 0.000000
-28.295200 0.000000
-28.236700 0.000000
-28.178200 0.000000
-28.119700 0.000000
-28.061200 0.000000
-28.002700 0.000000
-27.944200 0.000000
-27.885700 0.000000
-27.827200 0.000000
-27.768700 0.000000
-27.710200 0.000000
-27.651700 0.000000
-27.593200 0.000000
-27.534700 0.000000
-27.476200 0.000000
-27.417700 0.000000
-27.359200 0.000000
-27.300700 0.000000
-27.242200 0.000000
-27.183700 0.000000
-27.125200 0.000000
-27.066700 0.000000
-27.008200 0.000000
-26.949700 0.000000
-26.891200 0.000000
-26.832700 0.000000
-26.774200 0.000000
-26.715700 0.000000
-26.657200 0.000000
-26.598700 0.125000
-26.540200 1.768700
-26.481700 1.809400
-26.423200 1.878200
-26.364700 2.015200
-26.306200 2.069000
-26.247700 2.198400
-26.189200 2.312000
-26.130700 2.454100
-26.072200 2.650000
-26.013700 2.844300
-25.955200 3.142900
-25.896700 3.477900
-25.838200 3.969000
-25.779700 4.684700
-25.721200 6.013400
-25.662700 9.006400
-25.604200 8.296100
-25.545700 5.885400
-25.487200 0.000000
-25.428700 0.000000
-25.370200 0.000000
-25.311700 0.000000
-25.253200 0.000000
-25.194700 0.000000
-25.136200 0.000000
-25.077700 0.000000
-25.019200 0.000000
-24.960700 0.000000
-24.902200 0.000000
-24.843700 0.000000
-24.785200 0.000000
-24.726700 0.000000
-24.668200 0.000000
-24.609700 0.000000
-24.551200 0.000000
-24.492700 0.000000
-24.434200 0.000000
-24.375700 0.000000
-24.317200 0.000000
-24.258700 0.000000
-24.200200 0.000000
-24.141700 0.000000
-24.083200 0.000000
-24.024700 0.000000
-23.966200 0.000000
-23.907700 0.000000
-23.849200 0.000000
-23.790700 0.000000
-23.732200 0.000000
-23.673700 0.000000
-23.615200 0.000000
-23.556700 0.000000
-23.498200 0.000000
-23.439700 0.000000
-23.381200 0.000000
-23.322700 0.000000
-23.264200 0.000000
-23.205700 0.000000
-23.147200 0.000000
-23.088700 0.000000
-23.030200 0.000000
-22.971700 0.000000
-22.913200 0.000000
-22.854700 0.000000
-22.796300 0.000000
-22.737800 0.000000
-22.679300 0.000000
-22.620800 0.000000
-22.562300 0.000000
-22.503800 0.000000
-22.445300 0.000000
-22.386800 0.000000
-22.328300 0.000000
-22.269800 0.000000
-22.211300 0.000000
-22.152800 0.000000
-22.094300 0.000000
-22.035800 0.000000
-21.977300 0.000000
-21.918800 0.000000
-21.860300 0.000000
-21.801800 0.000000
-21.743300 0.000000
-21.684800 0.000000
-21.626300 0.000000
-21.567800 0.000000
-21.509300 0.000000
-21.450800 0.000000
-21.392300 0.000000
-21.333800 0.000000
-21.275300 0.000000
-21.216800 0.000000
-21.158300 0.000000
-21.099800 0.000000
-21.041300 0.000000
-20.982800 0.000000
-20.924300 0.000000
-20.865800 0.000000
-20.807300 0.000000
-20.748800 0.000000
-20.690300 0.000000
-20.631800 0.000000
-20.573300 0.000000
-20.514800 0.000000
-20.456300 0.000000
-20.397800 0.000000
-20.339300 0.000000
-20.280800 0.000000
-20.222300 0.000000
-20.163800 0.000000
-20.105300 0.000000
-20.046800 0.000000
-19.988300 0.000000
-19.929800 0.000000
-19.871300 0.000000
-19.812800 0.000000
-19.754300 0.000000
-19.695800 0.000000
-19.637300 0.000000
-19.578800 0.000000
-19.520300 0.000000
-19.461800 0.000000
-19.403300 0.000000
-19.344800 0.000000
-19.286300 0.000000
-19.227800 0.000000
-19.169300 0.000000
-19.110800 0.000000
-19.052300 0.000000
-18.993800 0.000000
-18.935300 0.000000
-18.876800 0.000000
-18.818300 0.000000
-18.759800 0.000000
-18.701300 0.000000
-18.642800 0.000000
-18.584300 0.000000
-18.525800 0.000000
-18.467300 0.000000
-18.408800 0.000000
-18.350300 0.000000
-18.291800 0.000000
-18.233300 0.000000
-18.174800 0.000000
-18.116300 0.000000
-18.057800 0.000000
-17.999300 0.000000
-17.940800 0.000000
-17.882300 0.000000
-17.823800 0.000000
-17.765300 0.000000
-17.706800 0.000000
-17.648300 0.000000
-17.589800 0.000000
-17.531300 0.000000
-17.472800 0.000000
-17.414300 0.000000
-17.355800 0.000000
-17.297300 0.000000
-17.238800 0.000000
-17.180300 0.000000
-17.121800 0.000000
-17.063300 0.000000
-17.004800 0.000000
-16.946300 0.000000
-16.887800 0.000000
-16.829300 0.000000
-16.770800 0.000000
-16.712300 0.000000
-16.653800 0.000000
-16.595300 0.000000
-16.536800 0.000000
-16.478300 0.000000
-16.419800 0.000000
-16.361300 0.000000
-16.302800 0.000000
-16.244300 0.000000
-16.185800 0.000000
-16.127300 0.000000
-16.068800 0.000000
-16.010300 0.000000
-15.951800 0.000000
-15.893300 0.000000
-15.834800 0.000000
-15.776300 0.000000
-15.717800 0.000000
-15.659300 0.000000
-15.600800 0.000000
-15.542300 0.000000
-15.483800 0.000000
-15.425300 0.000000
-15.366800 0.000000
-15.308300 0.000000
-15.249800 0.000000
-15.191300 0.000000
-15.132800 0.000000
-15.074300 0.000000
-15.015900 0.000000
-14.957400 0.000000
-14.898900 0.000000
-14.840400 0.000000
-14.781900 0.000000
-14.723400 0.207100
-14.664900 0.354700
-14.606400 0.463500
-14.547900 0.586500
-14.489400 0.691500
-14.430900 0.809000
-14.372400 0.946900
-14.313900 1.102100
-14.255400 1.386900
-14.196900 1.421400
-14.138400 1.462000
-14.079900 1.498300
-14.021400 1.552000
-13.962900 1.601900
-13.904400 1.662900
-13.845900 1.729900
-13.787400 1.802400
-13.728900 1.893200
-13.670400 1.992600
-13.611900 2.104000
-13.553400 2.246500
-13.494900 2.424400
-13.436400 2.634700
-13.377900 2.901600
-13.319400 3.329200
-13.260900 3.923800
-13.202400 5.951200
-13.143900 5.951400
-13.085400 6.365200
-13.026900 4.606900
-12.968400 3.750300
-12.909900 0.000000
-12.851400 0.000000
-12.792900 0.000000
-12.734400 0.000000
-12.675900 0.000000
-12.617400 0.000000
-12.558900 0.000000
-12.500400 0.000000
-12.441900 0.000000
-12.383400 0.000000
-12.324900 0.000000
-12.266400 0.000000
-12.207900 0.000000
-12.149400 0.000000
-12.090900 0.000000
-12.032400 0.000000
-11.973900 0.000000
-11.915400 0.000000
-11.856900 0.000000
-11.798400 0.000000
-11.739900 0.000000
-11.681400 0.000000
-11.622900 0.000000
-11.564400 0.000000
-11.505900 0.000000
-11.447400 0.000000
-11.388900 0.000000
-11.330400 0.000000
-11.271900 0.000000
-11.213400 0.000000
-11.154900 0.000000
-11.096400 0.000000
-11.037900 0.000000
-10.979400 0.000000
-10.920900 0.000000
-10.862400 0.000000
-10.803900 0.000000
-10.745400 0.000000
-10.686900 0.000000
-10.628400 0.000000
-10.569900 0.000000
-10.511400 0.000000
-10.452900 0.000000
-10.394400 0.000000
-10.335900 0.000000
-10.277400 0.000000
-10.218900 0.000000
-10.160400 0.000000
-10.101900 0.000000
-10.043400 0.000000
-9.984900 0.000000
-9.926400 0.000000
-9.867900 0.000000
-9.809400 0.000000
-9.750900 0.000000
-9.692400 0.000000
-9.633900 0.000000
-9.575400 0.000000
-9.516900 0.000000
-9.458400 0.000000
-9.399900 0.000000
-9.341400 0.000000
-9.282900 0.000000
-9.224400 0.000000
-9.165900 0.000000
-9.107400 0.000000
-9.048900 0.000000
-8.990400 0.000000
-8.931900 0.000000
-8.873400 0.000000
-8.814900 0.000000
-8.756400 0.000000
-8.697900 0.000000
-8.639400 0.000000
-8.580900 0.000000
-8.522400 0.000000
-8.463900 0.000000
-8.405400 0.000000
-8.346900 1.296100
-8.288400 2.388000
-8.229900 2.410200
-8.171400 2.585500
-8.112900 2.701400
-8.054400 2.906800
-7.995900 3.331400
-7.937400 4.230200
-7.878900 5.755100
-7.820400 7.200200
-7.761900 5.472300
-7.703400 4.966400
-7.644900 3.660100
-7.586400 2.959300
-7.527900 2.520200
-7.469400 2.246400
-7.410900 2.022700
-7.352400 1.476100
-7.293900 1.339700
-7.235500 1.246400
-7.177000 1.217800
-7.118500 1.161400
-7.060000 1.037000
-7.001500 1.018600
-6.943000 1.346400
-6.884500 0.335200
-6.826000 0.370300
-6.767500 0.407700
-6.709000 0.462300
-6.650500 0.521500
-6.592000 0.692400
-6.533500 0.849100
-6.475000 0.972000
-6.416500 6.429300
-6.358000 5.839900
-6.299500 5.943000
-6.241000 6.576900
-6.182500 8.391900
-6.124000 7.856600
-6.065500 4.946600
-6.007000 3.699400
-5.948500 2.985500
-5.890000 2.620700
-5.831500 2.420100
-5.773000 2.312600
-5.714500 2.314400
-5.656000 2.355300
-5.597500 2.380700
-5.539000 2.357300
-5.480500 2.408100
-5.422000 2.460800
-5.363500 2.695800
-5.305000 2.988700
-5.246500 3.149400
-5.188000 3.338200
-5.129500 4.943800
-5.071000 4.522100
-5.012500 3.543600
-4.954000 3.171100
-4.895500 2.912800
-4.837000 2.802100
-4.778500 2.619600
-4.720000 2.391500
-4.661500 2.498000
-4.603000 2.288500
-4.544500 2.331500
-4.486000 2.179500
-4.427500 2.183100
-4.369000 2.082900
-4.310500 1.750500
-4.252000 0.000000
-4.193500 0.000000
-4.135000 0.000000
-4.076500 0.000000
-4.018000 0.000000
-3.959500 0.000000
-3.901000 0.000000
-3.842500 0.000000
-3.784000 0.000000
-3.725500 0.000000
-3.667000 0.000000
-3.608500 0.000000
-3.550000 0.000000
-3.491500 0.000000
-3.433000 0.000000
-3.374500 0.000000
-3.316000 0.000000
-3.257500 0.000000
-3.199000 0.000000
-3.140500 0.000000
-3.082000 0.000000
-3.023500 0.000000
-2.965000 0.000000
-2.906500 0.000000
-2.848000 0.000000
-2.789500 0.000000
-2.731000 0.000000
-2.672500 0.000000
-2.614000 0.000000
-2.555500 0.000000
-2.497000 0.000000
-2.438500 0.000000
-2.380000 0.000000
-2.321500 0.000000
-2.263000 0.000000
-2.204500 0.000000
-2.146000 0.000000
-2.087500 0.000000
-2.029000 0.000000
-1.970500 0.000000
-1.912000 0.000000
-1.853500 0.000000
-1.795000 0.000000
-1.736500 0.000000
-1.678000 0.000000
-1.619500 0.000000
-1.561000 0.000000
-1.502500 0.000000
-1.444000 0.011000
-1.385500 0.601900
-1.327000 0.906700
-1.268500 1.340700
-1.210000 1.974400
-1.151500 2.260800
-1.093000 2.394400
-1.034500 2.468200
-0.976000 2.582300
-0.917500 2.760300
-0.859000 2.996300
-0.800500 3.649600
-0.742000 3.623200
-0.683500 3.802200
-0.625000 2.885600
-0.566500 2.258900
-0.508000 1.869500
-0.449500 1.633800
-0.391000 1.325500
-0.332500 1.206300
-0.274000 1.156900
-0.215500 1.242600
-0.157000 1.296500
-0.098500 1.329100
-0.040000 1.366500
0.018500 1.385200
0.077000 1.425000
0.135500 1.478300
0.194000 1.520000
0.252500 1.539700
0.311000 1.567500
0.369500 1.619900
0.428000 1.682600
0.486500 1.740500
0.544900 1.802000
0.603400 1.888000
0.661900 1.961500
0.720400 2.026400
0.778900 2.099200
0.837400 2.238200
0.895900 2.418100
0.954400 2.565600
1.012900 2.676100
1.071400 2.949500
1.129900 3.320000
1.188400 3.718800
1.246900 4.877400
1.305400 5.195800
1.363900 5.038900
1.422400 3.989000
1.480900 3.640300
1.539400 3.399300
1.597900 3.165700
1.656400 3.114900
1.714900 2.945000
1.773400 2.857100
1.831900 2.703200
1.890400 2.662400
1.948900 0.439600
2.007400 0.000000
2.065900 0.000000
2.124400 0.000000
2.182900 0.000000
2.241400 0.000000
2.299900 0.000000
2.358400 0.000000
2.416900 0.000000
2.475400 0.000000
2.533900 0.000000
2.592400 0.000000
2.650900 0.000000
2.709400 0.000000
2.767900 0.000000
2.826400 0.000000
2.884900 0.000000
2.943400 0.000000
3.001900 0.000000
3.060400 0.000000
3.118900 0.000000
3.177400 0.000000
3.235900 0.000000
3.294400 0.000000
3.352900 0.000000
3.411400 0.000000
3.469900 0.000000
3.528400 0.000000
3.586900 0.000000
3.645400 0.000000
3.703900 0.000000
3.762400 0.000000
3.820900 0.000000
3.879400 0.000000
3.937900 0.000000
3.996400 0.000000
4.054900 0.000000
4.113400 0.000000
4.171900 0.000000
4.230400 0.000000
4.288900 0.000000
4.347400 0.000000
4.405900 0.000000
4.464400 0.000000
4.522900 0.000000
4.581400 0.000000
4.639900 0.000000
4.698400 0.000000
4.756900 0.000000
4.815400 0.000000
4.873900 0.000000
4.932400 0.000000
4.990900 0.000000
5.049400 0.000000
5.107900 0.000000
5.166400 0.000000
5.224900 0.000000
5.283400 0.000000
5.341900 0.000000
5.400400 0.000000
5.458900 0.000000
5.517400 0.000000
5.575900 0.000000
5.634400 0.000000
5.692900 0.000000
5.751400 0.000000
5.809900 0.000000
5.868400 0.000000
5.926900 0.000000
5.985400 0.000000
6.043900 0.000000
6.102400 0.000000
6.160900 0.000000
6.219400 0.000000
6.277900 0.000000
6.336400 0.000000
6.394900 0.000000
6.453400 0.000000
6.511900 0.000000
6.570400 0.000000
6.628900 0.000000
6.687400 0.000700
6.745900 0.036400
6.804400 0.073200
6.862900 0.112500
6.921400 0.127600
6.979900 0.143400
7.038400 0.159400
7.096900 0.179100
7.155400 0.196100
7.213900 0.211900
7.272400 0.231200
7.330900 0.251300
7.389400 0.265200
7.447900 0.278200
7.506400 0.292100
7.564900 0.308000
7.623400 0.324500
7.681900 0.341100
7.740400 0.356600
7.798900 0.372300
7.857400 0.390100
7.915900 0.408700
7.974400 0.427400
8.032900 0.446100
8.091400 0.462500
8.149900 0.480600
8.208400 0.499700
8.266900 0.518900
8.325300 0.538500
8.383800 0.558400
8.442300 0.578800
8.500800 0.602600
8.559300 0.627000
8.617800 0.651700
8.676300 0.677000
8.734800 0.702900
8.793300 0.729300
8.851800 0.760900
8.910300 0.795800
8.968800 0.830600
9.027300 0.865900
9.085800 0.902300
9.144300 0.940900
9.202800 0.986000
9.261300 1.041900
9.319800 1.099800
9.378300 1.161900
9.436800 1.229000
9.495300 1.309400
9.553800 1.406800
9.612300 1.537900
9.670800 1.716200
9.729300 2.143400
9.787800 2.130600
9.846300 2.197000
9.904800 2.207700
9.963300 2.231000
10.021800 2.225200
10.080300 2.266200
10.138800 2.372500
10.197300 2.389000
10.255800 2.187800
10.314300 2.273300
10.372800 2.401500
10.431300 2.950900
10.489800 3.095000
10.548300 2.303500
10.606800 1.654200
10.665300 1.050100
10.723800 0.185100
10.782300 0.000000
10.840800 0.005700
10.899300 0.015100
10.957800 0.024900
11.016300 0.035600
11.074800 0.046200
11.133300 0.057600
11.191800 0.069700
11.250300 0.082400
11.308800 0.095600
11.367300 0.109500
11.425800 0.125900
11.484300 0.145700
11.542800 0.165200
11.601300 0.185000
11.659800 0.203700
11.718300 0.222700
11.776800 0.243100
11.835300 0.274200
11.893800 0.307700
11.952300 0.403900
12.010800 0.500800
12.069300 0.463100
12.127800 0.484700
12.186300 0.507300
12.244800 0.528500
12.303300 0.546100
12.361800 0.552600
12.420300 0.558000
12.478800 0.573100
12.537300 0.591000
12.595800 0.607500
12.654300 0.620800
12.712800 0.633300
12.771300 0.647900
12.829800 0.665400
12.888300 0.680600
12.946800 0.695300
13.005300 0.723100
13.063800 0.784000
13.122300 0.805500
13.180800 0.834200
13.239300 0.873400
13.297800 0.916000
13.356300 0.952800
13.414800 0.984600
13.473300 1.013000
13.531800 1.043400
13.590300 1.082600
13.648800 1.129600
13.707300 1.182600
13.765800 1.229000
13.824300 1.283200
13.882800 1.334600
13.941300 1.406400
13.999800 1.495400
14.058300 1.593800
14.116800 1.860700
14.175300 1.912700
14.233800 1.886300
14.292300 1.908500
14.350800 1.913700
14.409300 1.903700
14.467800 1.855600
14.526300 1.819500
14.584800 1.825100
14.643300 1.837500
14.701800 1.867700
14.760300 1.883300
14.818800 1.907200
14.877300 1.942700
14.935800 2.095400
14.994300 2.246900
15.052800 2.124400
15.111300 2.087700
15.169800 2.056700
15.228300 2.046100
15.286800 1.883500
15.345300 1.766400
15.403800 1.701200
15.462300 1.809800
15.520800 1.989500
15.579300 2.184200
15.637800 2.623300
15.696300 2.636400
15.754800 2.673200
15.813300 2.908800
15.871800 2.824700
15.930300 2.717500
15.988800 2.596200
16.047200 2.329900
16.105700 2.081200
16.164200 1.942600
16.222700 1.793400
16.281200 1.736300
16.339700 1.635200
16.398200 1.484100
16.456700 1.400300
16.515200 1.369700
16.573700 1.331800
16.632200 1.300600
16.690700 1.295700
16.749200 1.305800
16.807700 1.337800
16.866200 1.268200
16.924700 1.177300
16.983200 1.142700
17.041700 1.166000
17.100200 1.320000
17.158700 1.265200
17.217200 1.295700
17.275700 1.216500
17.334200 1.370100
17.392700 0.814400
17.451200 0.771300
17.509700 0.677200
17.568200 0.611000
17.626700 0.709300
17.685200 0.818600
17.743700 0.943400
17.802200 1.216500
17.860700 2.145000
17.919200 1.802400
17.977700 1.875600
18.036200 1.976100
18.094700 1.904300
18.153200 1.917000
18.211700 1.975900
18.270200 2.015700
18.328700 2.007500
18.387200 1.962600
18.445700 2.163000
18.504200 2.276200
18.562700 1.926400
18.621200 1.800500
18.679700 1.717600
18.738200 1.640500
18.796700 1.585100
18.855200 1.419400
18.913700 1.375000
18.972200 1.352200
19.030700 1.257400
19.089200 1.167700
19.147700 1.106600
19.206200 1.031100
19.264700 0.893200
19.323200 0.862900
19.381700 0.894300
19.440200 0.856800
19.498700 0.877400
19.557200 0.927500
19.615700 0.995800
19.674200 1.111800
19.732700 1.093100
19.791200 1.111600
19.849700 1.163800
19.908200 1.228400
19.966700 1.309800
20.025200 1.506900
20.083700 1.678500
20.142200 1.898500
20.200700 2.271800
20.259200 2.262100
20.317700 2.308000
20.376200 2.212700
20.434700 2.112000
20.493200 2.156600
20.551700 2.310400
20.610200 2.433900
20.668700 2.638900
20.727200 2.887800
20.785700 3.305600
20.844200 3.558100
20.902700 3.235400
20.961200 3.092300
21.019700 3.030500
21.078200 2.864700
21.136700 2.436600
21.195200 2.150600
21.253700 2.010400
21.312200 1.921100
21.370700 1.733400
21.429200 1.632400
21.487700 1.571900
21.546200 1.533700
21.604700 1.499500
21.663200 1.490200
21.721700 1.468900
21.780200 1.457000
21.838700 1.450000
21.897200 1.457700
21.955700 1.481400
22.014200 1.523900
22.072700 1.634500
22.131200 1.674400
22.189700 1.699700
22.248200 1.705900
22.306700 1.653800
22.365200 1.574000
22.423700 1.492300
22.482200 1.429400
22.540700 1.405400
22.599200 1.380900
22.657700 1.355700
22.716200 1.327200
22.774700 1.290600
22.833200 1.261300
22.891700 1.246300
22.950200 1.226100
23.008700 1.204000
23.067200 1.176300
23.125700 1.155900
23.184200 1.139200
23.242700 1.122400
23.301200 1.106300
23.359700 1.089800
23.418200 1.071500
23.476700 1.054700
23.535200 1.039200
23.593700 1.023500
23.652200 1.008300
23.710700 0.993800
23.769200 0.993500
23.827600 0.988900
23.886100 0.977200
23.944600 0.963700
24.003100 0.964700
24.061600 1.040100
24.120100 1.087200
24.178600 0.985300
24.237100 0.862100
24.295600 0.797300
24.354100 0.855700
24.412600 1.223800
24.471100 1.461900
24.529600 1.613800
24.588100 1.296300
24.646600 1.105500
24.705100 1.078500
24.763600 1.062100
24.822100 1.053600
24.880600 1.049200
24.939100 1.044600
24.997600 0.979500
25.056100 0.956900
25.114600 0.938700
25.173100 0.922700
25.231600 0.909900
25.290100 0.899200
25.348600 0.890200
25.407100 0.882800
25.465600 0.878500
25.524100 0.869000
25.582600 0.934300
25.641100 1.065200
25.699600 1.059600
25.758100 1.128100
25.816600 1.180800
25.875100 1.268900
25.933600 1.200200
25.992100 1.233100
26.050600 1.270500
26.109100 1.316900
26.167600 1.363500
26.226100 1.418700
26.284600 1.473200
26.343100 1.390400
26.401600 1.404200
26.460100 1.415200
26.518600 1.465700
26.577100 1.546200
26.635600 1.733100
26.694100 1.957100
26.752600 2.142800
26.811100 2.196200
26.869600 1.725300
26.928100 1.703400
26.986600 1.406000
27.045100 1.364300
27.103600 1.384600
27.162100 1.481700
27.220600 1.532700
27.279100 1.535300
27.337600 1.566800
27.396100 1.575600
27.454600 1.531300
27.513100 1.457200
27.571600 1.443800
27.630100 1.429000
27.688600 1.483300
27.747100 1.562200
27.805600 1.656300
27.864100 1.719200
27.922600 1.716400
27.981100 1.509500
28.039600 1.313400
28.098100 1.116400
