set title 'mp-1184781 - Density of States'
set xlabel 'Energy (eV)'
set ylabel 'DOS (states/eV)'
set grid
set xrange [-10:10]
set yrange [0:163.895]
set xzeroaxis lt -1
set terminal png size 800,600
set output 'mp-1184781_dos_gnuplot.png'
plot '-' using 1:2 with lines title 'DOS'
-20.650500 0.000000
-20.617900 0.000000
-20.585300 0.000000
-20.552600 0.000000
-20.520000 0.000000
-20.487400 0.000000
-20.454700 0.000000
-20.422100 0.000000
-20.389500 0.000000
-20.356800 0.000000
-20.324200 0.000000
-20.291600 0.000000
-20.259000 0.000000
-20.226300 0.000000
-20.193700 0.000000
-20.161100 0.000000
-20.128400 0.000000
-20.095800 0.000000
-20.063200 0.000000
-20.030500 0.000000
-19.997900 0.000000
-19.965300 0.000000
-19.932600 0.000000
-19.900000 0.000000
-19.867400 0.000000
-19.834800 0.000000
-19.802100 0.000000
-19.769500 0.000000
-19.736900 0.000000
-19.704200 0.000000
-19.671600 0.000000
-19.639000 0.000000
-19.606300 0.000000
-19.573700 0.000000
-19.541100 0.000000
-19.508500 0.000000
-19.475800 0.000000
-19.443200 0.000000
-19.410600 0.000000
-19.377900 0.000000
-19.345300 0.000000
-19.312700 0.000000
-19.280000 0.000000
-19.247400 0.000000
-19.214800 0.000000
-19.182100 0.000000
-19.149500 0.000000
-19.116900 0.000000
-19.084300 0.000000
-19.051600 0.000000
-19.019000 0.000000
-18.986400 0.000000
-18.953700 0.000000
-18.921100 0.000000
-18.888500 0.000000
-18.855800 0.000000
-18.823200 0.000000
-18.790600 0.000000
-18.757900 0.000000
-18.725300 0.000000
-18.692700 0.000000
-18.660100 0.000000
-18.627400 0.000000
-18.594800 0.000000
-18.562200 0.000000
-18.529500 0.000000
-18.496900 0.000000
-18.464300 0.000000
-18.431600 0.000000
-18.399000 0.000000
-18.366400 0.000000
-18.333800 0.000000
-18.301100 0.000000
-18.268500 0.000000
-18.235900 0.000000
-18.203200 0.000000
-18.170600 0.000000
-18.138000 0.000000
-18.105300 0.000000
-18.072700 0.000000
-18.040100 0.000000
-18.007400 0.000000
-17.974800 0.000000
-17.942200 0.000000
-17.909600 0.000000
-17.876900 0.000000
-17.844300 0.000000
-17.811700 0.000000
-17.779000 0.000000
-17.746400 0.000000
-17.713800 0.000000
-17.681100 25.437100
-17.648500 320.814300
-17.615900 172.036900
-17.583200 118.574700
-17.550600 0.000000
-17.518000 0.000000
-17.485400 0.000000
-17.452700 0.000000
-17.420100 0.000000
-17.387500 0.000000
-17.354800 0.000000
-17.322200 0.000000
-17.289600 0.000000
-17.256900 0.000000
-17.224300 0.000000
-17.191700 0.000000
-17.159100 0.000000
-17.126400 0.000000
-17.093800 0.000000
-17.061200 0.000000
-17.028500 0.000000
-16.995900 0.000000
-16.963300 0.000000
-16.930600 0.000000
-16.898000 0.000000
-16.865400 0.000000
-16.832700 0.000000
-16.800100 0.000000
-16.767500 0.000000
-16.734900 0.000000
-16.702200 0.000000
-16.669600 0.000000
-16.637000 0.000000
-16.604300 0.000000
-16.571700 0.000000
-16.539100 0.000000
-16.506400 0.000000
-16.473800 0.000000
-16.441200 0.000000
-16.408500 0.000000
-16.375900 0.000000
-16.343300 0.000000
-16.310700 0.000000
-16.278000 0.000000
-16.245400 0.000000
-16.212800 0.000000
-16.180100 0.000000
-16.147500 0.000000
-16.114900 0.000000
-16.082200 0.000000
-16.049600 0.000000
-16.017000 0.000000
-15.984400 0.000000
-15.951700 0.000000
-15.919100 0.000000
-15.886500 0.000000
-15.853800 0.000000
-15.821200 0.000000
-15.788600 0.000000
-15.755900 0.000000
-15.723300 0.000000
-15.690700 0.000000
-15.658000 0.000000
-15.625400 0.000000
-15.592800 0.000000
-15.560200 0.000000
-15.527500 0.000000
-15.494900 0.000000
-15.462300 0.000000
-15.429600 0.000000
-15.397000 0.000000
-15.364400 0.000000
-15.331700 0.000000
-15.299100 0.000000
-15.266500 0.000000
-15.233800 0.000000
-15.201200 0.000000
-15.168600 0.000000
-15.136000 0.000000
-15.103300 0.000000
-15.070700 0.000000
-15.038100 0.000000
-15.005400 0.000000
-14.972800 0.000000
-14.940200 0.000000
-14.907500 0.000000
-14.874900 0.000000
-14.842300 0.000000
-14.809600 0.000000
-14.777000 0.000000
-14.744400 0.000000
-14.711800 0.000000
-14.679100 0.000000
-14.646500 0.000000
-14.613900 0.000000
-14.581200 0.000000
-14.548600 0.000000
-14.516000 0.000000
-14.483300 0.000000
-14.450700 0.000000
-14.418100 0.000000
-14.385500 0.000000
-14.352800 0.000000
-14.320200 0.000000
-14.287600 0.000000
-14.254900 0.000000
-14.222300 0.000000
-14.189700 0.000000
-14.157000 0.000000
-14.124400 0.000000
-14.091800 0.000000
-14.059100 0.000000
-14.026500 0.000000
-13.993900 0.000000
-13.961300 0.000000
-13.928600 0.000000
-13.896000 0.000000
-13.863400 0.000000
-13.830700 0.000000
-13.798100 0.000000
-13.765500 0.000000
-13.732800 0.000000
-13.700200 0.000000
-13.667600 0.000000
-13.634900 0.000000
-13.602300 0.000000
-13.569700 0.000000
-13.537100 0.000000
-13.504400 0.000000
-13.471800 0.000000
-13.439200 0.000000
-13.406500 0.000000
-13.373900 0.000000
-13.341300 0.000000
-13.308600 0.000000
-13.276000 0.000000
-13.243400 0.000000
-13.210800 0.000000
-13.178100 0.000000
-13.145500 0.000000
-13.112900 0.000000
-13.080200 0.000000
-13.047600 0.000000
-13.015000 0.000000
-12.982300 0.000000
-12.949700 0.000000
-12.917100 0.000000
-12.884400 0.000000
-12.851800 0.000000
-12.819200 0.000000
-12.786600 0.000000
-12.753900 0.000000
-12.721300 0.000000
-12.688700 0.000000
-12.656000 0.000000
-12.623400 0.000000
-12.590800 0.000000
-12.558100 0.000000
-12.525500 0.000000
-12.492900 0.000000
-12.460200 0.000000
-12.427600 0.000000
-12.395000 0.000000
-12.362400 0.000000
-12.329700 0.000000
-12.297100 0.000000
-12.264500 0.000000
-12.231800 0.000000
-12.199200 0.000000
-12.166600 0.000000
-12.133900 0.000000
-12.101300 0.000000
-12.068700 0.000000
-12.036100 0.000000
-12.003400 0.000000
-11.970800 0.000000
-11.938200 0.000000
-11.905500 0.000000
-11.872900 0.000000
-11.840300 0.000000
-11.807600 0.000000
-11.775000 0.000000
-11.742400 0.000000
-11.709700 0.000000
-11.677100 0.000000
-11.644500 0.000000
-11.611900 0.000000
-11.579200 0.000000
-11.546600 0.000000
-11.514000 0.000000
-11.481300 0.000000
-11.448700 0.000000
-11.416100 0.000000
-11.383400 0.000000
-11.350800 0.000000
-11.318200 0.000000
-11.285500 0.000000
-11.252900 0.000000
-11.220300 0.000000
-11.187700 0.000000
-11.155000 0.000000
-11.122400 0.000000
-11.089800 0.000000
-11.057100 0.000000
-11.024500 0.000000
-10.991900 0.000000
-10.959200 0.000000
-10.926600 0.000000
-10.894000 0.000000
-10.861400 0.000000
-10.828700 0.000000
-10.796100 0.000000
-10.763500 0.000000
-10.730800 0.000000
-10.698200 0.000000
-10.665600 0.000000
-10.632900 0.000000
-10.600300 0.000000
-10.567700 0.000000
-10.535000 0.000000
-10.502400 0.000000
-10.469800 0.000000
-10.437200 0.000000
-10.404500 0.000000
-10.371900 0.000000
-10.339300 0.000000
-10.306600 0.000000
-10.274000 0.000000
-10.241400 0.000000
-10.208700 0.000000
-10.176100 0.000000
-10.143500 0.000000
-10.110800 0.000000
-10.078200 0.000000
-10.045600 0.000000
-10.013000 0.000000
-9.980300 0.000000
-9.947700 0.000000
-9.915100 0.000000
-9.882400 0.000000
-9.849800 0.000000
-9.817200 0.000000
-9.784500 0.000000
-9.751900 0.000000
-9.719300 0.000000
-9.686700 0.000000
-9.654000 0.000000
-9.621400 0.000000
-9.588800 0.000000
-9.556100 0.000000
-9.523500 0.000000
-9.490900 0.000000
-9.458200 0.000000
-9.425600 0.000000
-9.393000 0.000000
-9.360300 0.000000
-9.327700 0.000000
-9.295100 0.000000
-9.262500 0.000000
-9.229800 0.000000
-9.197200 0.000000
-9.164600 0.000000
-9.131900 0.000000
-9.099300 0.000000
-9.066700 0.000000
-9.034000 0.000000
-9.001400 0.000000
-8.968800 0.000000
-8.936100 0.000000
-8.903500 0.000000
-8.870900 0.000000
-8.838300 0.000000
-8.805600 0.000000
-8.773000 0.000000
-8.740400 0.000000
-8.707700 0.000000
-8.675100 0.000000
-8.642500 0.000000
-8.609800 0.000000
-8.577200 0.000000
-8.544600 0.000000
-8.512000 0.000000
-8.479300 0.000000
-8.446700 0.000000
-8.414100 0.000000
-8.381400 0.000000
-8.348800 0.000000
-8.316200 0.000000
-8.283500 0.000000
-8.250900 0.000000
-8.218300 15.808700
-8.185600 48.336100
-8.153000 148.995400
-8.120400 29.081900
-8.087800 0.000000
-8.055100 0.000000
-8.022500 0.000000
-7.989900 0.000000
-7.957200 0.000000
-7.924600 0.000000
-7.892000 0.000000
-7.859300 0.000000
-7.826700 0.000000
-7.794100 0.000000
-7.761400 0.000000
-7.728800 0.000000
-7.696200 0.000000
-7.663600 0.000000
-7.630900 0.000000
-7.598300 0.000000
-7.565700 0.000000
-7.533000 0.000000
-7.500400 0.000000
-7.467800 0.000000
-7.435100 0.000000
-7.402500 0.000000
-7.369900 0.000000
-7.337300 0.000000
-7.304600 0.000000
-7.272000 0.000000
-7.239400 0.000000
-7.206700 0.000000
-7.174100 0.000000
-7.141500 0.000000
-7.108800 0.000000
-7.076200 0.000000
-7.043600 0.000000
-7.010900 0.000000
-6.978300 0.000000
-6.945700 0.000000
-6.913100 0.000000
-6.880400 0.000000
-6.847800 0.000000
-6.815200 0.000000
-6.782500 0.000000
-6.749900 0.000000
-6.717300 0.000000
-6.684600 0.000000
-6.652000 0.000000
-6.619400 0.000000
-6.586700 0.000000
-6.554100 0.000000
-6.521500 0.000000
-6.488900 0.000000
-6.456200 0.000000
-6.423600 0.000000
-6.391000 0.000000
-6.358300 0.000000
-6.325700 0.000000
-6.293100 0.000000
-6.260400 0.000000
-6.227800 0.000000
-6.195200 0.000000
-6.162500 0.000000
-6.129900 0.000000
-6.097300 0.000000
-6.064700 0.000000
-6.032000 0.000000
-5.999400 0.000000
-5.966800 0.000000
-5.934100 0.000000
-5.901500 0.000000
-5.868900 0.000000
-5.836200 0.000000
-5.803600 0.000000
-5.771000 0.000000
-5.738400 0.000000
-5.705700 0.000000
-5.673100 0.000000
-5.640500 0.000000
-5.607800 0.000000
-5.575200 0.000000
-5.542600 0.000000
-5.509900 0.000000
-5.477300 0.000000
-5.444700 0.000200
-5.412000 0.037400
-5.379400 0.124200
-5.346800 0.178300
-5.314200 0.201600
-5.281500 0.229900
-5.248900 0.248900
-5.216300 0.279600
-5.183600 0.312000
-5.151000 0.337400
-5.118400 0.348500
-5.085700 0.365100
-5.053100 0.379500
-5.020500 0.394000
-4.987800 0.408500
-4.955200 0.425700
-4.922600 0.443600
-4.890000 0.462400
-4.857300 0.482900
-4.824700 0.499800
-4.792100 0.510000
-4.759400 0.518400
-4.726800 0.528600
-4.694200 0.541400
-4.661500 0.554000
-4.628900 0.566500
-4.596300 0.579000
-4.563700 0.592600
-4.531000 0.607200
-4.498400 0.622200
-4.465800 0.635900
-4.433100 0.650800
-4.400500 0.665900
-4.367900 0.680600
-4.335200 0.693800
-4.302600 0.707800
-4.270000 0.723000
-4.237300 0.746800
-4.204700 0.767600
-4.172100 0.782800
-4.139500 0.791900
-4.106800 0.818700
-4.074200 0.806400
-4.041600 0.810400
-4.008900 0.811400
-3.976300 0.810700
-3.943700 0.811300
-3.911000 0.813000
-3.878400 0.815700
-3.845800 0.819500
-3.813100 0.827400
-3.780500 0.835700
-3.747900 0.842200
-3.715300 0.848000
-3.682600 0.857700
-3.650000 0.869600
-3.617400 0.883600
-3.584700 0.895600
-3.552100 0.947700
-3.519500 0.979300
-3.486800 1.003800
-3.454200 1.021100
-3.421600 1.039800
-3.389000 1.068200
-3.356300 1.034700
-3.323700 1.040500
-3.291100 1.056200
-3.258400 1.063600
-3.225800 1.116800
-3.193200 1.175800
-3.160500 1.051500
-3.127900 0.960800
-3.095300 0.912300
-3.062600 0.876100
-3.030000 0.857600
-2.997400 0.843400
-2.964800 0.819600
-2.932100 0.776500
-2.899500 0.766400
-2.866900 0.768500
-2.834200 0.771600
-2.801600 0.781200
-2.769000 0.786200
-2.736300 0.773700
-2.703700 0.781800
-2.671100 0.817300
-2.638400 0.967200
-2.605800 1.068300
-2.573200 1.169500
-2.540600 1.272300
-2.507900 1.275100
-2.475300 1.287100
-2.442700 1.281500
-2.410000 1.291500
-2.377400 1.278300
-2.344800 1.271800
-2.312100 1.265000
-2.279500 1.238000
-2.246900 1.251900
-2.214300 1.304000
-2.181600 1.218600
-2.149000 1.212100
-2.116400 1.209200
-2.083700 1.204100
-2.051100 1.194400
-2.018500 1.179600
-1.985800 1.163400
-1.953200 1.148300
-1.920600 1.101100
-1.887900 1.088100
-1.855300 1.097600
-1.822700 1.161900
-1.790100 1.194800
-1.757400 1.212800
-1.724800 1.219200
-1.692200 1.273500
-1.659500 1.278300
-1.626900 1.316700
-1.594300 1.365000
-1.561600 1.391600
-1.529000 1.431200
-1.496400 1.432900
-1.463700 1.456500
-1.431100 1.501600
-1.398500 1.547200
-1.365900 1.583700
-1.333200 1.663600
-1.300600 1.721200
-1.268000 1.826300
-1.235300 1.999300
-1.202700 1.880200
-1.170100 1.737000
-1.137400 1.736700
-1.104800 1.748100
-1.072200 1.754300
-1.039600 1.773400
-1.006900 1.800300
-0.974300 1.824900
-0.941700 1.852200
-0.909000 1.820800
-0.876400 1.830600
-0.843800 1.853100
-0.811100 1.924300
-0.778500 1.981600
-0.745900 2.033600
-0.713200 2.104300
-0.680600 2.220500
-0.648000 2.292500
-0.615400 2.271000
-0.582700 2.079000
-0.550100 1.817000
-0.517500 1.575700
-0.484800 1.459200
-0.452200 1.434700
-0.419600 1.450600
-0.386900 1.416900
-0.354300 1.270700
-0.321700 1.186500
-0.289000 1.107200
-0.256400 1.016600
-0.223800 1.006000
-0.191200 0.938400
-0.158500 0.707100
-0.125900 0.527000
-0.093300 0.459500
-0.060600 0.437200
-0.028000 0.424700
0.004600 0.411400
0.037300 0.397400
0.069900 0.385600
0.102500 0.373900
0.135100 0.362400
0.167800 0.351600
0.200400 0.343100
0.233000 0.335200
0.265700 0.327400
0.298300 0.336600
0.330900 0.350100
0.363600 0.366300
0.396200 0.386700
0.428800 0.411700
0.461500 0.461800
0.494100 0.502200
0.526700 0.513300
0.559300 0.515900
0.592000 0.535800
0.624600 0.561600
0.657200 0.590100
0.689900 0.628400
0.722500 0.667500
0.755100 0.905300
0.787800 0.917500
0.820400 0.939000
0.853000 0.933200
0.885700 0.931100
0.918300 0.937800
0.950900 0.948900
0.983500 0.971900
1.016200 1.008400
1.048800 1.015700
1.081400 1.046800
1.114100 1.104500
1.146700 1.192100
1.179300 1.380100
1.212000 1.510500
1.244600 1.940000
1.277200 1.858100
1.309900 1.701200
1.342500 1.681700
1.375100 1.659200
1.407700 1.703600
1.440400 1.504700
1.473000 1.481000
1.505600 1.451600
1.538300 1.421300
1.570900 1.397300
1.603500 1.402500
1.636200 1.411500
1.668800 1.531600
1.701400 1.328300
1.734000 1.209100
1.766700 1.150300
1.799300 1.118000
1.831900 1.107800
1.864600 1.133600
1.897200 1.107200
1.929800 1.043800
1.962500 1.040000
1.995100 1.022400
2.027700 1.015400
2.060400 1.020000
2.093000 0.999800
2.125600 0.980200
2.158200 0.985600
2.190900 0.975100
2.223500 0.969000
2.256100 0.967300
2.288800 0.980700
2.321400 1.003700
2.354000 1.045300
2.386700 1.245700
2.419300 1.317100
2.451900 1.384300
2.484600 1.351800
2.517200 1.175600
2.549800 1.026000
2.582400 0.972800
2.615100 0.968600
2.647700 0.949400
2.680300 0.930000
2.713000 0.914100
2.745600 0.909800
2.778200 0.912900
2.810900 0.924300
2.843500 0.949600
2.876100 0.987600
2.908700 1.041200
2.941400 1.107500
2.974000 1.204300
3.006600 1.269900
3.039300 1.243900
3.071900 1.253700
3.104500 1.281300
3.137200 1.305400
3.169800 1.294200
3.202400 1.294700
3.235100 1.317900
3.267700 1.374800
3.300300 1.354800
3.332900 1.441200
3.365600 1.405000
3.398200 1.416000
3.430800 1.428400
3.463500 1.450700
3.496100 1.485400
3.528700 1.522900
3.561400 1.564300
3.594000 1.612500
3.626600 1.678700
3.659300 1.755900
3.691900 1.840000
3.724500 1.936900
3.757100 2.048400
3.789800 2.084400
3.822400 2.103100
3.855000 2.187700
3.887700 2.279600
3.920300 2.286600
3.952900 2.316700
3.985600 2.358200
4.018200 2.359800
4.050800 2.383400
4.083400 2.382100
4.116100 2.393700
4.148700 2.405900
4.181300 2.422100
4.214000 2.407400
4.246600 2.406700
4.279200 2.389800
4.311900 2.370000
4.344500 2.312400
4.377100 2.337700
4.409800 2.229200
4.442400 2.131600
4.475000 2.072000
4.507600 1.931500
4.540300 1.926700
4.572900 1.997100
4.605500 1.953500
4.638200 1.920000
4.670800 1.893500
4.703400 1.869700
4.736100 1.823800
4.768700 1.839500
4.801300 1.761900
4.834000 1.730300
4.866600 1.720900
4.899200 1.691000
4.931800 1.680500
4.964500 1.687600
4.997100 1.711200
5.029700 1.736000
5.062400 1.755700
5.095000 1.764100
5.127600 1.779700
5.160300 1.795700
5.192900 1.818300
5.225500 1.811000
5.258100 1.781700
5.290800 1.749500
5.323400 1.730600
5.356000 1.723800
5.388700 1.722500
5.421300 1.749300
5.453900 1.880800
5.486600 1.891800
5.519200 1.908300
5.551800 1.921600
5.584500 1.936300
5.617100 1.943600
5.649700 1.934200
5.682300 1.927200
5.715000 1.928700
5.747600 1.938500
5.780200 1.925800
5.812900 1.912400
5.845500 1.902000
5.878100 1.896400
5.910800 1.896200
5.943400 1.945700
5.976000 2.008100
6.008700 2.033700
6.041300 2.074600
6.073900 2.096000
6.106500 2.097900
6.139200 2.021900
6.171800 1.952900
6.204400 1.900200
6.237100 1.849700
6.269700 1.806900
6.302300 1.771100
6.335000 1.735900
6.367600 1.699000
6.400200 1.669000
6.432800 1.651900
6.465500 1.642800
6.498100 1.637300
6.530700 1.706000
6.563400 1.714900
6.596000 1.731400
6.628600 1.745600
6.661300 1.772300
6.693900 1.813100
6.726500 1.867100
6.759200 1.944400
6.791800 2.052700
6.824400 2.146800
6.857000 2.231000
6.889700 2.294200
6.922300 2.278400
6.954900 2.197800
6.987600 2.246500
7.020200 2.324500
7.052800 2.359800
7.085500 2.298300
7.118100 2.194900
7.150700 2.124700
7.183400 2.120400
7.216000 2.104000
7.248600 2.107400
7.281200 2.132800
7.313900 2.170300
7.346500 2.216300
7.379100 2.275300
7.411800 2.293200
7.444400 2.239800
7.477000 2.192300
7.509700 2.139800
7.542300 2.122900
7.574900 1.996300
7.607500 1.901100
7.640200 1.843700
7.672800 1.786500
7.705400 1.766600
7.738100 1.836500
7.770700 1.779800
7.803300 1.731400
7.836000 1.759100
7.868600 1.840800
7.901200 1.997700
7.933900 2.096400
7.966500 2.212700
7.999100 2.357800
8.031700 2.367100
8.064400 2.522300
8.097000 2.779200
8.129600 2.997900
8.162300 3.007400
8.194900 2.998800
8.227500 3.107200
8.260200 3.064900
8.292800 3.021200
8.325400 2.854500
8.358100 2.786100
8.390700 2.753000
8.423300 2.755200
8.455900 2.762600
8.488600 2.490300
8.521200 2.380500
8.553800 2.258100
8.586500 2.057900
8.619100 1.983700
8.651700 2.076500
8.684400 2.115100
8.717000 2.186300
8.749600 2.249000
8.782200 2.278000
8.814900 2.374300
8.847500 2.420600
8.880100 2.500400
8.912800 2.388100
8.945400 2.386000
8.978000 2.383100
9.010700 2.437300
9.043300 2.578600
9.075900 2.778400
9.108600 2.730200
9.141200 2.698200
9.173800 2.653100
9.206400 2.642000
9.239100 2.604700
9.271700 2.555100
9.304300 2.584900
9.337000 2.648900
9.369600 2.644900
9.402200 2.590200
9.434900 2.527300
9.467500 2.384800
9.500100 2.249900
9.532800 2.134700
9.565400 2.006700
9.598000 1.902300
9.630600 1.842800
9.663300 1.815100
9.695900 1.816300
9.728500 1.805300
9.761200 1.856100
9.793800 1.911700
9.826400 1.972800
9.859100 2.026700
9.891700 2.087000
9.924300 2.154600
9.957000 2.220800
9.989600 2.302700
10.022200 2.392100
10.054800 2.541800
10.087500 2.551800
10.120100 2.540500
10.152700 2.576000
10.185400 2.661000
10.218000 2.752700
10.250600 2.835400
10.283300 2.881000
10.315900 2.827200
10.348500 2.716100
10.381100 2.613700
10.413800 2.506800
10.446400 2.455300
10.479000 2.416900
10.511700 2.394300
10.544300 2.381800
10.576900 2.370200
10.609600 2.364500
10.642200 2.379700
10.674800 2.399700
10.707500 2.339200
10.740100 2.336000
10.772700 2.339600
10.805300 2.346300
10.838000 2.439900
10.870600 2.502000
10.903200 2.424200
10.935900 2.391800
10.968500 2.306100
11.001100 2.270900
11.033800 2.380700
11.066400 2.425100
11.099000 2.366600
11.131700 2.340400
11.164300 2.340300
11.196900 2.375700
11.229500 2.544500
11.262200 2.481400
11.294800 2.457900
11.327400 2.408700
11.360100 2.454300
11.392700 2.282100
11.425300 2.225600
11.458000 2.163500
11.490600 2.131200
11.523200 2.110100
11.555800 2.090500
11.588500 2.069500
11.621100 2.070700
11.653700 2.073100
11.686400 2.027900
11.719000 1.993500
11.751600 1.988000
11.784300 1.979300
11.816900 1.969000
11.849500 1.996000
11.882200 1.847300
11.914800 1.785500
11.947400 1.728500
11.980000 1.698000
12.012700 1.686800
12.045300 1.723100
12.077900 1.745800
12.110600 1.747900
12.143200 1.767600
12.175800 1.796800
12.208500 1.828700
12.241100 1.860300
12.273700 1.920100
12.306400 1.919500
12.339000 1.955500
12.371600 2.042600
12.404200 2.095000
12.436900 2.109800
12.469500 2.004700
12.502100 1.986100
12.534800 1.965300
12.567400 1.964000
12.600000 1.926900
12.632700 1.898200
12.665300 1.885000
12.697900 1.894800
12.730500 1.897200
12.763200 1.952500
12.795800 1.915800
12.828400 1.869000
12.861100 1.729300
12.893700 1.662800
12.926300 1.621300
12.959000 1.603100
12.991600 1.568800
13.024200 1.593900
13.056900 1.626900
13.089500 1.704000
13.122100 1.584100
