set title 'mp-1229041 - Density of States'
set xlabel 'Energy (eV)'
set ylabel 'DOS (states/eV)'
set grid
set xrange [-10:10]
set yrange [0:16.862]
set xzeroaxis lt -1
set terminal png size 800,600
set output 'mp-1229041_dos_gnuplot.png'
plot '-' using 1:2 with lines title 'DOS'
-9.864300 0.000000
-9.844900 0.000000
-9.825600 0.000000
-9.806200 0.000000
-9.786800 0.000000
-9.767500 0.000000
-9.748100 0.000000
-9.728800 0.000000
-9.709400 0.000000
-9.690000 0.000000
-9.670700 0.000000
-9.651300 0.000000
-9.631900 0.000000
-9.612600 0.000000
-9.593200 0.000000
-9.573800 0.000000
-9.554500 0.000000
-9.535100 0.000000
-9.515700 0.000000
-9.496400 0.000000
-9.477000 0.000000
-9.457600 0.000000
-9.438300 0.000000
-9.418900 0.000000
-9.399500 0.000000
-9.380200 0.000000
-9.360800 0.000000
-9.341400 0.000000
-9.322100 0.000000
-9.302700 0.000000
-9.283300 0.000000
-9.264000 0.000000
-9.244600 0.000000
-9.225200 0.000000
-9.205900 0.000000
-9.186500 0.000000
-9.167200 0.000000
-9.147800 0.000000
-9.128400 0.000000
-9.109100 0.000000
-9.089700 0.000000
-9.070300 0.000000
-9.051000 0.000000
-9.031600 0.000000
-9.012200 0.000000
-8.992900 0.000000
-8.973500 0.000000
-8.954100 0.000000
-8.934800 0.000000
-8.915400 0.000000
-8.896000 0.000000
-8.876700 0.000000
-8.857300 0.000000
-8.837900 0.000000
-8.818600 0.000000
-8.799200 0.000000
-8.779800 0.000000
-8.760500 0.000000
-8.741100 0.000000
-8.721700 0.000000
-8.702400 0.000000
-8.683000 0.000000
-8.663600 0.000000
-8.644300 0.000000
-8.624900 0.000000
-8.605600 0.000000
-8.586200 0.000000
-8.566800 0.000000
-8.547500 0.000000
-8.528100 0.000000
-8.508700 0.000000
-8.489400 0.000000
-8.470000 0.000000
-8.450600 0.000000
-8.431300 0.000000
-8.411900 0.000000
-8.392500 0.000000
-8.373200 0.000000
-8.353800 0.000000
-8.334400 0.000000
-8.315100 0.000000
-8.295700 0.000000
-8.276300 0.000000
-8.257000 0.000000
-8.237600 0.000000
-8.218200 0.000000
-8.198900 0.000000
-8.179500 0.000000
-8.160100 0.000000
-8.140800 0.000000
-8.121400 0.000000
-8.102000 0.000300
-8.082700 0.038900
-8.063300 0.143100
-8.043900 0.349300
-8.024600 0.506700
-8.005200 0.577600
-7.985900 0.511400
-7.966500 0.463300
-7.947100 0.490700
-7.927800 0.631200
-7.908400 0.813900
-7.889000 0.968000
-7.869700 1.047400
-7.850300 1.056100
-7.830900 1.015200
-7.811600 0.970800
-7.792200 0.955100
-7.772800 0.972200
-7.753500 1.002700
-7.734100 1.033200
-7.714700 1.040200
-7.695400 1.036200
-7.676000 1.022400
-7.656600 1.015000
-7.637300 1.014100
-7.617900 1.021400
-7.598500 1.034500
-7.579200 1.042300
-7.559800 1.041100
-7.540400 1.036100
-7.521100 1.035300
-7.501700 1.041300
-7.482300 1.051200
-7.463000 1.080800
-7.443600 1.216700
-7.424300 1.427500
-7.404900 1.603000
-7.385500 1.623200
-7.366200 1.554100
-7.346800 1.501100
-7.327400 1.505400
-7.308100 1.536700
-7.288700 1.568100
-7.269300 1.599500
-7.250000 1.630600
-7.230600 1.646900
-7.211200 1.627900
-7.191900 1.598500
-7.172500 1.580900
-7.153100 1.587700
-7.133800 1.600500
-7.114400 1.613400
-7.095000 1.623900
-7.075700 1.632200
-7.056300 1.639300
-7.036900 1.646600
-7.017600 1.655000
-6.998200 1.666200
-6.978800 1.680800
-6.959500 1.691100
-6.940100 1.688700
-6.920700 1.682800
-6.901400 1.680600
-6.882000 1.687100
-6.862700 1.695900
-6.843300 1.705300
-6.823900 1.715900
-6.804600 1.728000
-6.785200 1.740600
-6.765800 1.752600
-6.746500 1.763700
-6.727100 1.775500
-6.707700 1.789000
-6.688400 1.803800
-6.669000 1.819200
-6.649600 1.835100
-6.630300 1.850800
-6.610900 1.865600
-6.591500 1.876400
-6.572200 1.882600
-6.552800 1.889300
-6.533400 1.898600
-6.514100 1.910500
-6.494700 1.922300
-6.475300 1.934300
-6.456000 1.953000
-6.436600 1.981600
-6.417200 2.026100
-6.397900 2.067800
-6.378500 2.103200
-6.359100 2.128500
-6.339800 2.153300
-6.320400 2.178000
-6.301000 2.215200
-6.281700 2.259100
-6.262300 2.308800
-6.243000 2.355200
-6.223600 2.481300
-6.204200 2.667400
-6.184900 3.007400
-6.165500 2.880800
-6.146100 2.719400
-6.126800 2.461700
-6.107400 2.460500
-6.088000 2.459100
-6.068700 2.456300
-6.049300 2.718600
-6.029900 2.766100
-6.010600 2.796800
-5.991200 2.614800
-5.971800 2.464200
-5.952500 2.312600
-5.933100 2.213100
-5.913700 2.186700
-5.894400 2.160400
-5.875000 2.134100
-5.855600 2.107800
-5.836300 2.053400
-5.816900 2.019600
-5.797500 1.998800
-5.778200 1.997600
-5.758800 2.001900
-5.739400 2.009900
-5.720100 1.998900
-5.700700 1.986900
-5.681400 1.970800
-5.662000 1.970600
-5.642600 1.970400
-5.623300 1.970200
-5.603900 1.969800
-5.584500 1.968900
-5.565200 2.045200
-5.545800 2.238000
-5.526400 2.439900
-5.507100 2.286200
-5.487700 2.048300
-5.468300 1.815900
-5.449000 1.784100
-5.429600 1.751900
-5.410200 1.719800
-5.390900 1.687700
-5.371500 1.654100
-5.352100 1.619000
-5.332800 1.566200
-5.313400 1.509100
-5.294000 1.454300
-5.274700 1.434500
-5.255300 1.414600
-5.235900 1.394700
-5.216600 1.374800
-5.197200 1.354900
-5.177800 1.329400
-5.158500 1.308700
-5.139100 1.288300
-5.119800 1.268200
-5.100400 1.250300
-5.081000 1.232500
-5.061700 1.213400
-5.042300 1.185000
-5.022900 1.151700
-5.003600 1.138500
-4.984200 1.125400
-4.964800 1.112700
-4.945500 1.100600
-4.926100 1.089400
-4.906700 1.074700
-4.887400 1.060300
-4.868000 1.046100
-4.848600 1.032000
-4.829300 1.017800
-4.809900 1.003900
-4.790500 0.990500
-4.771200 0.978500
-4.751800 0.965900
-4.732400 0.953200
-4.713100 0.940400
-4.693700 0.927100
-4.674300 0.909600
-4.655000 0.889200
-4.635600 0.877600
-4.616200 0.866500
-4.596900 0.855700
-4.577500 0.848800
-4.558100 0.850600
-4.538800 0.850400
-4.519400 0.849200
-4.500100 0.831300
-4.480700 0.813400
-4.461300 0.795900
-4.442000 0.778500
-4.422600 0.761000
-4.403200 0.743500
-4.383900 0.726000
-4.364500 0.722600
-4.345100 0.708900
-4.325800 0.823100
-4.306400 0.768200
-4.287000 0.715500
-4.267700 0.518300
-4.248300 0.506000
-4.228900 0.494300
-4.209600 0.480900
-4.190200 0.467400
-4.170800 0.453900
-4.151500 0.440400
-4.132100 0.426900
-4.112700 0.413600
-4.093400 0.400600
-4.074000 0.399600
-4.054600 0.373100
-4.035300 0.347900
-4.015900 0.324200
-3.996500 0.241500
-3.977200 0.238500
-3.957800 0.235600
-3.938500 0.232600
-3.919100 0.229600
-3.899700 0.226600
-3.880400 0.223700
-3.861000 0.220700
-3.841600 0.226600
-3.822300 0.233300
-3.802900 0.245500
-3.783500 0.236500
-3.764200 0.227500
-3.744800 0.218500
-3.725400 0.209500
-3.706100 0.200500
-3.686700 0.191600
-3.667300 0.182600
-3.648000 0.173600
-3.628600 0.164600
-3.609200 0.155700
-3.589900 0.146700
-3.570500 0.238400
-3.551100 0.198500
-3.531800 0.000000
-3.512400 0.000000
-3.493000 0.000000
-3.473700 0.000000
-3.454300 0.000000
-3.434900 0.000000
-3.415600 0.000000
-3.396200 0.000000
-3.376800 0.000000
-3.357500 0.000000
-3.338100 0.000000
-3.318800 0.000000
-3.299400 0.000000
-3.280000 0.000000
-3.260700 0.000000
-3.241300 0.000000
-3.221900 0.000000
-3.202600 0.000000
-3.183200 0.000000
-3.163800 0.000000
-3.144500 0.000000
-3.125100 0.000000
-3.105700 0.000000
-3.086400 0.000000
-3.067000 0.000000
-3.047600 0.000000
-3.028300 0.000000
-3.008900 0.000000
-2.989500 0.000000
-2.970200 0.000000
-2.950800 0.000000
-2.931400 0.000000
-2.912100 0.000000
-2.892700 0.000000
-2.873300 0.000000
-2.854000 0.000000
-2.834600 0.000000
-2.815200 0.000000
-2.795900 0.000000
-2.776500 0.000000
-2.757200 0.000000
-2.737800 0.000000
-2.718400 0.000000
-2.699100 0.000000
-2.679700 0.000000
-2.660300 0.000000
-2.641000 0.000000
-2.621600 0.000000
-2.602200 0.000000
-2.582900 0.000000
-2.563500 0.000000
-2.544100 0.000000
-2.524800 0.000000
-2.505400 0.000000
-2.486000 0.000000
-2.466700 0.000000
-2.447300 0.000000
-2.427900 0.000000
-2.408600 0.000000
-2.389200 0.000000
-2.369800 0.000000
-2.350500 0.000000
-2.331100 0.000000
-2.311700 0.000000
-2.292400 0.000000
-2.273000 0.000000
-2.253600 0.000000
-2.234300 0.000000
-2.214900 0.000000
-2.195600 0.000000
-2.176200 0.000000
-2.156800 0.000000
-2.137500 0.000000
-2.118100 0.000000
-2.098700 0.000000
-2.079400 0.000000
-2.060000 0.000000
-2.040600 0.000000
-2.021300 0.000000
-2.001900 0.000000
-1.982500 0.000000
-1.963200 0.000000
-1.943800 0.000000
-1.924400 0.000000
-1.905100 0.000000
-1.885700 0.000000
-1.866300 0.000000
-1.847000 0.000000
-1.827600 0.000000
-1.808200 0.000000
-1.788900 0.000000
-1.769500 0.000000
-1.750100 0.000000
-1.730800 0.000000
-1.711400 0.000000
-1.692000 0.000000
-1.672700 0.000000
-1.653300 0.000000
-1.633900 0.000000
-1.614600 0.000000
-1.595200 0.000000
-1.575900 0.000000
-1.556500 0.000000
-1.537100 0.000000
-1.517800 0.000000
-1.498400 0.000000
-1.479000 0.000000
-1.459700 0.000000
-1.440300 0.000000
-1.420900 0.000000
-1.401600 0.000000
-1.382200 0.000000
-1.362800 0.000000
-1.343500 0.000000
-1.324100 0.000000
-1.304700 0.000000
-1.285400 0.000000
-1.266000 0.000000
-1.246600 0.000000
-1.227300 0.000000
-1.207900 0.000000
-1.188500 0.000000
-1.169200 0.000000
-1.149800 0.000000
-1.130400 0.000000
-1.111100 0.000000
-1.091700 0.000000
-1.072300 0.000000
-1.053000 0.000000
-1.033600 0.000000
-1.014300 0.000000
-0.994900 0.000000
-0.975500 0.000000
-0.956200 0.000000
-0.936800 0.000000
-0.917400 0.000000
-0.898100 0.000000
-0.878700 0.000000
-0.859300 0.000000
-0.840000 0.000000
-0.820600 0.000000
-0.801200 0.000000
-0.781900 0.000000
-0.762500 0.666300
-0.743100 0.998100
-0.723800 0.678000
-0.704400 0.533100
-0.685000 0.565400
-0.665700 0.597700
-0.646300 0.634600
-0.626900 0.837800
-0.607600 0.992100
-0.588200 0.994000
-0.568800 1.027000
-0.549500 1.121100
-0.530100 1.220000
-0.510700 1.323900
-0.491400 1.420500
-0.472000 1.605100
-0.452700 1.834300
-0.433300 2.023400
-0.413900 2.194800
-0.394600 2.513300
-0.375200 2.566300
-0.355800 2.492500
-0.336500 2.611100
-0.317100 2.730000
-0.297700 2.847600
-0.278400 2.950800
-0.259000 3.046400
-0.239600 3.171800
-0.220300 3.281400
-0.200900 3.421300
-0.181500 3.615200
-0.162200 3.778100
-0.142800 3.949900
-0.123400 4.130500
-0.104100 4.305200
-0.084700 4.338000
-0.065300 4.351200
-0.046000 4.268300
-0.026600 4.104200
-0.007200 3.947900
0.012100 3.913500
0.031500 4.352900
0.050900 4.584000
0.070200 5.299500
0.089600 5.331200
0.109000 5.217100
0.128300 7.110400
0.147700 5.371900
0.167000 6.009300
0.186400 7.136700
0.205800 7.273400
0.225100 7.302900
0.244500 7.326000
0.263900 7.677500
0.283200 7.588400
0.302600 9.134800
0.322000 10.237700
0.341300 9.976500
0.360700 8.991500
0.380100 6.612500
0.399400 6.928100
0.418800 7.539200
0.438200 8.414900
0.457500 7.441900
0.476900 7.500900
0.496300 7.582800
0.515600 9.126100
0.535000 10.387100
0.554400 9.548600
0.573700 9.098700
0.593100 8.594500
0.612500 8.323400
0.631800 8.239500
0.651200 6.961000
0.670600 6.102900
0.689900 5.133300
0.709300 5.860000
0.728600 5.783100
0.748000 6.038400
0.767400 5.988600
0.786700 7.015200
0.806100 11.034400
0.825500 9.452800
0.844800 8.287900
0.864200 6.741300
0.883600 6.558400
0.902900 6.470200
0.922300 6.146400
0.941700 7.413000
0.961000 9.611300
0.980400 9.782500
0.999800 15.329300
1.019100 12.911500
1.038500 13.005300
1.057900 11.843000
1.077200 9.796600
1.096600 11.033400
1.116000 11.045200
1.135300 10.779600
1.154700 7.836000
1.174100 6.804000
1.193400 6.350700
1.212800 6.056700
1.232200 5.773600
1.251500 5.782000
1.270900 5.933400
1.290200 5.902600
1.309600 6.010500
1.329000 6.018300
1.348300 6.850000
1.367700 6.769100
1.387100 5.669700
1.406400 4.410400
1.425800 4.502900
1.445200 4.576600
1.464500 5.281000
1.483900 6.325700
1.503300 5.997900
1.522600 6.079500
1.542000 5.400700
1.561400 4.254400
1.580700 4.248100
1.600100 4.254100
1.619500 4.308200
1.638800 4.337900
1.658200 4.375700
1.677600 4.428000
1.696900 4.827900
1.716300 4.483400
1.735700 3.850200
1.755000 3.235100
1.774400 2.983600
1.793800 2.826400
1.813100 2.733400
1.832500 2.546700
1.851900 2.547500
1.871200 2.970700
1.890600 3.181200
1.909900 3.372300
1.929300 3.101400
1.948700 2.727200
1.968000 2.621700
1.987400 2.551800
2.006800 2.540100
2.026100 2.582800
2.045500 2.611900
2.064900 2.628300
2.084200 2.526500
2.103600 2.510700
2.123000 2.542800
2.142300 2.550600
2.161700 2.564400
2.181100 2.589000
2.200400 2.609600
2.219800 2.636200
2.239200 2.657000
2.258500 2.661000
2.277900 2.649200
2.297300 2.675300
2.316600 2.679500
2.336000 2.667500
2.355400 2.675300
2.374700 2.751700
2.394100 2.809200
2.413500 2.910700
2.432800 2.959100
2.452200 3.025600
2.471500 3.075500
2.490900 3.085900
2.510300 3.096400
2.529600 3.128100
2.549000 3.603200
2.568400 4.412400
2.587700 4.231400
2.607100 3.479100
2.626500 3.467300
2.645800 3.437800
2.665200 3.410500
2.684600 3.391100
2.703900 3.385000
2.723300 3.403500
2.742700 3.425600
2.762000 3.502400
2.781400 3.453600
2.800800 3.484200
2.820100 3.495100
2.839500 3.539900
2.858900 3.491300
2.878200 3.447200
2.897600 3.413900
2.917000 3.337000
2.936300 3.255900
2.955700 3.173800
2.975100 3.123800
2.994400 3.099100
3.013800 3.070700
3.033100 3.100300
3.052500 3.078200
3.071900 3.050400
3.091200 2.988700
3.110600 2.919900
3.130000 2.824800
3.149300 2.766900
3.168700 2.750800
3.188100 2.699000
3.207400 2.913100
3.226800 2.885500
3.246200 2.799100
3.265500 2.614200
3.284900 2.600600
3.304300 2.659800
3.323600 2.730500
3.343000 2.703900
3.362400 2.666600
3.381700 2.481600
3.401100 2.460200
3.420500 2.476200
3.439800 2.465500
3.459200 2.435500
3.478600 2.440300
3.497900 2.466800
3.517300 2.530200
3.536700 2.754300
3.556000 2.449600
3.575400 2.453700
3.594800 2.477100
3.614100 2.498600
3.633500 2.520500
3.652800 2.544100
3.672200 2.629900
3.691600 2.648300
3.710900 2.664300
3.730300 2.679000
3.749700 2.606300
3.769000 2.584400
3.788400 2.563600
3.807800 2.562900
3.827100 2.488400
3.846500 2.295400
3.865900 2.305300
3.885200 2.318200
3.904600 2.346900
3.924000 2.386500
3.943300 2.424600
3.962700 2.509300
3.982100 2.482600
4.001400 2.455400
4.020800 2.425200
4.040200 2.358500
4.059500 2.281900
4.078900 2.277100
4.098300 2.274900
4.117600 2.341100
4.137000 2.338200
4.156400 2.256600
4.175700 2.262900
4.195100 2.268800
4.214400 2.287400
4.233800 2.296600
4.253200 2.297300
4.272500 2.276000
4.291900 2.276200
4.311300 2.278900
4.330600 2.396700
4.350000 2.435600
4.369400 2.469100
4.388700 2.492300
4.408100 2.506000
4.427500 2.505000
4.446800 2.469100
4.466200 2.431500
4.485600 2.400900
4.504900 2.429800
4.524300 2.512700
4.543700 2.449100
4.563000 2.335500
4.582400 2.362700
4.601800 2.251600
4.621100 2.278900
4.640500 2.300600
4.659900 2.331300
4.679200 2.342300
4.698600 2.290600
4.718000 2.267600
4.737300 2.241300
4.756700 2.183600
4.776100 2.148900
4.795400 2.096600
4.814800 2.032600
4.834100 1.981300
4.853500 1.947200
4.872900 1.924500
4.892200 1.867600
4.911600 1.840100
4.931000 1.818200
4.950300 1.807300
4.969700 1.797300
4.989100 1.788400
5.008400 1.722800
5.027800 1.712400
5.047200 1.692300
5.066500 1.631100
5.085900 1.573000
5.105300 1.506900
5.124600 1.487600
5.144000 1.470700
5.163400 1.457800
5.182700 1.452300
5.202100 1.470700
5.221500 1.555400
5.240800 1.601500
5.260200 1.675900
5.279600 1.553800
5.298900 1.492400
5.318300 1.499600
5.337700 1.507100
5.357000 1.569400
5.376400 1.584300
5.395700 1.732400
5.415100 1.724500
5.434500 1.713400
5.453800 1.725400
5.473200 1.721100
5.492600 1.658500
5.511900 1.663900
5.531300 1.669200
5.550700 1.676600
5.570000 1.680000
5.589400 1.685000
5.608800 1.685400
5.628100 1.692500
5.647500 1.771900
5.666900 2.021700
5.686200 1.815200
5.705600 1.809500
5.725000 1.804500
5.744300 1.792500
5.763700 1.770200
5.783100 1.746000
5.802400 1.775100
5.821800 1.836100
5.841200 1.800200
5.860500 1.765900
5.879900 1.734300
5.899300 1.708000
5.918600 1.687400
5.938000 1.665700
5.957300 1.668500
5.976700 1.671400
5.996100 1.675300
6.015400 1.992800
6.034800 2.129100
6.054200 2.167400
6.073500 2.208300
6.092900 2.135600
6.112300 2.066000
6.131600 2.085500
6.151000 2.141300
6.170400 2.179300
6.189700 2.179300
6.209100 2.121800
6.228500 2.138000
6.247800 2.151800
6.267200 2.165600
6.286600 2.179600
6.305900 2.297700
6.325300 2.418100
6.344700 2.324100
6.364000 2.148000
6.383400 2.033400
6.402800 2.131700
6.422100 2.112200
6.441500 2.095100
6.460900 1.960800
6.480200 2.035400
6.499600 2.265600
6.519000 2.397400
6.538300 3.782800
6.557700 2.351000
6.577000 2.382900
6.596400 2.392900
6.615800 2.374000
6.635100 2.283200
6.654500 2.408300
6.673900 2.179600
6.693200 2.104200
6.712600 2.075600
6.732000 2.102900
6.751300 2.591900
6.770700 2.241800
6.790100 2.248700
6.809400 2.255500
6.828800 2.265000
6.848200 2.277800
6.867500 2.294000
6.886900 2.345600
6.906300 2.379200
6.925600 2.438100
6.945000 2.520400
6.964400 2.592700
6.983700 2.585800
7.003100 2.582100
7.022500 2.583000
7.041800 2.518100
7.061200 2.467300
7.080600 2.414600
7.099900 2.435900
7.119300 2.555300
7.138600 2.627100
7.158000 2.684100
7.177400 2.802000
7.196700 2.931000
7.216100 3.051900
7.235500 3.153300
7.254800 3.084800
7.274200 2.916700
7.293600 2.779100
7.312900 2.671400
7.332300 2.578000
7.351700 2.503900
7.371000 2.457800
7.390400 2.427700
7.409800 2.399600
7.429100 2.369100
7.448500 2.334800
7.467900 2.293200
7.487200 2.252100
7.506600 2.211600
7.526000 2.176000
7.545300 2.142300
7.564700 2.113900
7.584100 2.087900
7.603400 2.063700
7.622800 2.040500
7.642200 2.022900
7.661500 2.036200
7.680900 2.096300
7.700200 2.077100
7.719600 2.001500
7.739000 1.823700
7.758300 1.794600
7.777700 1.768300
7.797100 1.741600
7.816400 1.715400
7.835800 1.688800
7.855200 1.663500
7.874500 1.640200
7.893900 1.613400
7.913300 1.596000
7.932600 1.580600
7.952000 1.566800
7.971400 1.666700
7.990700 1.661200
8.010100 1.656000
8.029500 1.648200
8.048800 1.641100
8.068200 1.642300
8.087600 1.653300
8.106900 1.664900
8.126300 1.672900
8.145700 1.672000
8.165000 1.671600
8.184400 1.890700
8.203800 1.623900
8.223100 1.638700
8.242500 1.850100
8.261900 1.869800
8.281200 1.822500
8.300600 1.759700
8.319900 1.680300
8.339300 1.610600
8.358700 1.553600
8.378000 1.504600
8.397400 1.463800
8.416800 1.286700
8.436100 1.197700
8.455500 1.163600
8.474900 1.141300
8.494200 1.128300
8.513600 1.125500
8.533000 1.123000
8.552300 1.116100
8.571700 1.196900
8.591100 1.336600
8.610400 1.407700
8.629800 2.584500
8.649200 2.615400
8.668500 2.234000
8.687900 1.466500
8.707300 1.572100
8.726600 1.658300
8.746000 1.751000
8.765400 1.829800
8.784700 1.832100
8.804100 1.804300
8.823500 1.843300
8.842800 2.127300
8.862200 2.200800
8.881500 2.010800
8.900900 2.028000
8.920300 2.052200
8.939600 2.069200
8.959000 2.111000
8.978400 2.152300
8.997700 2.278400
9.017100 2.195900
9.036500 2.093200
9.055800 2.037600
9.075200 1.988900
9.094600 2.003400
9.113900 2.739000
9.133300 2.537700
9.152700 2.145400
9.172000 2.305400
9.191400 2.524200
9.210800 2.414800
9.230100 2.434800
9.249500 2.426600
9.268900 2.421300
9.288200 2.409600
9.307600 2.418900
9.327000 2.521200
9.346300 2.449600
9.365700 2.372000
9.385100 2.292500
9.404400 2.241500
9.423800 2.160000
9.443100 1.820800
9.462500 1.791800
9.481900 1.772900
9.501200 1.744000
9.520600 1.702700
9.540000 1.683100
9.559300 1.671000
9.578700 1.658500
9.598100 1.645600
9.617400 1.632200
9.636800 1.618200
9.656200 1.603600
9.675500 1.573200
9.694900 1.537700
9.714300 1.508400
9.733600 1.408600
9.753000 1.395200
9.772400 1.382500
9.791700 1.411200
9.811100 1.449300
9.830500 1.489000
9.849800 1.593300
9.869200 1.553500
9.888600 1.506500
9.907900 1.461800
9.927300 1.451000
9.946700 1.444100
9.966000 1.413600
9.985400 1.395900
10.004800 1.398000
10.024100 1.416500
10.043500 1.439700
10.062800 1.453700
10.082200 1.463900
10.101600 1.477400
10.120900 1.496300
10.140300 1.766200
10.159700 1.817400
10.179000 1.722800
10.198400 1.761800
10.217800 1.799900
10.237100 1.837600
10.256500 1.922000
10.275900 1.961200
10.295200 2.002900
10.314600 2.050300
10.334000 2.075900
10.353300 2.122200
10.372700 2.164100
10.392100 2.170800
10.411400 2.185200
10.430800 2.206000
10.450200 2.243200
10.469500 2.283200
10.488900 2.333900
10.508300 2.390500
10.527600 2.421700
10.547000 2.438200
10.566400 2.392800
10.585700 2.404400
10.605100 2.412000
10.624400 2.418100
10.643800 2.500000
10.663200 2.473900
10.682500 2.441900
10.701900 2.408700
10.721300 2.375400
