set title 'mp-632311 - Density of States'
set xlabel 'Energy (eV)'
set ylabel 'DOS (states/eV)'
set grid
set xrange [-10:10]
set yrange [0:5.708]
set xzeroaxis lt -1
set terminal png size 800,600
set output 'mp-632311_dos_gnuplot.png'
plot '-' using 1:2 with lines title 'DOS'
-34.553900 0.000000
-34.494100 0.000000
-34.434200 0.000000
-34.374300 0.000000
-34.314400 0.000000
-34.254600 0.000000
-34.194700 0.000000
-34.134800 0.000000
-34.074900 0.000000
-34.015100 0.000000
-33.955200 0.000000
-33.895300 0.000000
-33.835400 0.000000
-33.775500 0.000000
-33.715700 0.000000
-33.655800 0.000000
-33.595900 0.000000
-33.536000 0.000000
-33.476200 0.000000
-33.416300 0.000000
-33.356400 0.000000
-33.296500 0.000000
-33.236700 0.000000
-33.176800 0.000000
-33.116900 0.000000
-33.057000 0.000000
-32.997200 0.000000
-32.937300 0.000000
-32.877400 0.000000
-32.817500 0.000000
-32.757700 0.000000
-32.697800 0.000000
-32.637900 0.000000
-32.578000 0.000000
-32.518200 0.000000
-32.458300 0.000000
-32.398400 0.000000
-32.338500 0.000000
-32.278700 0.000000
-32.218800 0.000000
-32.158900 0.000000
-32.099000 0.000000
-32.039200 0.000000
-31.979300 0.000000
-31.919400 0.000000
-31.859500 0.000000
-31.799700 0.000000
-31.739800 0.000000
-31.679900 0.000000
-31.620000 0.000000
-31.560200 0.000000
-31.500300 0.000000
-31.440400 0.000000
-31.380500 0.000000
-31.320700 0.000000
-31.260800 0.000000
-31.200900 0.000000
-31.141000 0.000000
-31.081200 0.000000
-31.021300 0.000000
-30.961400 0.000000
-30.901500 0.000000
-30.841700 0.000000
-30.781800 0.000000
-30.721900 0.000000
-30.662000 0.000000
-30.602100 0.000000
-30.542300 0.000000
-30.482400 0.000000
-30.422500 0.000000
-30.362600 0.000000
-30.302800 0.000000
-30.242900 0.000000
-30.183000 0.000000
-30.123100 0.000000
-30.063300 0.000000
-30.003400 0.000000
-29.943500 0.000000
-29.883600 0.000000
-29.823800 0.000000
-29.763900 0.000000
-29.704000 0.000000
-29.644100 0.000000
-29.584300 0.000000
-29.524400 0.000000
-29.464500 0.000000
-29.404600 0.000000
-29.344800 0.000000
-29.284900 0.000000
-29.225000 0.000000
-29.165100 0.000000
-29.105300 0.229500
-29.045400 0.877400
-28.985500 3.272600
-28.925600 6.452500
-28.865800 10.876300
-28.805900 13.343100
-28.746000 13.276900
-28.686100 8.833100
-28.626300 8.921300
-28.566400 10.941900
-28.506500 15.470600
-28.446600 8.495100
-28.386800 13.248200
-28.326900 15.992600
-28.267000 7.937400
-28.207100 19.279300
-28.147300 13.768700
-28.087400 21.501500
-28.027500 1.239400
-27.967600 0.000000
-27.907800 0.000000
-27.847900 0.000000
-27.788000 0.000000
-27.728100 0.000000
-27.668300 0.000000
-27.608400 0.000000
-27.548500 0.000000
-27.488600 0.000000
-27.428800 0.000000
-27.368900 0.000000
-27.309000 0.000000
-27.249100 0.000000
-27.189200 0.000000
-27.129400 0.000000
-27.069500 0.000000
-27.009600 0.000000
-26.949700 0.000000
-26.889900 0.000000
-26.830000 0.000000
-26.770100 0.000000
-26.710200 0.000000
-26.650400 0.000000
-26.590500 0.000000
-26.530600 0.000000
-26.470700 0.000000
-26.410900 0.000000
-26.351000 0.000000
-26.291100 0.000000
-26.231200 0.000000
-26.171400 0.000000
-26.111500 0.000000
-26.051600 0.000000
-25.991700 0.000000
-25.931900 0.000000
-25.872000 0.000000
-25.812100 0.000000
-25.752200 0.000000
-25.692400 0.000000
-25.632500 0.000000
-25.572600 0.000000
-25.512700 0.000000
-25.452900 0.000000
-25.393000 0.000000
-25.333100 0.000000
-25.273200 0.000000
-25.213400 0.000000
-25.153500 0.000000
-25.093600 0.000000
-25.033700 0.000000
-24.973900 0.000000
-24.914000 0.000000
-24.854100 0.000000
-24.794200 0.000000
-24.734400 0.000000
-24.674500 0.000000
-24.614600 0.000000
-24.554700 0.000000
-24.494900 0.000000
-24.435000 0.000000
-24.375100 0.000000
-24.315200 0.000000
-24.255400 0.000000
-24.195500 0.000000
-24.135600 0.000000
-24.075700 0.000000
-24.015900 0.000000
-23.956000 0.000000
-23.896100 0.000000
-23.836200 0.000000
-23.776300 0.000000
-23.716500 0.000000
-23.656600 0.000000
-23.596700 0.000000
-23.536800 0.000000
-23.477000 0.000000
-23.417100 0.000000
-23.357200 0.000000
-23.297300 0.000000
-23.237500 0.000000
-23.177600 0.000000
-23.117700 0.000000
-23.057800 0.000000
-22.998000 0.000000
-22.938100 0.000000
-22.878200 0.000000
-22.818300 0.000000
-22.758500 0.000000
-22.698600 0.000000
-22.638700 0.000000
-22.578800 0.000000
-22.519000 0.000000
-22.459100 0.000000
-22.399200 0.000000
-22.339300 0.000000
-22.279500 0.000000
-22.219600 0.000000
-22.159700 0.000000
-22.099800 0.000000
-22.040000 0.000000
-21.980100 0.000000
-21.920200 0.000000
-21.860300 0.000000
-21.800500 0.000000
-21.740600 0.000000
-21.680700 0.000000
-21.620800 0.000000
-21.561000 0.000000
-21.501100 0.000000
-21.441200 0.000000
-21.381300 0.000000
-21.321500 0.000000
-21.261600 0.000000
-21.201700 0.000000
-21.141800 0.000000
-21.082000 0.000000
-21.022100 0.000000
-20.962200 0.000000
-20.902300 0.000000
-20.842500 0.000000
-20.782600 0.000000
-20.722700 0.000000
-20.662800 0.000000
-20.603000 0.000000
-20.543100 0.000000
-20.483200 0.000000
-20.423300 0.000000
-20.363400 0.000000
-20.303600 0.000000
-20.243700 0.000000
-20.183800 0.000000
-20.123900 0.000000
-20.064100 0.000000
-20.004200 0.000000
-19.944300 0.000000
-19.884400 0.000000
-19.824600 0.000000
-19.764700 0.000000
-19.704800 0.000000
-19.644900 0.000000
-19.585100 0.000000
-19.525200 0.000000
-19.465300 0.000000
-19.405400 0.000000
-19.345600 0.000000
-19.285700 0.000000
-19.225800 0.000000
-19.165900 0.000000
-19.106100 0.000000
-19.046200 0.000000
-18.986300 0.000000
-18.926400 0.000000
-18.866600 0.000000
-18.806700 0.000000
-18.746800 0.000000
-18.686900 0.000000
-18.627100 0.000000
-18.567200 0.000000
-18.507300 0.000000
-18.447400 0.000000
-18.387600 0.000000
-18.327700 0.000000
-18.267800 0.000000
-18.207900 0.000000
-18.148100 0.000000
-18.088200 0.000000
-18.028300 0.000000
-17.968400 0.000000
-17.908600 0.000000
-17.848700 0.000000
-17.788800 0.000000
-17.728900 0.000000
-17.669100 0.000000
-17.609200 0.000000
-17.549300 0.000000
-17.489400 0.000000
-17.429600 0.000000
-17.369700 0.000000
-17.309800 0.000000
-17.249900 0.000000
-17.190100 0.000000
-17.130200 0.000000
-17.070300 0.000000
-17.010400 0.000000
-16.950500 0.000000
-16.890700 0.000000
-16.830800 0.000000
-16.770900 0.000000
-16.711000 0.000000
-16.651200 0.000000
-16.591300 0.000000
-16.531400 0.000000
-16.471500 0.000000
-16.411700 0.000000
-16.351800 0.000000
-16.291900 0.000000
-16.232000 0.000000
-16.172200 0.000000
-16.112300 0.000000
-16.052400 0.000000
-15.992500 0.000000
-15.932700 0.000000
-15.872800 0.000000
-15.812900 0.000000
-15.753000 0.000000
-15.693200 0.000000
-15.633300 0.000000
-15.573400 0.000000
-15.513500 0.000000
-15.453700 0.000000
-15.393800 0.000000
-15.333900 0.000000
-15.274000 0.000000
-15.214200 0.000000
-15.154300 0.000000
-15.094400 0.000000
-15.034500 0.000000
-14.974700 0.000000
-14.914800 0.000000
-14.854900 0.000000
-14.795000 0.000000
-14.735200 0.000000
-14.675300 0.000000
-14.615400 0.000000
-14.555500 0.000000
-14.495700 0.000000
-14.435800 0.000000
-14.375900 0.000000
-14.316000 0.000000
-14.256200 0.000000
-14.196300 0.000000
-14.136400 0.000000
-14.076500 0.000000
-14.016700 0.000000
-13.956800 0.000000
-13.896900 0.000000
-13.837000 0.000000
-13.777100 0.000000
-13.717300 0.000000
-13.657400 0.000000
-13.597500 0.000000
-13.537600 0.000000
-13.477800 0.000000
-13.417900 0.000000
-13.358000 0.000000
-13.298100 0.000000
-13.238300 0.000000
-13.178400 0.000000
-13.118500 0.000000
-13.058600 0.000000
-12.998800 0.000000
-12.938900 0.000000
-12.879000 0.000000
-12.819100 0.000000
-12.759300 0.000000
-12.699400 0.000000
-12.639500 0.000000
-12.579600 0.000000
-12.519800 0.000000
-12.459900 0.000000
-12.400000 0.000000
-12.340100 0.000000
-12.280300 0.000000
-12.220400 0.000000
-12.160500 0.000000
-12.100600 0.000000
-12.040800 0.000000
-11.980900 0.000000
-11.921000 0.000000
-11.861100 0.000000
-11.801300 0.000000
-11.741400 0.000000
-11.681500 0.000000
-11.621600 0.000000
-11.561800 0.000000
-11.501900 0.000000
-11.442000 0.000000
-11.382100 0.000000
-11.322300 0.000000
-11.262400 0.000000
-11.202500 0.000000
-11.142600 0.000000
-11.082800 0.000000
-11.022900 0.000000
-10.963000 0.000000
-10.903100 0.000000
-10.843300 0.000000
-10.783400 0.000000
-10.723500 0.000000
-10.663600 0.000000
-10.603800 0.000000
-10.543900 0.000000
-10.484000 0.000000
-10.424100 0.000000
-10.364200 0.000000
-10.304400 0.000000
-10.244500 0.000000
-10.184600 0.000000
-10.124700 0.000000
-10.064900 0.000000
-10.005000 0.000000
-9.945100 0.000000
-9.885200 0.000000
-9.825400 0.000000
-9.765500 0.000000
-9.705600 0.000000
-9.645700 0.000000
-9.585900 0.000000
-9.526000 0.000000
-9.466100 0.000000
-9.406200 0.000000
-9.346400 0.000000
-9.286500 0.000000
-9.226600 0.000000
-9.166700 0.000000
-9.106900 0.000000
-9.047000 0.000000
-8.987100 0.000000
-8.927200 0.000000
-8.867400 0.000000
-8.807500 0.000000
-8.747600 0.000000
-8.687700 0.000000
-8.627900 0.000000
-8.568000 0.000000
-8.508100 0.000000
-8.448200 0.000000
-8.388400 0.000000
-8.328500 0.000000
-8.268600 0.000000
-8.208700 0.000000
-8.148900 0.000000
-8.089000 0.000000
-8.029100 0.000000
-7.969200 0.000000
-7.909400 0.000000
-7.849500 0.000000
-7.789600 0.000000
-7.729700 0.000000
-7.669900 0.000000
-7.610000 0.000000
-7.550100 0.000000
-7.490200 0.000000
-7.430400 0.000000
-7.370500 0.000000
-7.310600 0.000000
-7.250700 0.000000
-7.190900 0.000000
-7.131000 0.000000
-7.071100 0.000000
-7.011200 0.000000
-6.951300 0.000000
-6.891500 0.000000
-6.831600 0.000000
-6.771700 0.000000
-6.711800 0.000000
-6.652000 0.000000
-6.592100 0.000000
-6.532200 0.000000
-6.472300 0.000000
-6.412500 0.000000
-6.352600 0.000000
-6.292700 0.000000
-6.232800 0.000000
-6.173000 0.000000
-6.113100 0.000000
-6.053200 0.000000
-5.993300 0.000000
-5.933500 0.000000
-5.873600 0.000000
-5.813700 0.000000
-5.753800 0.000000
-5.694000 0.000000
-5.634100 0.000000
-5.574200 0.000000
-5.514300 0.000000
-5.454500 0.000000
-5.394600 0.000000
-5.334700 0.000000
-5.274800 0.000000
-5.215000 0.000000
-5.155100 0.000000
-5.095200 0.000000
-5.035300 0.000000
-4.975500 0.000000
-4.915600 0.000000
-4.855700 0.000000
-4.795800 0.000000
-4.736000 0.000000
-4.676100 0.000000
-4.616200 0.000000
-4.556300 0.000000
-4.496500 0.000000
-4.436600 0.033500
-4.376700 0.055500
-4.316800 0.081900
-4.257000 0.091100
-4.197100 0.102800
-4.137200 0.112400
-4.077300 0.125400
-4.017500 0.140900
-3.957600 0.154500
-3.897700 0.163400
-3.837800 0.172600
-3.778000 0.183700
-3.718100 0.196300
-3.658200 0.209500
-3.598300 0.222500
-3.538400 0.235800
-3.478600 0.250400
-3.418700 0.265100
-3.358800 0.280200
-3.298900 0.295200
-3.239100 0.310500
-3.179200 0.330600
-3.119300 0.351600
-3.059400 0.373900
-2.999600 0.397200
-2.939700 0.422400
-2.879800 0.455300
-2.819900 0.492500
-2.760100 0.531800
-2.700200 0.571600
-2.640300 0.633700
-2.580400 0.711600
-2.520600 0.800300
-2.460700 0.954700
-2.400800 1.198400
-2.340900 2.112900
-2.281100 1.857200
-2.221200 1.607800
-2.161300 1.298000
-2.101400 1.169100
-2.041600 1.044400
-1.981700 0.954500
-1.921800 0.882800
-1.861900 0.829400
-1.802100 0.781900
-1.742200 0.750400
-1.682300 0.731500
-1.622400 0.694800
-1.562600 0.661600
-1.502700 0.637700
-1.442800 0.612800
-1.382900 0.619700
-1.323100 0.594200
-1.263200 0.569400
-1.203300 0.582300
-1.143400 0.537500
-1.083600 0.408400
-1.023700 0.322300
-0.963800 0.256100
-0.903900 0.205100
-0.844100 0.137200
-0.784200 0.094700
-0.724300 0.000000
-0.664400 0.000000
-0.604600 0.000000
-0.544700 0.000000
-0.484800 0.000000
-0.424900 0.000000
-0.365100 0.000000
-0.305200 0.000000
-0.245300 0.000000
-0.185400 0.000000
-0.125500 0.000000
-0.065700 0.000000
-0.005800 0.000000
0.054100 0.000000
0.114000 0.000000
0.173800 0.000000
0.233700 0.000000
0.293600 0.000000
0.353500 0.000000
0.413300 0.000000
0.473200 0.000000
0.533100 0.044400
0.593000 0.090400
0.652800 0.126300
0.712700 0.152500
0.772600 0.177700
0.832500 0.210300
0.892300 0.239700
0.952200 0.268200
1.012100 0.302900
1.072000 0.435900
1.131800 0.520100
1.191700 0.636400
1.251600 0.883300
1.311500 1.472200
1.371300 1.817200
1.431200 2.545500
1.491100 2.888200
1.551000 3.547400
1.610800 3.184600
1.670700 2.370800
1.730600 1.790100
1.790500 1.608700
1.850300 1.459000
1.910200 1.299200
1.970100 1.170800
2.030000 1.116900
2.089800 1.067300
2.149700 1.043100
2.209600 1.049100
2.269500 1.035400
2.329300 1.039500
2.389200 1.114400
2.449100 1.143500
2.509000 1.136800
2.568800 1.117800
2.628700 1.106500
2.688600 1.123100
2.748500 1.124200
2.808300 1.125900
2.868200 1.143500
2.928100 1.177500
2.988000 1.229500
3.047900 1.336400
3.107700 1.515100
3.167600 2.976600
3.227500 3.119700
3.287400 1.998200
3.347200 1.518200
3.407100 1.311200
3.467000 1.105300
3.526900 1.004600
3.586700 0.928500
3.646600 0.703800
3.706500 1.129500
3.766400 2.598700
3.826200 4.445200
3.886100 2.893500
3.946000 4.245600
4.005900 5.189200
4.065700 4.444700
4.125600 4.188600
4.185500 4.518500
4.245400 4.285300
4.305200 4.041900
4.365100 3.636800
4.425000 3.601200
4.484900 3.323900
4.544700 3.312500
4.604600 2.922400
4.664500 2.683500
4.724400 2.538100
4.784200 2.505500
4.844100 2.675200
4.904000 2.778200
4.963900 2.678700
5.023700 2.454300
5.083600 2.181200
5.143500 1.973100
5.203400 1.774300
5.263200 1.632100
5.323100 1.520200
5.383000 1.416200
5.442900 1.417200
5.502700 1.217700
5.562600 1.103100
5.622500 0.984900
5.682400 0.673200
5.742200 0.630500
5.802100 0.672100
5.862000 0.648600
5.921900 0.823900
5.981700 0.678700
6.041600 0.596800
6.101500 0.598000
6.161400 0.576400
6.221200 0.601900
6.281100 0.810700
6.341000 0.859200
6.400900 0.884100
6.460800 0.940100
6.520600 0.973500
6.580500 1.063200
6.640400 1.037200
6.700300 1.060600
6.760100 1.135400
6.820000 1.318000
6.879900 1.348900
6.939800 1.418500
6.999600 1.554000
7.059500 1.586300
7.119400 1.488500
7.179300 1.575600
7.239100 1.548000
7.299000 1.607000
7.358900 1.630100
7.418800 1.687900
7.478600 1.770300
7.538500 1.797500
7.598400 1.850200
7.658300 1.908500
7.718100 1.992700
7.778000 2.072700
7.837900 2.132000
7.897800 2.218700
7.957600 2.262500
8.017500 2.272800
8.077400 2.277100
8.137300 2.318900
8.197100 2.326700
8.257000 2.356600
8.316900 2.285200
8.376800 2.331500
8.436600 2.505000
8.496500 2.261700
8.556400 2.267700
8.616300 2.203700
8.676100 2.216400
8.736000 2.117600
8.795900 2.449300
8.855800 2.629400
8.915600 2.701100
8.975500 3.196000
9.035400 3.354500
9.095300 3.966500
9.155100 4.759400
9.215000 5.142200
9.274900 4.797400
9.334800 4.438600
9.394600 4.387800
9.454500 4.668400
9.514400 3.359600
9.574300 4.664300
9.634100 4.019400
9.694000 2.949500
9.753900 2.156400
9.813800 2.002700
9.873700 2.397700
9.933500 1.916300
9.993400 1.666000
10.053300 1.488800
10.113200 1.351800
10.173000 1.183800
10.232900 1.151600
10.292800 1.139400
10.352700 1.140900
10.412500 1.133200
10.472400 1.121100
10.532300 1.108200
10.592200 1.083500
10.652000 1.078600
10.711900 1.048100
10.771800 1.033200
10.831700 0.994700
10.891500 0.911100
10.951400 0.851800
11.011300 0.846600
11.071200 0.763600
11.131000 0.748900
11.190900 0.738800
11.250800 0.749000
11.310700 0.785000
11.370500 0.821300
11.430400 0.861700
11.490300 0.904700
11.550200 0.949400
11.610000 0.991000
11.669900 1.033400
11.729800 1.088100
11.789700 1.189800
11.849500 1.283900
11.909400 1.300800
11.969300 1.276000
12.029200 1.204900
12.089000 1.188900
12.148900 1.144400
12.208800 1.152900
12.268700 1.179300
12.328500 1.217200
12.388400 1.077600
12.448300 0.898300
12.508200 0.811200
12.568000 0.785500
12.627900 0.796000
12.687800 0.769100
12.747700 0.753500
12.807500 0.790100
12.867400 0.807700
12.927300 0.817600
12.987200 0.845500
13.047000 0.906400
13.106900 1.035100
13.166800 1.175900
13.226700 1.237000
13.286600 1.238900
13.346400 0.869200
13.406300 0.733900
13.466200 0.545700
13.526100 0.515300
13.585900 0.531300
13.645800 0.562700
13.705700 0.665600
13.765600 0.647900
13.825400 0.913100
13.885300 0.930900
13.945200 1.115900
14.005100 1.340400
14.064900 1.523400
14.124800 1.518900
14.184700 1.480400
14.244600 1.432500
14.304400 1.428300
14.364300 1.398300
14.424200 1.383000
14.484100 1.400200
14.543900 1.426500
14.603800 1.415500
14.663700 1.284900
14.723600 1.258000
14.783400 1.249200
14.843300 1.244200
14.903200 1.344800
14.963100 1.345100
15.022900 1.367300
15.082800 1.393500
15.142700 1.423200
15.202600 1.504900
15.262400 1.636000
15.322300 1.547000
15.382200 1.483100
15.442100 1.425900
15.501900 1.264300
15.561800 1.187000
15.621700 1.124400
15.681600 1.132200
15.741400 1.246500
15.801300 1.252600
15.861200 1.224400
15.921100 1.221500
15.980900 1.231600
16.040800 1.240100
16.100700 1.197600
16.160600 1.194900
16.220400 1.185200
16.280300 1.172900
16.340200 1.158600
16.400100 1.150600
16.459900 1.155900
16.519800 1.147400
16.579700 1.115200
16.639600 1.120100
16.699500 1.085500
16.759300 1.084400
16.819200 1.078400
16.879100 1.101200
16.939000 1.053800
16.998800 1.051400
17.058700 1.070600
17.118600 1.080800
17.178500 1.088000
17.238300 1.093000
17.298200 1.121000
17.358100 1.183800
17.418000 1.221000
17.477800 1.277300
17.537700 1.336600
17.597600 1.421500
17.657500 1.547800
17.717300 1.562600
17.777200 1.642100
17.837100 1.748100
17.897000 1.836500
17.956800 1.823600
18.016700 1.943700
18.076600 2.102800
18.136500 2.430900
18.196300 3.022200
18.256200 4.721800
18.316100 29.904900
18.376000 4.604200
18.435800 2.930300
18.495700 2.342700
18.555600 1.908400
18.615500 1.718100
18.675300 1.564100
18.735200 1.483900
18.795100 1.446800
18.855000 1.294900
18.914800 1.255700
18.974700 1.192100
19.034600 1.165000
19.094500 1.166400
19.154300 1.212900
19.214200 1.353500
19.274100 1.421700
19.334000 1.424400
19.393800 1.252200
19.453700 1.070700
19.513600 1.076000
19.573500 1.122800
19.633300 1.306100
19.693200 1.351000
19.753100 1.365900
19.813000 1.355300
19.872900 1.342400
19.932700 1.358200
19.992600 1.384500
20.052500 1.461200
20.112400 1.525100
20.172200 1.565400
20.232100 1.626700
20.292000 1.628800
20.351900 1.636000
20.411700 1.603500
20.471600 1.641100
20.531500 1.648900
20.591400 1.676400
20.651200 1.654800
20.711100 1.599700
20.771000 1.484000
20.830900 1.330900
20.890700 1.279700
20.950600 1.250000
21.010500 1.307100
21.070400 1.409500
21.130200 1.658400
21.190100 1.817400
21.250000 1.465500
21.309900 1.328400
21.369700 1.232800
21.429600 1.249900
21.489500 1.258900
21.549400 1.407900
21.609200 1.457400
21.669100 1.572500
21.729000 1.718200
21.788900 1.630200
21.848700 1.582700
21.908600 1.290400
21.968500 1.236400
22.028400 1.202800
22.088200 1.133500
22.148100 1.133500
22.208000 1.135600
22.267900 1.135800
22.327700 1.162500
22.387600 1.182300
22.447500 1.201300
22.507400 1.198800
22.567200 1.190000
22.627100 1.106700
22.687000 1.020900
22.746900 0.974100
22.806700 0.952900
22.866600 0.936000
22.926500 1.026200
22.986400 0.896100
23.046200 0.896200
23.106100 0.922200
23.166000 0.936500
23.225900 1.140900
23.285800 1.408800
23.345600 1.082500
23.405500 1.085200
23.465400 1.106600
23.525300 1.190300
23.585100 1.487600
23.645000 1.403500
23.704900 1.283300
23.764800 1.216300
23.824600 1.173800
23.884500 1.194500
23.944400 1.195500
24.004300 1.299000
24.064100 1.326700
24.124000 1.344000
24.183900 1.443200
24.243800 1.643900
24.303600 1.557600
24.363500 1.581300
24.423400 1.587500
24.483300 1.485400
24.543100 1.401000
24.603000 1.423300
24.662900 1.494800
24.722800 1.580500
24.782600 1.536400
24.842500 1.370300
24.902400 1.318700
24.962300 1.284200
25.022100 1.302200
25.082000 1.182300
25.141900 1.091300
25.201800 1.024000
25.261600 0.844800
25.321500 0.855100
25.381400 0.863500
25.441300 1.026900
25.501100 1.234900
25.561000 1.310400
25.620900 1.399000
25.680800 1.411200
25.740600 1.545300
25.800500 1.716500
25.860400 1.746700
25.920300 1.803300
25.980100 1.834800
26.040000 1.817600
26.099900 1.721800
26.159800 1.582700
26.219600 1.516900
26.279500 1.458700
26.339400 1.468700
26.399300 1.450500
26.459100 1.507700
26.519000 1.551300
26.578900 1.426500
26.638800 1.415500
26.698700 1.389500
