set title 'mp-865355 - Density of States'
set xlabel 'Energy (eV)'
set ylabel 'DOS (states/eV)'
set grid
set xrange [-10:10]
set yrange [0:34.463]
set xzeroaxis lt -1
set terminal png size 800,600
set output 'mp-865355_dos_gnuplot.png'
plot '-' using 1:2 with lines title 'DOS'
-8.143500 0.000000
-8.119900 0.000000
-8.096300 0.000000
-8.072700 0.000000
-8.049100 0.000000
-8.025600 0.000000
-8.002000 0.000000
-7.978400 0.000000
-7.954800 0.000000
-7.931200 0.000000
-7.907600 0.000000
-7.884000 0.000000
-7.860500 0.000000
-7.836900 0.000000
-7.813300 0.000000
-7.789700 0.000000
-7.766100 0.000000
-7.742500 0.000000
-7.719000 0.000000
-7.695400 0.000000
-7.671800 0.000000
-7.648200 0.000000
-7.624600 0.000000
-7.601000 0.000000
-7.577400 0.000000
-7.553900 0.000000
-7.530300 0.000000
-7.506700 0.000000
-7.483100 0.000000
-7.459500 0.000000
-7.435900 0.000000
-7.412300 0.000000
-7.388800 0.000000
-7.365200 0.000000
-7.341600 0.000000
-7.318000 0.000000
-7.294400 0.000000
-7.270800 0.000000
-7.247300 0.000000
-7.223700 0.000000
-7.200100 0.000000
-7.176500 0.000000
-7.152900 0.000000
-7.129300 0.000000
-7.105700 0.000000
-7.082200 0.000000
-7.058600 0.000000
-7.035000 0.000000
-7.011400 0.000000
-6.987800 0.000000
-6.964200 0.000000
-6.940700 0.000000
-6.917100 0.000000
-6.893500 0.000000
-6.869900 0.000000
-6.846300 0.000000
-6.822700 0.000000
-6.799100 0.000000
-6.775600 0.000000
-6.752000 0.000000
-6.728400 0.000000
-6.704800 0.000000
-6.681200 0.000000
-6.657600 0.000000
-6.634000 0.000000
-6.610500 0.000000
-6.586900 0.000000
-6.563300 0.000000
-6.539700 0.000000
-6.516100 0.000000
-6.492500 0.000000
-6.469000 0.000000
-6.445400 0.000000
-6.421800 0.000000
-6.398200 0.000000
-6.374600 0.000000
-6.351000 0.000000
-6.327400 0.000000
-6.303900 0.000000
-6.280300 0.000000
-6.256700 0.000000
-6.233100 0.000000
-6.209500 0.000000
-6.185900 0.000000
-6.162300 0.000000
-6.138800 0.000000
-6.115200 0.000000
-6.091600 0.000400
-6.068000 0.002100
-6.044400 0.007600
-6.020800 0.018100
-5.997300 0.031300
-5.973700 0.044100
-5.950100 0.058000
-5.926500 0.075100
-5.902900 0.103800
-5.879300 0.155600
-5.855700 0.208900
-5.832200 0.212100
-5.808600 0.152700
-5.785000 0.078800
-5.761400 0.041900
-5.737800 0.062600
-5.714200 0.138300
-5.690700 0.236400
-5.667100 0.299700
-5.643500 0.299000
-5.619900 0.264300
-5.596300 0.250000
-5.572700 0.286600
-5.549100 0.338100
-5.525600 0.320100
-5.502000 0.217400
-5.478400 0.116600
-5.454800 0.086900
-5.431200 0.116200
-5.407600 0.168300
-5.384000 0.243100
-5.360500 0.341800
-5.336900 0.412800
-5.313300 0.412600
-5.289700 0.378500
-5.266100 0.380500
-5.242500 0.429000
-5.219000 0.454800
-5.195400 0.388200
-5.171800 0.251900
-5.148200 0.138600
-5.124600 0.118200
-5.101000 0.195400
-5.077400 0.328400
-5.053900 0.472300
-5.030300 0.586800
-5.006700 0.616000
-4.983100 0.547700
-4.959500 0.443800
-4.935900 0.354600
-4.912400 0.297400
-4.888800 0.295300
-4.865200 0.339700
-4.841600 0.376400
-4.818000 0.380000
-4.794400 0.388300
-4.770800 0.423500
-4.747300 0.440700
-4.723700 0.414000
-4.700100 0.395000
-4.676500 0.449200
-4.652900 0.558400
-4.629300 0.617400
-4.605700 0.574000
-4.582200 0.496500
-4.558600 0.484500
-4.535000 0.595000
-4.511400 0.790500
-4.487800 0.907700
-4.464200 0.820600
-4.440700 0.643200
-4.417100 0.556000
-4.393500 0.539600
-4.369900 0.494700
-4.346300 0.413900
-4.322700 0.319000
-4.299100 0.231700
-4.275600 0.224900
-4.252000 0.374100
-4.228400 0.638200
-4.204800 0.869800
-4.181200 0.986600
-4.157600 1.042300
-4.134100 1.102300
-4.110500 1.135100
-4.086900 1.072500
-4.063300 0.943000
-4.039700 0.854200
-4.016100 0.852300
-3.992500 0.884500
-3.969000 0.893200
-3.945400 0.903600
-3.921800 0.994200
-3.898200 1.204800
-3.874600 1.469800
-3.851000 1.643500
-3.827400 1.757600
-3.803900 2.199400
-3.780300 3.278200
-3.756700 4.687600
-3.733100 5.829300
-3.709500 6.564300
-3.685900 7.230400
-3.662400 8.082500
-3.638800 9.113200
-3.615200 10.417600
-3.591600 12.307700
-3.568000 14.839600
-3.544400 17.508200
-3.520800 19.632000
-3.497300 20.944200
-3.473700 21.516500
-3.450100 21.423100
-3.426500 21.043700
-3.402900 20.984500
-3.379300 21.198700
-3.355700 21.072900
-3.332200 20.479500
-3.308600 19.874900
-3.285000 19.520300
-3.261400 19.200800
-3.237800 18.697700
-3.214200 18.221600
-3.190700 18.041500
-3.167100 18.038300
-3.143500 18.099000
-3.119900 18.523200
-3.096300 19.570700
-3.072700 20.960900
-3.049100 22.060400
-3.025600 22.508300
-3.002000 22.612500
-2.978400 22.865800
-2.954800 23.430400
-2.931200 24.619200
-2.907600 26.931100
-2.884100 29.765700
-2.860500 31.329900
-2.836900 30.837700
-2.813300 29.596400
-2.789700 28.997600
-2.766100 28.753500
-2.742500 27.946300
-2.719000 26.759400
-2.695400 26.547800
-2.671800 28.065000
-2.648200 29.811300
-2.624600 29.530900
-2.601000 27.125500
-2.577400 24.164400
-2.553900 21.556900
-2.530300 19.435400
-2.506700 17.919600
-2.483100 17.371800
-2.459500 18.300100
-2.435900 20.134100
-2.412400 20.883000
-2.388800 19.363800
-2.365200 16.497600
-2.341600 13.536700
-2.318000 10.586200
-2.294400 7.564300
-2.270800 5.060000
-2.247300 3.550300
-2.223700 2.813600
-2.200100 2.420100
-2.176500 2.128900
-2.152900 1.821300
-2.129300 1.498000
-2.105800 1.266600
-2.082200 1.188700
-2.058600 1.190700
-2.035000 1.136100
-2.011400 0.995100
-1.987800 0.883400
-1.964200 0.879300
-1.940700 0.877200
-1.917100 0.748500
-1.893500 0.579000
-1.869900 0.572900
-1.846300 0.800300
-1.822700 1.130000
-1.799100 1.360900
-1.775600 1.409900
-1.752000 1.334900
-1.728400 1.199400
-1.704800 1.030200
-1.681200 0.869200
-1.657600 0.750300
-1.634100 0.693800
-1.610500 0.759000
-1.586900 0.970900
-1.563300 1.231800
-1.539700 1.420200
-1.516100 1.507000
-1.492500 1.538700
-1.469000 1.591400
-1.445400 1.705500
-1.421800 1.804100
-1.398200 1.754900
-1.374600 1.606200
-1.351000 1.602800
-1.327500 1.810800
-1.303900 1.948800
-1.280300 1.802700
-1.256700 1.555500
-1.233100 1.453500
-1.209500 1.431000
-1.185900 1.313900
-1.162400 1.143800
-1.138800 1.069900
-1.115200 1.114200
-1.091600 1.183700
-1.068000 1.175100
-1.044400 1.063200
-1.020800 0.942900
-0.997300 0.929500
-0.973700 1.073200
-0.950100 1.362300
-0.926500 1.648400
-0.902900 1.723400
-0.879300 1.587600
-0.855800 1.404400
-0.832200 1.275900
-0.808600 1.245600
-0.785000 1.332400
-0.761400 1.495300
-0.737800 1.639600
-0.714200 1.645400
-0.690700 1.475800
-0.667100 1.247500
-0.643500 1.084800
-0.619900 1.060200
-0.596300 1.257200
-0.572700 1.588200
-0.549100 1.713800
-0.525600 1.474400
-0.502000 1.185400
-0.478400 1.229800
-0.454800 1.518300
-0.431200 1.623600
-0.407600 1.432100
-0.384100 1.321300
-0.360500 1.571000
-0.336900 1.928500
-0.313300 1.964000
-0.289700 1.650700
-0.266100 1.364300
-0.242500 1.366200
-0.219000 1.498600
-0.195400 1.498100
-0.171800 1.367000
-0.148200 1.264800
-0.124600 1.260600
-0.101000 1.305400
-0.077500 1.340800
-0.053900 1.352900
-0.030300 1.351800
-0.006700 1.402700
0.016900 1.621900
0.040500 2.043900
0.064100 2.479900
0.087600 2.605900
0.111200 2.318700
0.134800 1.883400
0.158400 1.646700
0.182000 1.735800
0.205600 1.998800
0.229200 2.176300
0.252700 2.186900
0.276300 2.142500
0.299900 2.165600
0.323500 2.387200
0.347100 2.863800
0.370700 3.351500
0.394200 3.508900
0.417800 3.287400
0.441400 2.874700
0.465000 2.532600
0.488600 2.495200
0.512200 2.731600
0.535800 2.918700
0.559300 2.794900
0.582900 2.470800
0.606500 2.271500
0.630100 2.366100
0.653700 2.764800
0.677300 3.444900
0.700800 4.193800
0.724400 4.659400
0.748000 4.759700
0.771600 4.777500
0.795200 5.100700
0.818800 5.909400
0.842400 6.807900
0.865900 7.018600
0.889500 6.268400
0.913100 5.103800
0.936700 4.202000
0.960300 3.756000
0.983900 3.562700
1.007500 3.433600
1.031000 3.403900
1.054600 3.550000
1.078200 3.855800
1.101800 4.306700
1.125400 4.818700
1.149000 5.120000
1.172500 5.107500
1.196100 5.220200
1.219700 5.833000
1.243300 6.530600
1.266900 6.711600
1.290500 6.547200
1.314100 6.724700
1.337600 7.537700
1.361200 8.590300
1.384800 9.321900
1.408400 9.567000
1.432000 9.523400
1.455600 9.382400
1.479200 9.022000
1.502700 8.213300
1.526300 7.143200
1.549900 6.227900
1.573500 5.525800
1.597100 4.832700
1.620700 4.102300
1.644200 3.426000
1.667800 2.874400
1.691400 2.487500
1.715000 2.241700
1.738600 2.036200
1.762200 1.808900
1.785800 1.626700
1.809300 1.560900
1.832900 1.506700
1.856500 1.346600
1.880100 1.218800
1.903700 1.305600
1.927300 1.526900
1.950800 1.688600
1.974400 1.741900
1.998000 1.788000
2.021600 1.882000
2.045200 1.898100
2.068800 1.708300
2.092400 1.448800
2.115900 1.435100
2.139500 1.789000
2.163100 2.258100
2.186700 2.489100
2.210300 2.504400
2.233900 2.661300
2.257500 3.073700
2.281000 3.532300
2.304600 3.885300
2.328200 4.018600
2.351800 3.759500
2.375400 3.130200
2.399000 2.412100
2.422500 1.862300
2.446100 1.569100
2.469700 1.505300
2.493300 1.599500
2.516900 1.818300
2.540500 2.108900
2.564100 2.285300
2.587600 2.204400
2.611200 1.981400
2.634800 1.826900
2.658400 1.813500
2.682000 1.871600
2.705600 1.898000
2.729100 1.873300
2.752700 1.821500
2.776300 1.693200
2.799900 1.471900
2.823500 1.271000
2.847100 1.175800
2.870700 1.148600
2.894200 1.133300
2.917800 1.109800
2.941400 1.044100
2.965000 0.927700
2.988600 0.859200
3.012200 0.923500
3.035800 1.044400
3.059300 1.140900
3.082900 1.328800
3.106500 1.726200
3.130100 2.194300
3.153700 2.481700
3.177300 2.446500
3.200800 2.085500
3.224400 1.552800
3.248000 1.112600
3.271600 0.926200
3.295200 0.932900
3.318800 0.974100
3.342400 0.992200
3.365900 1.047100
3.389500 1.129700
3.413100 1.168000
3.436700 1.191300
3.460300 1.231300
3.483900 1.238300
3.507400 1.299200
3.531000 1.591700
3.554600 2.020000
3.578200 2.265100
3.601800 2.154700
3.625400 1.779300
3.649000 1.380100
3.672500 1.170800
3.696100 1.171900
3.719700 1.221700
3.743300 1.177000
3.766900 1.052000
3.790500 0.931400
3.814100 0.858000
3.837600 0.864000
3.861200 1.004800
3.884800 1.260100
3.908400 1.469900
3.932000 1.565100
3.955600 1.658600
3.979100 1.704100
4.002700 1.499500
4.026300 1.082100
4.049900 0.708300
4.073500 0.548300
4.097100 0.605700
4.120700 0.808100
4.144200 1.076800
4.167800 1.323500
4.191400 1.470800
4.215000 1.488500
4.238600 1.359000
4.262200 1.124700
4.285800 0.947200
4.309300 0.958900
4.332900 1.089700
4.356500 1.158400
4.380100 1.117000
4.403700 1.058900
4.427300 1.035800
4.450800 1.030700
4.474400 1.037500
4.498000 1.053600
4.521600 1.033200
4.545200 0.945100
4.568800 0.832000
4.592400 0.738200
4.615900 0.655500
4.639500 0.574800
4.663100 0.524600
4.686700 0.529500
4.710300 0.575000
4.733900 0.635500
4.757400 0.667000
4.781000 0.604100
4.804600 0.492100
4.828200 0.502000
4.851800 0.716600
4.875400 1.021400
4.899000 1.229400
4.922500 1.239300
4.946100 1.037200
4.969700 0.686800
4.993300 0.376500
5.016900 0.289600
5.040500 0.423900
5.064100 0.602700
5.087600 0.666000
5.111200 0.659400
5.134800 0.726900
5.158400 0.863600
5.182000 0.954000
5.205600 0.953700
5.229100 0.887500
5.252700 0.765600
5.276300 0.613100
5.299900 0.540500
5.323500 0.645500
5.347100 0.824700
5.370700 0.838800
5.394200 0.634000
5.417800 0.426400
5.441400 0.389800
5.465000 0.458500
5.488600 0.495700
5.512200 0.484300
5.535700 0.473400
5.559300 0.494600
5.582900 0.612800
5.606500 0.887100
5.630100 1.246600
5.653700 1.504400
5.677300 1.518500
5.700800 1.382800
5.724400 1.350200
5.748000 1.480200
5.771600 1.602300
5.795200 1.607400
5.818800 1.496000
5.842400 1.292400
5.865900 1.063000
5.889500 0.874700
5.913100 0.740800
5.936700 0.634300
5.960300 0.533800
5.983900 0.479700
6.007400 0.553600
6.031000 0.760300
6.054600 0.992100
6.078200 1.176700
6.101800 1.349100
6.125400 1.525400
6.149000 1.688700
6.172500 1.897400
6.196100 2.213700
6.219700 2.529200
6.243300 2.579200
6.266900 2.221800
6.290500 1.629200
6.314000 1.108800
6.337600 0.826000
6.361200 0.790700
6.384800 0.993000
6.408400 1.348600
6.432000 1.663700
6.455600 1.899900
6.479100 2.208500
6.502700 2.578400
6.526300 2.764500
6.549900 2.589600
6.573500 2.131400
6.597100 1.617100
6.620700 1.220000
6.644200 0.986400
6.667800 0.940400
6.691400 1.113600
6.715000 1.382200
6.738600 1.489900
6.762200 1.343600
6.785700 1.115000
6.809300 0.993600
6.832900 1.023000
6.856500 1.185900
6.880100 1.427000
6.903700 1.620300
6.927300 1.659300
6.950800 1.537900
6.974400 1.336700
6.998000 1.166000
7.021600 1.088000
7.045200 1.103300
7.068800 1.177800
7.092400 1.249200
7.115900 1.282600
7.139500 1.310000
7.163100 1.393500
7.186700 1.583400
7.210300 1.826400
7.233900 1.920700
7.257400 1.728500
7.281000 1.347500
7.304600 0.976600
7.328200 0.767000
7.351800 0.788100
7.375400 1.007000
7.399000 1.313600
7.422500 1.570700
7.446100 1.634300
7.469700 1.450100
7.493300 1.146000
7.516900 0.883400
7.540500 0.689000
7.564000 0.579800
7.587600 0.668300
7.611200 0.971400
7.634800 1.290100
7.658400 1.410900
7.682000 1.333500
7.705600 1.220000
7.729100 1.183300
7.752700 1.225600
7.776300 1.318200
7.799900 1.442100
7.823500 1.574200
7.847100 1.687200
7.870700 1.791000
7.894200 1.911400
7.917800 1.980500
7.941400 1.900000
7.965000 1.762100
7.988600 1.775200
8.012200 1.901000
8.035700 1.866700
8.059300 1.590700
8.082900 1.270300
8.106500 1.063700
8.130100 0.962300
8.153700 0.925800
8.177300 0.921300
8.200800 0.893400
8.224400 0.839200
8.248000 0.831200
8.271600 0.919900
8.295200 1.100700
8.318800 1.307900
8.342300 1.392900
8.365900 1.239900
8.389500 0.917500
8.413100 0.628700
8.436700 0.531500
8.460300 0.656400
8.483900 0.948900
8.507400 1.306900
8.531000 1.625600
8.554600 1.833300
8.578200 1.853100
8.601800 1.659900
8.625400 1.420000
8.649000 1.364000
8.672500 1.475900
8.696100 1.525600
8.719700 1.426300
8.743300 1.318700
8.766900 1.321400
8.790500 1.399000
8.814000 1.442200
8.837600 1.401100
8.861200 1.330500
8.884800 1.319500
8.908400 1.408000
8.932000 1.540900
8.955600 1.631200
8.979100 1.653200
9.002700 1.600700
9.026300 1.480600
9.049900 1.387300
9.073500 1.422600
9.097100 1.583500
9.120700 1.796200
9.144200 1.985600
9.167800 2.110400
9.191400 2.118200
9.215000 1.925300
9.238600 1.540400
9.262200 1.110900
9.285700 0.808900
9.309300 0.730600
9.332900 0.846600
9.356500 1.072200
9.380100 1.350900
9.403700 1.576900
9.427300 1.628700
9.450800 1.524100
9.474400 1.370400
9.498000 1.240500
9.521600 1.191800
9.545200 1.255300
9.568800 1.331000
9.592300 1.291200
9.615900 1.226400
9.639500 1.349500
9.663100 1.634500
9.686700 1.799900
9.710300 1.694500
9.733900 1.479200
9.757400 1.411400
9.781000 1.575400
9.804600 1.800100
9.828200 1.843000
9.851800 1.683500
9.875400 1.510100
9.899000 1.432900
9.922500 1.414000
9.946100 1.427400
9.969700 1.522800
9.993300 1.735400
10.016900 1.950600
10.040500 1.964800
10.064000 1.755200
10.087600 1.490400
10.111200 1.267600
10.134800 1.061800
10.158400 0.903400
10.182000 0.907500
10.205600 1.120100
10.229100 1.407500
10.252700 1.546900
10.276300 1.514100
10.299900 1.553400
10.323500 1.829700
10.347100 2.183000
10.370600 2.305500
10.394200 2.083400
10.417800 1.692900
10.441400 1.347800
10.465000 1.120900
10.488600 1.010400
10.512200 0.992700
10.535700 1.044700
10.559300 1.187200
10.582900 1.426600
10.606500 1.704500
10.630100 1.943300
10.653700 2.064700
10.677300 2.043600
10.700800 1.947400
10.724400 1.799200
10.748000 1.530000
10.771600 1.168800
10.795200 0.892400
10.818800 0.822600
10.842300 0.905100
10.865900 1.014300
10.889500 1.096300
10.913100 1.170400
10.936700 1.247200
10.960300 1.335800
10.983900 1.470100
11.007400 1.640800
11.031000 1.755700
11.054600 1.721800
11.078200 1.579700
11.101800 1.491900
11.125400 1.516400
11.148900 1.561600
11.172500 1.594400
11.196100 1.643200
11.219700 1.717000
11.243300 1.808500
11.266900 1.867800
11.290500 1.872100
11.314000 1.880600
11.337600 1.928400
11.361200 1.936000
11.384800 1.798000
11.408400 1.536200
11.432000 1.264400
11.455600 1.051500
11.479100 0.901400
11.502700 0.795400
11.526300 0.765200
11.549900 0.904700
11.573500 1.239900
11.597100 1.637400
11.620600 1.859100
11.644200 1.754900
11.667800 1.418900
11.691400 1.054400
11.715000 0.763200
11.738600 0.573700
11.762200 0.508400
11.785700 0.538500
11.809300 0.622400
11.832900 0.761300
11.856500 0.939200
11.880100 1.148000
11.903700 1.456800
11.927300 1.854600
11.950800 2.120900
11.974400 2.083400
11.998000 1.853900
12.021600 1.663900
12.045200 1.685100
12.068800 1.947800
12.092300 2.266600
12.115900 2.394500
12.139500 2.259300
12.163100 1.994400
12.186700 1.807000
12.210300 1.770000
12.233900 1.774200
12.257400 1.762800
12.281000 1.801800
12.304600 1.846800
12.328200 1.721900
12.351800 1.427700
12.375400 1.211100
12.398900 1.221900
12.422500 1.377900
12.446100 1.586200
12.469700 1.806100
12.493300 1.972000
12.516900 2.062100
12.540500 2.130600
12.564000 2.228800
12.587600 2.349700
12.611200 2.410900
12.634800 2.298900
12.658400 2.024400
12.682000 1.820600
12.705600 1.886400
12.729100 2.069400
12.752700 2.081400
12.776300 1.898500
12.799900 1.686500
12.823500 1.550600
12.847100 1.535000
12.870600 1.657100
12.894200 1.868600
12.917800 2.073000
12.941400 2.174300
12.965000 2.123700
12.988600 1.938900
13.012200 1.695000
13.035700 1.512300
13.059300 1.485500
13.082900 1.578900
13.106500 1.657700
13.130100 1.639700
13.153700 1.537900
13.177200 1.434500
13.200800 1.481200
13.224400 1.758600
13.248000 2.115500
13.271600 2.332700
13.295200 2.394400
13.318800 2.410300
13.342300 2.380200
13.365900 2.233900
13.389500 2.010700
13.413100 1.807900
13.436700 1.637200
13.460300 1.491300
13.483900 1.428900
13.507400 1.449300
13.531000 1.444100
13.554600 1.404800
13.578200 1.488500
13.601800 1.794000
13.625400 2.175700
13.648900 2.355000
13.672500 2.252700
13.696100 2.091400
13.719700 2.092300
13.743300 2.229800
13.766900 2.334800
13.790500 2.324300
13.814000 2.252600
13.837600 2.163500
13.861200 2.038100
13.884800 1.886300
13.908400 1.766800
13.932000 1.715600
13.955500 1.707600
13.979100 1.691500
14.002700 1.600500
14.026300 1.379800
14.049900 1.105800
14.073500 0.990200
14.097100 1.194800
14.120600 1.633500
14.144200 1.963100
14.167800 1.929600
14.191400 1.723000
14.215000 1.731800
14.238600 2.021500
14.262200 2.304500
14.285700 2.331500
14.309300 2.101700
14.332900 1.799100
14.356500 1.684700
14.380100 1.904500
14.403700 2.312800
14.427200 2.623100
14.450800 2.685000
14.474400 2.501800
14.498000 2.155600
14.521600 1.796300
14.545200 1.550300
14.568800 1.398700
14.592300 1.272300
14.615900 1.225800
14.639500 1.368800
14.663100 1.700700
14.686700 2.055600
14.710300 2.189300
14.733900 2.044500
14.757400 1.841500
14.781000 1.757600
14.804600 1.726900
14.828200 1.641200
14.851800 1.554700
14.875400 1.602300
14.898900 1.778400
14.922500 1.945800
14.946100 2.009100
14.969700 1.943000
14.993300 1.788800
15.016900 1.630500
15.040500 1.518100
15.064000 1.505700
15.087600 1.619400
15.111200 1.710400
15.134800 1.634700
15.158400 1.509000
15.182000 1.489900
15.205500 1.578500
15.229100 1.765500
15.252700 2.036600
15.276300 2.266300
15.299900 2.278000
15.323500 2.027100
15.347100 1.687700
15.370600 1.459100
15.394200 1.354300
15.417800 1.317900
15.441400 1.391800
15.465000 1.604500
15.488600 1.817900
15.512200 1.831400
15.535700 1.616000
15.559300 1.330600
15.582900 1.152500
15.606500 1.200800
15.630100 1.478200
15.653700 1.819600
15.677200 2.074600
15.700800 2.272400
15.724400 2.441800
15.748000 2.437300
15.771600 2.171600
15.795200 1.884900
15.818800 1.854700
15.842300 1.932800
15.865900 1.761700
15.889500 1.369500
15.913100 1.135000
15.936700 1.248200
15.960300 1.543300
15.983800 1.790800
16.007400 1.903600
16.031000 1.889100
16.054600 1.842700
16.078200 1.917600
16.101800 2.094500
16.125400 2.155600
16.148900 2.028000
16.172500 1.935700
16.196100 2.063200
16.219700 2.275700
16.243300 2.323100
16.266900 2.158200
16.290500 1.918700
16.314000 1.763900
16.337600 1.790400
16.361200 1.938900
16.384800 2.031300
16.408400 1.964700
16.432000 1.807000
16.455500 1.705400
16.479100 1.651700
16.502700 1.455800
16.526300 1.096700
16.549900 0.809300
16.573500 0.765900
16.597100 0.967200
16.620600 1.349800
16.644200 1.794000
16.667800 2.085200
16.691400 2.084700
16.715000 1.980300
16.738600 2.063500
16.762200 2.261600
