set title 'mp-865610 - Density of States'
set xlabel 'Energy (eV)'
set ylabel 'DOS (states/eV)'
set grid
set xrange [-10:10]
set yrange [0:2.755]
set xzeroaxis lt -1
set terminal png size 800,600
set output 'mp-865610_dos_gnuplot.png'
plot '-' using 1:2 with lines title 'DOS'
-27.830700 0.000000
-27.781400 0.000000
-27.732200 0.000000
-27.682900 0.000000
-27.633700 0.000000
-27.584400 0.000000
-27.535100 0.000000
-27.485900 0.000000
-27.436600 0.000000
-27.387400 0.000000
-27.338100 0.000000
-27.288800 0.000000
-27.239600 0.000000
-27.190300 0.000000
-27.141100 0.000000
-27.091800 0.000000
-27.042500 0.000000
-26.993300 0.000000
-26.944000 0.000000
-26.894800 0.000000
-26.845500 0.000000
-26.796200 0.000000
-26.747000 0.000000
-26.697700 0.000000
-26.648500 0.000000
-26.599200 0.000000
-26.550000 0.000000
-26.500700 0.000000
-26.451400 0.000000
-26.402200 0.000000
-26.352900 0.000000
-26.303700 0.000000
-26.254400 0.000000
-26.205100 0.000000
-26.155900 0.000000
-26.106600 0.000000
-26.057400 0.000000
-26.008100 0.000000
-25.958800 0.000000
-25.909600 0.000000
-25.860300 0.000000
-25.811100 0.000000
-25.761800 0.000000
-25.712500 0.000000
-25.663300 0.000000
-25.614000 0.000000
-25.564800 0.000000
-25.515500 0.000000
-25.466200 0.000000
-25.417000 0.000000
-25.367700 0.000000
-25.318500 0.000000
-25.269200 0.000000
-25.220000 0.000000
-25.170700 0.000000
-25.121400 0.000000
-25.072200 0.000000
-25.022900 0.000000
-24.973700 0.000000
-24.924400 0.000000
-24.875100 0.000000
-24.825900 0.000000
-24.776600 0.000000
-24.727400 0.000000
-24.678100 0.000000
-24.628800 0.000000
-24.579600 0.000000
-24.530300 0.000000
-24.481100 0.000000
-24.431800 0.000000
-24.382500 0.000000
-24.333300 0.000000
-24.284000 0.000000
-24.234800 0.000000
-24.185500 0.000000
-24.136200 0.000000
-24.087000 0.000000
-24.037700 0.000000
-23.988500 0.000000
-23.939200 0.000000
-23.889900 0.000000
-23.840700 0.000000
-23.791400 0.000000
-23.742200 0.000000
-23.692900 0.000000
-23.643700 0.000000
-23.594400 0.000000
-23.545100 0.000000
-23.495900 0.000000
-23.446600 0.000000
-23.397400 0.000000
-23.348100 1.347200
-23.298800 8.019600
-23.249600 12.912800
-23.200300 8.927500
-23.151100 5.243700
-23.101800 9.333000
-23.052500 8.913600
-23.003300 14.749600
-22.954000 17.442500
-22.904800 13.317700
-22.855500 11.709400
-22.806200 0.000000
-22.757000 0.000000
-22.707700 0.000000
-22.658500 0.000000
-22.609200 0.000000
-22.559900 0.000000
-22.510700 0.000000
-22.461400 0.000000
-22.412200 0.000000
-22.362900 0.000000
-22.313700 0.000000
-22.264400 0.000000
-22.215100 0.000000
-22.165900 0.000000
-22.116600 0.000000
-22.067400 0.000000
-22.018100 0.000000
-21.968800 0.000000
-21.919600 0.000000
-21.870300 0.000000
-21.821100 0.000000
-21.771800 0.000000
-21.722500 0.000000
-21.673300 0.000000
-21.624000 0.000000
-21.574800 0.000000
-21.525500 0.000000
-21.476200 0.000000
-21.427000 0.000000
-21.377700 0.000000
-21.328500 0.000000
-21.279200 0.000000
-21.229900 0.000000
-21.180700 0.000000
-21.131400 0.000000
-21.082200 0.000000
-21.032900 0.000000
-20.983700 0.000000
-20.934400 0.000000
-20.885100 0.000000
-20.835900 0.000000
-20.786600 0.000000
-20.737400 0.000000
-20.688100 0.000000
-20.638800 0.000000
-20.589600 0.000000
-20.540300 0.000000
-20.491100 0.000000
-20.441800 0.000000
-20.392500 0.000000
-20.343300 0.000000
-20.294000 0.000000
-20.244800 0.000000
-20.195500 0.000000
-20.146200 0.000000
-20.097000 0.000000
-20.047700 0.000000
-19.998500 0.000000
-19.949200 0.000000
-19.899900 0.000000
-19.850700 0.000000
-19.801400 0.000000
-19.752200 0.000000
-19.702900 0.000000
-19.653600 0.000000
-19.604400 0.000000
-19.555100 0.000000
-19.505900 0.000000
-19.456600 0.000000
-19.407400 0.000000
-19.358100 0.000000
-19.308800 0.000000
-19.259600 0.000000
-19.210300 0.000000
-19.161100 0.000000
-19.111800 0.000000
-19.062500 0.000000
-19.013300 0.000000
-18.964000 0.000000
-18.914800 0.000000
-18.865500 0.000000
-18.816200 0.000000
-18.767000 0.000000
-18.717700 0.000000
-18.668500 0.000000
-18.619200 0.000000
-18.569900 0.000000
-18.520700 0.000000
-18.471400 0.000000
-18.422200 0.000000
-18.372900 0.000000
-18.323600 0.000000
-18.274400 0.000000
-18.225100 0.000000
-18.175900 0.000000
-18.126600 0.000000
-18.077400 0.000000
-18.028100 0.000000
-17.978800 0.000000
-17.929600 0.000000
-17.880300 0.000000
-17.831100 0.000000
-17.781800 0.000000
-17.732500 0.000000
-17.683300 0.000000
-17.634000 0.000000
-17.584800 0.000000
-17.535500 0.000000
-17.486200 0.000000
-17.437000 0.000000
-17.387700 0.000000
-17.338500 0.000000
-17.289200 0.000000
-17.239900 0.000000
-17.190700 0.000000
-17.141400 0.000000
-17.092200 0.000000
-17.042900 0.000000
-16.993600 0.000000
-16.944400 0.000000
-16.895100 0.000000
-16.845900 0.000000
-16.796600 0.000000
-16.747400 0.000000
-16.698100 0.000000
-16.648800 0.000000
-16.599600 0.000000
-16.550300 0.000000
-16.501100 0.000000
-16.451800 0.000000
-16.402500 0.000000
-16.353300 0.000000
-16.304000 0.000000
-16.254800 0.000000
-16.205500 0.000000
-16.156200 0.000000
-16.107000 0.000000
-16.057700 0.000000
-16.008500 0.000000
-15.959200 0.000000
-15.909900 0.000000
-15.860700 0.000000
-15.811400 0.000000
-15.762200 0.000000
-15.712900 0.000000
-15.663600 0.000000
-15.614400 0.000000
-15.565100 0.000000
-15.515900 0.000000
-15.466600 0.000000
-15.417300 0.000000
-15.368100 0.000000
-15.318800 0.000000
-15.269600 0.000000
-15.220300 0.000000
-15.171100 0.000000
-15.121800 0.000000
-15.072500 0.000000
-15.023300 0.000000
-14.974000 0.000000
-14.924800 0.000000
-14.875500 0.000000
-14.826200 0.000000
-14.777000 0.000000
-14.727700 0.000000
-14.678500 0.000000
-14.629200 0.000000
-14.579900 0.000000
-14.530700 0.000000
-14.481400 0.000000
-14.432200 0.000000
-14.382900 0.000000
-14.333600 0.000000
-14.284400 0.000000
-14.235100 0.000000
-14.185900 0.000000
-14.136600 0.000000
-14.087300 0.000000
-14.038100 0.000000
-13.988800 0.000000
-13.939600 0.000000
-13.890300 0.000000
-13.841100 0.000000
-13.791800 0.000000
-13.742500 0.000000
-13.693300 0.000000
-13.644000 0.000000
-13.594800 0.000000
-13.545500 0.000000
-13.496200 0.000000
-13.447000 0.000000
-13.397700 0.000000
-13.348500 0.000000
-13.299200 0.000000
-13.249900 0.000000
-13.200700 0.000000
-13.151400 0.000000
-13.102200 0.000000
-13.052900 0.000000
-13.003600 0.000000
-12.954400 0.000000
-12.905100 0.000000
-12.855900 0.000000
-12.806600 0.000000
-12.757300 0.000000
-12.708100 0.000000
-12.658800 0.000000
-12.609600 0.000000
-12.560300 0.000000
-12.511000 0.000000
-12.461800 0.000000
-12.412500 0.000000
-12.363300 0.000000
-12.314000 0.000000
-12.264800 0.000000
-12.215500 0.000000
-12.166200 0.000000
-12.117000 0.000000
-12.067700 0.000000
-12.018500 0.000000
-11.969200 0.000000
-11.919900 0.000000
-11.870700 0.000000
-11.821400 0.000000
-11.772200 0.000000
-11.722900 0.000000
-11.673600 0.000000
-11.624400 0.000000
-11.575100 0.000000
-11.525900 0.000000
-11.476600 0.000000
-11.427300 0.000000
-11.378100 0.000000
-11.328800 0.000000
-11.279600 0.000000
-11.230300 0.000000
-11.181000 0.000000
-11.131800 0.000000
-11.082500 0.000000
-11.033300 0.000000
-10.984000 0.000000
-10.934800 0.000000
-10.885500 0.000000
-10.836200 0.000000
-10.787000 0.000000
-10.737700 0.000000
-10.688500 0.000000
-10.639200 0.000000
-10.589900 0.000000
-10.540700 0.000000
-10.491400 0.000000
-10.442200 0.000000
-10.392900 0.000000
-10.343600 0.000000
-10.294400 0.000000
-10.245100 0.000000
-10.195900 0.000000
-10.146600 0.000000
-10.097300 0.000000
-10.048100 0.000000
-9.998800 0.000000
-9.949600 0.000000
-9.900300 0.000000
-9.851000 0.000000
-9.801800 0.000000
-9.752500 0.000000
-9.703300 0.000000
-9.654000 0.000000
-9.604800 0.000000
-9.555500 0.000000
-9.506200 0.000000
-9.457000 0.000000
-9.407700 0.000000
-9.358500 0.000000
-9.309200 0.000000
-9.259900 0.000000
-9.210700 0.000000
-9.161400 0.000000
-9.112200 0.000000
-9.062900 0.000000
-9.013600 0.000000
-8.964400 0.000000
-8.915100 0.000000
-8.865900 0.000000
-8.816600 0.000000
-8.767300 0.000000
-8.718100 0.000000
-8.668800 0.000000
-8.619600 0.000000
-8.570300 0.000000
-8.521000 0.000000
-8.471800 0.000000
-8.422500 0.000000
-8.373300 0.000000
-8.324000 0.000000
-8.274700 0.000000
-8.225500 0.000000
-8.176200 0.000000
-8.127000 0.000000
-8.077700 0.000000
-8.028500 0.000000
-7.979200 0.000000
-7.929900 0.000000
-7.880700 0.000000
-7.831400 0.000000
-7.782200 0.000000
-7.732900 0.000000
-7.683600 0.000000
-7.634400 0.000000
-7.585100 0.000000
-7.535900 0.000000
-7.486600 0.000000
-7.437300 0.000000
-7.388100 0.000000
-7.338800 0.000000
-7.289600 0.000000
-7.240300 0.000000
-7.191000 0.000000
-7.141800 0.000000
-7.092500 0.000000
-7.043300 0.000000
-6.994000 0.000000
-6.944700 0.000000
-6.895500 0.000000
-6.846200 0.000000
-6.797000 0.000000
-6.747700 0.000800
-6.698500 0.014300
-6.649200 0.049700
-6.599900 0.045300
-6.550700 0.053200
-6.501400 0.063200
-6.452200 0.074200
-6.402900 0.081700
-6.353600 0.085300
-6.304400 0.090000
-6.255100 0.096200
-6.205900 0.102700
-6.156600 0.109400
-6.107300 0.115300
-6.058100 0.121000
-6.008800 0.126600
-5.959600 0.131400
-5.910300 0.136300
-5.861000 0.140900
-5.811800 0.145800
-5.762500 0.151000
-5.713300 0.157100
-5.664000 0.162500
-5.614700 0.168000
-5.565500 0.173500
-5.516200 0.179200
-5.467000 0.183900
-5.417700 0.188400
-5.368400 0.193300
-5.319200 0.198500
-5.269900 0.204000
-5.220700 0.209700
-5.171400 0.215400
-5.122200 0.220800
-5.072900 0.226500
-5.023600 0.232300
-4.974400 0.238100
-4.925100 0.244000
-4.875900 0.249900
-4.826600 0.255700
-4.777300 0.261600
-4.728100 0.267700
-4.678800 0.273800
-4.629600 0.280000
-4.580300 0.286200
-4.531000 0.292700
-4.481800 0.299200
-4.432500 0.306300
-4.383300 0.313800
-4.334000 0.321400
-4.284700 0.329000
-4.235500 0.336700
-4.186200 0.344000
-4.137000 0.351500
-4.087700 0.359200
-4.038400 0.366800
-3.989200 0.374700
-3.939900 0.383800
-3.890700 0.393600
-3.841400 0.403400
-3.792200 0.413400
-3.742900 0.423900
-3.693600 0.434600
-3.644400 0.445300
-3.595100 0.456300
-3.545900 0.467500
-3.496600 0.479000
-3.447300 0.491800
-3.398100 0.506200
-3.348800 0.522100
-3.299600 0.541200
-3.250300 0.563000
-3.201000 0.586200
-3.151800 0.627700
-3.102500 0.656500
-3.053300 0.679000
-3.004000 0.689900
-2.954700 0.687700
-2.905500 0.693600
-2.856200 0.688500
-2.807000 0.682000
-2.757700 0.690700
-2.708400 0.698400
-2.659200 0.713800
-2.609900 0.711400
-2.560700 0.714200
-2.511400 0.719000
-2.462200 0.724400
-2.412900 0.728000
-2.363600 0.723400
-2.314400 0.750100
-2.265100 0.764600
-2.215900 0.787000
-2.166600 0.821300
-2.117300 0.868200
-2.068100 0.911700
-2.018800 1.021400
-1.969600 1.162200
-1.920300 1.449800
-1.871000 1.181600
-1.821800 1.430100
-1.772500 1.810400
-1.723300 1.919300
-1.674000 1.774400
-1.624700 1.692500
-1.575500 1.622700
-1.526200 1.537100
-1.477000 1.508300
-1.427700 1.464000
-1.378400 1.430600
-1.329200 1.402200
-1.279900 1.374800
-1.230700 1.258000
-1.181400 1.138000
-1.132100 1.045800
-1.082900 0.984400
-1.033600 0.927900
-0.984400 0.893300
-0.935100 0.867300
-0.885900 0.851100
-0.836600 1.009900
-0.787300 1.247800
-0.738100 1.188000
-0.688800 1.129000
-0.639600 1.136400
-0.590300 1.117900
-0.541000 1.122600
-0.491800 1.147100
-0.442500 1.171700
-0.393300 1.252900
-0.344000 1.293900
-0.294700 1.281800
-0.245500 1.306100
-0.196200 1.267800
-0.147000 1.132300
-0.097700 1.052400
-0.048400 0.992100
0.000800 0.946900
0.050100 0.912600
0.099300 0.888200
0.148600 0.862800
0.197900 0.833900
0.247100 0.804900
0.296400 0.783000
0.345600 0.764200
0.394900 0.744300
0.444100 0.726500
0.493400 0.709300
0.542700 0.690900
0.591900 0.673800
0.641200 0.658700
0.690400 0.645600
0.739700 0.632900
0.789000 0.622700
0.838200 0.612600
0.887500 0.601500
0.936700 0.589500
0.986000 0.575600
1.035300 0.561400
1.084500 0.548700
1.133800 0.538100
1.183000 0.526900
1.232300 0.517200
1.281600 0.508000
1.330800 0.499900
1.380100 0.491800
1.429300 0.482800
1.478600 0.472800
1.527900 0.464100
1.577100 0.455300
1.626400 0.447800
1.675600 0.438900
1.724900 0.432100
1.774200 0.424600
1.823400 0.416300
1.872700 0.408600
1.921900 0.399800
1.971200 0.390800
2.020400 0.383600
2.069700 0.377100
2.119000 0.369400
2.168200 0.361500
2.217500 0.355700
2.266700 0.349600
2.316000 0.343200
2.365300 0.337400
2.414500 0.331600
2.463800 0.327200
2.513000 0.316100
2.562300 0.311500
2.611600 0.311200
2.660800 0.306300
2.710100 0.297700
2.759300 0.289600
2.808600 0.280300
2.857900 0.271800
2.907100 0.264200
2.956400 0.256100
3.005600 0.246300
3.054900 0.234700
3.104200 0.224700
3.153400 0.216600
3.202700 0.205200
3.251900 0.189000
3.301200 0.179500
3.350400 0.171300
3.399700 0.160300
3.449000 0.151000
3.498200 0.148100
3.547500 0.146400
3.596700 0.144300
3.646000 0.141800
3.695300 0.143300
3.744500 0.142300
3.793800 0.137600
3.843000 0.135000
3.892300 0.131200
3.941600 0.158700
3.990800 0.205600
4.040100 0.055500
4.089300 0.000000
4.138600 0.000000
4.187900 0.006200
4.237100 0.016000
4.286400 0.029500
4.335600 0.047600
4.384900 0.083700
4.434200 0.128100
4.483400 0.163300
4.532700 0.223800
4.581900 0.265200
4.631200 0.321500
4.680400 0.371700
4.729700 0.417200
4.779000 0.527700
4.828200 0.579500
4.877500 0.593800
4.926700 0.627100
4.976000 0.651400
5.025300 0.677600
5.074500 0.703700
5.123800 0.715100
5.173000 0.733500
5.222300 0.748400
5.271600 0.791300
5.320800 0.846000
5.370100 0.904200
5.419300 0.961200
5.468600 1.022900
5.517900 1.156500
5.567100 1.276300
5.616400 1.294000
5.665600 1.514000
5.714900 1.641400
5.764200 1.738600
5.813400 1.744400
5.862700 1.698100
5.911900 1.641300
5.961200 1.531600
6.010500 1.489100
6.059700 1.450000
6.109000 1.416900
6.158200 1.421100
6.207500 1.425500
6.256700 1.374700
6.306000 1.319200
6.355300 1.303800
6.404500 1.296700
6.453800 1.249000
6.503000 1.204300
6.552300 1.247300
6.601600 1.186700
6.650800 1.164000
6.700100 1.105700
6.749300 1.056100
6.798600 1.054100
6.847900 1.054500
6.897100 1.064800
6.946400 1.121600
6.995600 1.170200
7.044900 1.202400
7.094200 1.213300
7.143400 1.231000
7.192700 1.253500
7.241900 1.302600
7.291200 1.359600
7.340500 1.516300
7.389700 1.574700
7.439000 1.759800
7.488200 1.937700
7.537500 1.972400
7.586700 1.842700
7.636000 1.660200
7.685300 1.525500
7.734500 1.436500
7.783800 1.358500
7.833000 1.296400
7.882300 1.240700
7.931600 1.216300
7.980800 1.242500
8.030100 1.304400
8.079300 1.360500
8.128600 1.436000
8.177900 1.537200
8.227100 1.606600
8.276400 1.625700
8.325600 1.651000
8.374900 1.752800
8.424200 1.847200
8.473400 2.027900
8.522700 2.103300
8.571900 2.214900
8.621200 2.334600
8.670500 2.504800
8.719700 2.421600
8.769000 2.185700
8.818200 2.081300
8.867500 1.830100
8.916800 1.687300
8.966000 1.638400
9.015300 1.475400
9.064500 1.720500
9.113800 1.872200
9.163000 2.101300
9.212300 2.245500
9.261600 2.148900
9.310800 1.893800
9.360100 1.770500
9.409300 1.628900
9.458600 1.530200
9.507900 1.515900
9.557100 1.494900
9.606400 1.439800
9.655600 1.455100
9.704900 1.452000
9.754200 1.469900
9.803400 1.381900
9.852700 1.162100
9.901900 1.204500
9.951200 1.288300
10.000500 1.321800
10.049700 1.303200
10.099000 1.300900
10.148200 1.220500
10.197500 1.208000
10.246800 1.245800
10.296000 1.312500
10.345300 1.471600
10.394500 1.363600
10.443800 1.237000
10.493000 1.247800
10.542300 1.260900
10.591600 1.310300
10.640800 1.412500
10.690100 1.479500
10.739300 1.575400
10.788600 1.642100
10.837900 1.734300
10.887100 1.871300
10.936400 1.908700
10.985600 1.921100
11.034900 1.837200
11.084200 1.869000
11.133400 1.864900
11.182700 1.894800
11.231900 1.716900
11.281200 1.553300
11.330500 1.356500
11.379700 1.305000
11.429000 1.245900
11.478200 1.177600
11.527500 1.078600
11.576800 1.039500
11.626000 1.033400
11.675300 1.083000
11.724500 1.008600
11.773800 1.043600
11.823000 1.095900
11.872300 1.022200
11.921600 1.025600
11.970800 1.023500
12.020100 0.962700
12.069300 0.935200
12.118600 0.910800
12.167900 0.901600
12.217100 0.904300
12.266400 0.963700
12.315600 1.024900
12.364900 1.096300
12.414200 1.226000
12.463400 1.335300
12.512700 1.386800
12.561900 1.386700
12.611200 1.394700
12.660500 1.276800
12.709700 1.095600
12.759000 1.028900
12.808200 1.107100
12.857500 1.098800
12.906800 1.087800
12.956000 1.027800
13.005300 1.019900
13.054500 1.009900
13.103800 0.968100
13.153100 0.920800
13.202300 0.870100
13.251600 0.774000
13.300800 0.727100
13.350100 0.707900
13.399300 0.670100
13.448600 0.675300
13.497900 0.688300
13.547100 0.711000
13.596400 0.744400
13.645600 0.779100
13.694900 0.820200
13.744200 0.821300
13.793400 0.835300
13.842700 0.842000
13.891900 0.810100
13.941200 0.807200
13.990500 0.804500
14.039700 0.808100
14.089000 0.828200
14.138200 0.850100
14.187500 0.881400
14.236800 0.948800
14.286000 0.971600
14.335300 0.932700
14.384500 0.950900
14.433800 0.976500
14.483100 0.995100
14.532300 1.032800
14.581600 1.083200
14.630800 1.117900
14.680100 1.093500
14.729300 1.052000
14.778600 1.069700
14.827900 1.095900
14.877100 1.056900
14.926400 1.081600
14.975600 1.089700
15.024900 1.062100
15.074200 1.011400
15.123400 0.978700
15.172700 0.915200
15.221900 0.879800
15.271200 0.856400
15.320500 0.841300
15.369700 0.848800
15.419000 0.846600
15.468200 0.795400
15.517500 0.756500
15.566800 0.793600
15.616000 0.849400
15.665300 0.897500
15.714500 0.979600
15.763800 1.103400
15.813100 1.175800
15.862300 1.193600
15.911600 1.202100
15.960800 1.153800
16.010100 1.115500
16.059400 1.074600
16.108600 1.046400
16.157900 1.024000
16.207100 1.031300
16.256400 1.026800
16.305600 1.022500
16.354900 1.020900
16.404200 1.024200
16.453400 1.026900
16.502700 1.030400
16.551900 1.037100
16.601200 1.044200
16.650500 1.056900
16.699700 1.045100
16.749000 1.032600
16.798200 1.018300
16.847500 0.990700
16.896800 0.966500
16.946000 0.954300
16.995300 0.946300
17.044500 0.967900
17.093800 0.967500
17.143100 0.961000
17.192300 0.960100
17.241600 0.959700
17.290800 0.970900
17.340100 1.001900
17.389400 1.038900
17.438600 1.075100
17.487900 1.114000
17.537100 1.146400
17.586400 1.157900
17.635600 1.146300
17.684900 1.092900
17.734200 1.034300
17.783400 0.969900
17.832700 0.886200
17.881900 0.793000
17.931200 0.711400
17.980500 0.671700
18.029700 0.660200
18.079000 0.658000
18.128200 0.600500
18.177500 0.594200
18.226800 0.596500
18.276000 0.609000
18.325300 0.676600
18.374500 0.718000
18.423800 0.768200
18.473100 0.821900
18.522300 0.938800
18.571600 1.242300
18.620800 1.211100
18.670100 1.219600
18.719400 1.265300
18.768600 1.262600
18.817900 1.214900
18.867100 1.148400
18.916400 1.100500
18.965600 1.067800
19.014900 1.024400
19.064200 0.995200
19.113400 0.964000
19.162700 0.941000
19.211900 0.920800
19.261200 0.900900
19.310500 0.882400
19.359700 0.864200
19.409000 0.855700
19.458200 0.831300
19.507500 0.805400
19.556800 0.747300
19.606000 0.701900
19.655300 0.654500
19.704500 0.601700
19.753800 0.551900
19.803100 0.509500
19.852300 0.475500
19.901600 0.449400
19.950800 0.431500
20.000100 0.428800
20.049400 0.388800
20.098600 0.339300
20.147900 0.324400
20.197100 0.319100
20.246400 0.312800
20.295700 0.309300
20.344900 0.309800
20.394200 0.320000
20.443400 0.333900
20.492700 0.346900
20.541900 0.371500
20.591200 0.406100
20.640500 0.446800
20.689700 0.515100
20.739000 0.550200
20.788200 0.611500
20.837500 0.655600
20.886800 0.713200
20.936000 0.761400
20.985300 0.780600
21.034500 0.808000
21.083800 0.926500
21.133100 0.999100
21.182300 1.032900
21.231600 1.093500
21.280800 1.118600
21.330100 1.173900
21.379400 1.225400
21.428600 1.277600
21.477900 1.347800
21.527100 1.515600
21.576400 1.621400
21.625700 1.551400
21.674900 1.382800
21.724200 1.309200
21.773400 1.298300
21.822700 1.293700
21.871900 1.294200
21.921200 1.290100
21.970500 1.281300
22.019700 1.262100
22.069000 1.257300
22.118200 1.282600
22.167500 1.288700
22.216800 1.314800
22.266000 1.327500
22.315300 1.411400
22.364500 1.517400
22.413800 1.548000
22.463100 1.578800
22.512300 1.585000
22.561600 1.504100
22.610800 1.506600
22.660100 1.524600
22.709400 1.571700
22.758600 1.530800
22.807900 1.503900
