set title 'mp-1216391 - Density of States'
set xlabel 'Energy (eV)'
set ylabel 'DOS (states/eV)'
set grid
set xrange [-10:10]
set yrange [0:6.556]
set xzeroaxis lt -1
set terminal png size 800,600
set output 'mp-1216391_dos_gnuplot.png'
plot '-' using 1:2 with lines title 'DOS'
-36.988000 0.000000
-36.938200 0.000000
-36.888500 0.000000
-36.838700 0.000000
-36.788900 0.000000
-36.739100 0.000000
-36.689300 0.000000
-36.639600 0.000000
-36.589800 0.000000
-36.540000 0.000000
-36.490200 0.000000
-36.440400 0.000000
-36.390700 0.000000
-36.340900 0.000000
-36.291100 0.000000
-36.241300 0.000000
-36.191500 0.000000
-36.141800 0.000000
-36.092000 0.000000
-36.042200 0.000000
-35.992400 0.000000
-35.942600 0.000000
-35.892800 0.000000
-35.843100 0.000000
-35.793300 0.000000
-35.743500 0.000000
-35.693700 0.000000
-35.643900 0.000000
-35.594200 0.000000
-35.544400 0.000000
-35.494600 0.000000
-35.444800 0.000000
-35.395000 0.000000
-35.345300 0.000000
-35.295500 0.000000
-35.245700 0.000000
-35.195900 0.000000
-35.146100 0.000000
-35.096400 0.000000
-35.046600 0.000000
-34.996800 0.000000
-34.947000 0.000000
-34.897200 0.000000
-34.847400 0.000000
-34.797700 0.000000
-34.747900 0.000000
-34.698100 0.000000
-34.648300 0.000000
-34.598500 0.000000
-34.548800 0.000000
-34.499000 0.000000
-34.449200 0.000000
-34.399400 0.000000
-34.349600 0.000000
-34.299900 0.000000
-34.250100 0.000000
-34.200300 0.000000
-34.150500 0.000000
-34.100700 0.000000
-34.051000 0.000000
-34.001200 0.000000
-33.951400 0.000000
-33.901600 0.000000
-33.851800 0.000000
-33.802000 0.000000
-33.752300 0.000000
-33.702500 0.000000
-33.652700 0.000000
-33.602900 0.000000
-33.553100 0.000000
-33.503400 0.000000
-33.453600 0.000000
-33.403800 0.000000
-33.354000 0.000000
-33.304200 0.000000
-33.254500 0.000000
-33.204700 0.000000
-33.154900 0.000000
-33.105100 0.000000
-33.055300 0.000000
-33.005600 0.000000
-32.955800 0.000000
-32.906000 0.000000
-32.856200 0.000000
-32.806400 0.000000
-32.756600 0.000000
-32.706900 0.000000
-32.657100 0.000000
-32.607300 0.000000
-32.557500 0.000000
-32.507700 0.000000
-32.458000 7.322100
-32.408200 39.687500
-32.358400 10.664300
-32.308600 8.681700
-32.258800 5.187500
-32.209100 6.554000
-32.159300 8.598500
-32.109500 14.058700
-32.059700 12.371000
-32.009900 9.595800
-31.960200 0.000000
-31.910400 0.000000
-31.860600 0.000000
-31.810800 0.000000
-31.761000 0.000000
-31.711200 0.000000
-31.661500 0.000000
-31.611700 0.000000
-31.561900 0.000000
-31.512100 0.000000
-31.462300 0.000000
-31.412600 0.000000
-31.362800 0.000000
-31.313000 0.000000
-31.263200 0.000000
-31.213400 0.000000
-31.163700 0.000000
-31.113900 0.000000
-31.064100 0.000000
-31.014300 0.000000
-30.964500 0.000000
-30.914800 0.000000
-30.865000 0.000000
-30.815200 0.000000
-30.765400 0.000000
-30.715600 0.000000
-30.665800 0.000000
-30.616100 0.000000
-30.566300 0.000000
-30.516500 0.000000
-30.466700 0.000000
-30.416900 0.000000
-30.367200 0.000000
-30.317400 0.000000
-30.267600 0.000000
-30.217800 0.000000
-30.168000 0.000000
-30.118300 0.000000
-30.068500 0.000000
-30.018700 0.000000
-29.968900 0.000000
-29.919100 0.000000
-29.869400 0.000000
-29.819600 0.000000
-29.769800 0.000000
-29.720000 0.000000
-29.670200 0.000000
-29.620400 0.000000
-29.570700 0.000000
-29.520900 0.000000
-29.471100 0.000000
-29.421300 0.000000
-29.371500 0.000000
-29.321800 0.000000
-29.272000 0.000000
-29.222200 0.000000
-29.172400 0.000000
-29.122600 0.000000
-29.072900 0.000000
-29.023100 0.000000
-28.973300 0.000000
-28.923500 0.000000
-28.873700 0.000000
-28.824000 0.000000
-28.774200 0.000000
-28.724400 0.000000
-28.674600 0.000000
-28.624800 0.000000
-28.575100 0.000000
-28.525300 0.000000
-28.475500 0.000000
-28.425700 0.000000
-28.375900 0.000000
-28.326100 0.000000
-28.276400 0.000000
-28.226600 0.000000
-28.176800 0.000000
-28.127000 0.000000
-28.077200 0.000000
-28.027500 0.000000
-27.977700 0.000000
-27.927900 0.000000
-27.878100 0.000000
-27.828300 0.000000
-27.778600 0.000000
-27.728800 0.000000
-27.679000 0.000000
-27.629200 0.000000
-27.579400 0.000000
-27.529700 0.000000
-27.479900 0.000000
-27.430100 0.000000
-27.380300 0.000000
-27.330500 0.000000
-27.280700 0.000000
-27.231000 0.000000
-27.181200 0.000000
-27.131400 0.000000
-27.081600 0.000000
-27.031800 0.000000
-26.982100 0.000000
-26.932300 0.000000
-26.882500 0.000000
-26.832700 0.000000
-26.782900 0.000000
-26.733200 0.000000
-26.683400 0.000000
-26.633600 0.000000
-26.583800 0.000000
-26.534000 0.000000
-26.484300 0.000000
-26.434500 0.000000
-26.384700 0.000000
-26.334900 0.000000
-26.285100 0.000000
-26.235300 0.000000
-26.185600 0.000000
-26.135800 0.000000
-26.086000 0.000000
-26.036200 0.000000
-25.986400 0.000000
-25.936700 0.000000
-25.886900 0.000000
-25.837100 0.000000
-25.787300 0.000000
-25.737500 0.000000
-25.687800 0.000000
-25.638000 0.000000
-25.588200 0.000000
-25.538400 0.000000
-25.488600 0.000000
-25.438900 0.000000
-25.389100 0.000000
-25.339300 0.000000
-25.289500 0.000000
-25.239700 0.000000
-25.189900 0.000000
-25.140200 0.000000
-25.090400 0.000000
-25.040600 0.000000
-24.990800 0.000000
-24.941000 0.000000
-24.891300 0.000000
-24.841500 0.000000
-24.791700 0.000000
-24.741900 0.000000
-24.692100 0.000000
-24.642400 0.000000
-24.592600 0.000000
-24.542800 0.000000
-24.493000 0.000000
-24.443200 0.000000
-24.393500 0.000000
-24.343700 0.000000
-24.293900 0.000000
-24.244100 0.000000
-24.194300 0.000000
-24.144500 0.000000
-24.094800 0.000000
-24.045000 0.000000
-23.995200 0.000000
-23.945400 0.000000
-23.895600 0.000000
-23.845900 0.000000
-23.796100 0.000000
-23.746300 0.000000
-23.696500 0.000000
-23.646700 0.000000
-23.597000 0.000000
-23.547200 0.000000
-23.497400 0.000000
-23.447600 0.000000
-23.397800 0.000000
-23.348100 0.000000
-23.298300 0.000000
-23.248500 0.000000
-23.198700 0.000000
-23.148900 0.000000
-23.099100 0.000000
-23.049400 0.000000
-22.999600 0.000000
-22.949800 0.000000
-22.900000 0.000000
-22.850200 0.000000
-22.800500 0.000000
-22.750700 0.000000
-22.700900 0.000000
-22.651100 0.000000
-22.601300 0.000000
-22.551600 0.000000
-22.501800 0.000000
-22.452000 0.000000
-22.402200 0.000000
-22.352400 0.000000
-22.302700 0.000000
-22.252900 0.000000
-22.203100 0.000000
-22.153300 0.000000
-22.103500 0.000000
-22.053700 0.000000
-22.004000 0.000000
-21.954200 0.000000
-21.904400 0.000000
-21.854600 0.000000
-21.804800 0.000000
-21.755100 0.000000
-21.705300 0.000000
-21.655500 0.000000
-21.605700 0.000000
-21.555900 0.000000
-21.506200 0.000000
-21.456400 0.000000
-21.406600 0.000000
-21.356800 0.000000
-21.307000 0.000000
-21.257300 0.000000
-21.207500 0.000000
-21.157700 0.000000
-21.107900 0.000000
-21.058100 0.000000
-21.008300 0.000000
-20.958600 0.000000
-20.908800 0.000000
-20.859000 0.000000
-20.809200 0.000000
-20.759400 0.000000
-20.709700 0.000000
-20.659900 0.000000
-20.610100 0.000000
-20.560300 0.000000
-20.510500 0.000000
-20.460800 0.000000
-20.411000 0.000000
-20.361200 0.000000
-20.311400 0.000000
-20.261600 0.000000
-20.211900 0.000000
-20.162100 0.000000
-20.112300 0.000000
-20.062500 0.000000
-20.012700 0.000000
-19.963000 0.000000
-19.913200 0.000000
-19.863400 0.000000
-19.813600 0.000000
-19.763800 0.000000
-19.714000 0.000000
-19.664300 0.000000
-19.614500 0.000000
-19.564700 0.000000
-19.514900 0.000000
-19.465100 0.000000
-19.415400 0.000000
-19.365600 0.000000
-19.315800 0.000000
-19.266000 0.000000
-19.216200 0.000000
-19.166500 0.000000
-19.116700 0.000000
-19.066900 0.000000
-19.017100 0.000000
-18.967300 0.000000
-18.917600 0.000000
-18.867800 0.000000
-18.818000 0.000000
-18.768200 0.000000
-18.718400 0.000000
-18.668600 0.000000
-18.618900 0.000000
-18.569100 0.000000
-18.519300 0.000000
-18.469500 0.000000
-18.419700 0.000000
-18.370000 0.000000
-18.320200 0.000000
-18.270400 0.000000
-18.220600 0.000000
-18.170800 0.000000
-18.121100 0.000000
-18.071300 0.000000
-18.021500 0.000000
-17.971700 0.000000
-17.921900 0.000000
-17.872200 0.000000
-17.822400 0.000000
-17.772600 0.000000
-17.722800 0.000000
-17.673000 0.000000
-17.623200 0.000000
-17.573500 0.000000
-17.523700 0.000000
-17.473900 0.000000
-17.424100 0.000000
-17.374300 0.000000
-17.324600 0.000000
-17.274800 0.000000
-17.225000 0.000000
-17.175200 0.000000
-17.125400 0.000000
-17.075700 0.000000
-17.025900 0.000000
-16.976100 0.000000
-16.926300 0.000000
-16.876500 0.000000
-16.826800 0.000000
-16.777000 0.000000
-16.727200 0.000000
-16.677400 0.000000
-16.627600 0.000000
-16.577800 0.000000
-16.528100 0.000000
-16.478300 0.000000
-16.428500 0.000000
-16.378700 0.000000
-16.328900 0.000000
-16.279200 0.000000
-16.229400 0.000000
-16.179600 0.000000
-16.129800 0.000000
-16.080000 0.000000
-16.030300 0.000000
-15.980500 0.000000
-15.930700 0.000000
-15.880900 0.000000
-15.831100 0.000000
-15.781400 0.000000
-15.731600 0.000000
-15.681800 0.000000
-15.632000 0.000000
-15.582200 0.000000
-15.532400 0.000000
-15.482700 0.000000
-15.432900 0.000000
-15.383100 0.000000
-15.333300 0.000000
-15.283500 0.000000
-15.233800 0.000000
-15.184000 0.000000
-15.134200 0.000000
-15.084400 0.000000
-15.034600 0.000000
-14.984900 0.000000
-14.935100 0.000000
-14.885300 0.000000
-14.835500 0.000000
-14.785700 0.000000
-14.736000 0.000000
-14.686200 0.000000
-14.636400 0.000000
-14.586600 0.000000
-14.536800 0.000000
-14.487000 0.000000
-14.437300 0.000000
-14.387500 0.000000
-14.337700 0.000000
-14.287900 0.000000
-14.238100 0.000000
-14.188400 0.000000
-14.138600 0.000000
-14.088800 0.000000
-14.039000 0.000000
-13.989200 0.000000
-13.939500 0.000000
-13.889700 0.000000
-13.839900 0.000000
-13.790100 0.000000
-13.740300 0.000000
-13.690600 0.000000
-13.640800 0.000000
-13.591000 0.000000
-13.541200 0.000000
-13.491400 0.000000
-13.441600 0.000000
-13.391900 0.000000
-13.342100 0.000000
-13.292300 0.000000
-13.242500 0.000000
-13.192700 0.000000
-13.143000 0.000000
-13.093200 0.000000
-13.043400 0.000000
-12.993600 0.000000
-12.943800 0.000000
-12.894100 0.000000
-12.844300 0.000000
-12.794500 0.000000
-12.744700 0.000000
-12.694900 0.000000
-12.645200 0.000000
-12.595400 0.000000
-12.545600 0.000000
-12.495800 0.000000
-12.446000 0.000000
-12.396200 0.000000
-12.346500 0.000000
-12.296700 0.000000
-12.246900 0.000000
-12.197100 0.000000
-12.147300 0.000000
-12.097600 0.000000
-12.047800 0.000000
-11.998000 0.000000
-11.948200 0.000000
-11.898400 0.000000
-11.848700 0.000000
-11.798900 0.000000
-11.749100 0.000000
-11.699300 0.000000
-11.649500 0.000000
-11.599800 0.000000
-11.550000 0.000000
-11.500200 0.000000
-11.450400 0.000000
-11.400600 0.000000
-11.350900 0.000000
-11.301100 0.000000
-11.251300 0.000000
-11.201500 0.000000
-11.151700 0.000000
-11.101900 0.000000
-11.052200 0.000000
-11.002400 0.000000
-10.952600 0.000000
-10.902800 0.000000
-10.853000 0.000000
-10.803300 0.000000
-10.753500 0.000000
-10.703700 0.000000
-10.653900 0.000000
-10.604100 0.000000
-10.554400 0.000000
-10.504600 0.000000
-10.454800 0.000000
-10.405000 0.000000
-10.355200 0.000000
-10.305500 0.000000
-10.255700 0.000000
-10.205900 0.000000
-10.156100 0.000000
-10.106300 0.000000
-10.056500 0.000000
-10.006800 0.000000
-9.957000 0.000000
-9.907200 0.000000
-9.857400 0.000000
-9.807600 0.000000
-9.757900 0.000000
-9.708100 0.000000
-9.658300 0.000000
-9.608500 0.000000
-9.558700 0.000000
-9.509000 0.000000
-9.459200 0.000000
-9.409400 0.000000
-9.359600 0.000000
-9.309800 0.000000
-9.260100 0.000000
-9.210300 0.000000
-9.160500 0.000000
-9.110700 0.000000
-9.060900 0.000000
-9.011100 0.000000
-8.961400 0.000000
-8.911600 0.000000
-8.861800 0.000000
-8.812000 0.000000
-8.762200 0.000000
-8.712500 0.000000
-8.662700 0.000000
-8.612900 0.000000
-8.563100 0.000000
-8.513300 0.000000
-8.463600 0.000000
-8.413800 0.000000
-8.364000 0.000000
-8.314200 0.000000
-8.264400 0.000000
-8.214700 0.000000
-8.164900 0.000000
-8.115100 0.000000
-8.065300 0.000000
-8.015500 0.000000
-7.965700 0.000000
-7.916000 0.000000
-7.866200 0.000000
-7.816400 0.000000
-7.766600 0.000000
-7.716800 0.000000
-7.667100 0.000000
-7.617300 0.000000
-7.567500 0.000000
-7.517700 0.000000
-7.467900 0.000000
-7.418200 0.000000
-7.368400 0.000000
-7.318600 0.000000
-7.268800 0.000000
-7.219000 0.000000
-7.169300 0.000000
-7.119500 0.000000
-7.069700 0.000000
-7.019900 0.000000
-6.970100 0.000000
-6.920300 0.000000
-6.870600 0.000000
-6.820800 0.000000
-6.771000 0.000000
-6.721200 0.000000
-6.671400 0.000000
-6.621700 0.000000
-6.571900 0.000000
-6.522100 0.000000
-6.472300 0.000000
-6.422500 0.000000
-6.372800 0.000000
-6.323000 0.000000
-6.273200 0.000000
-6.223400 0.000000
-6.173600 0.000000
-6.123900 0.000000
-6.074100 0.000000
-6.024300 0.000000
-5.974500 0.000000
-5.924700 0.000000
-5.874900 0.000000
-5.825200 0.000000
-5.775400 0.000000
-5.725600 0.000000
-5.675800 0.000000
-5.626000 0.000000
-5.576300 0.000000
-5.526500 0.000000
-5.476700 0.000000
-5.426900 0.000000
-5.377100 0.000000
-5.327400 0.000000
-5.277600 0.000000
-5.227800 0.000000
-5.178000 0.000000
-5.128200 0.000000
-5.078500 0.000000
-5.028700 0.000000
-4.978900 0.000000
-4.929100 0.000000
-4.879300 0.000000
-4.829500 0.000000
-4.779800 0.000000
-4.730000 0.000000
-4.680200 0.000000
-4.630400 0.000000
-4.580600 0.000000
-4.530900 0.000000
-4.481100 0.000000
-4.431300 0.000000
-4.381500 0.000000
-4.331700 0.000000
-4.282000 0.000000
-4.232200 0.000000
-4.182400 0.000000
-4.132600 0.000000
-4.082800 0.000000
-4.033100 0.000000
-3.983300 0.000000
-3.933500 0.000000
-3.883700 0.000000
-3.833900 0.000000
-3.784100 0.000000
-3.734400 0.000000
-3.684600 0.000000
-3.634800 0.000000
-3.585000 0.000000
-3.535200 0.000000
-3.485500 0.000000
-3.435700 0.000000
-3.385900 0.000000
-3.336100 0.005400
-3.286300 0.027000
-3.236600 0.057300
-3.186800 0.069600
-3.137000 0.077700
-3.087200 0.088700
-3.037400 0.099800
-2.987700 0.112200
-2.937900 0.124800
-2.888100 0.137400
-2.838300 0.148100
-2.788500 0.159100
-2.738800 0.171000
-2.689000 0.188500
-2.639200 0.213300
-2.589400 0.229900
-2.539600 0.229500
-2.489800 0.225700
-2.440100 0.231400
-2.390300 0.236900
-2.340500 0.240600
-2.290700 0.243500
-2.240900 0.245700
-2.191200 0.246400
-2.141400 0.248000
-2.091600 0.251400
-2.041800 0.256800
-1.992000 0.262600
-1.942300 0.268600
-1.892500 0.274800
-1.842700 0.281200
-1.792900 0.287800
-1.743100 0.294600
-1.693400 0.300600
-1.643600 0.309300
-1.593800 0.321800
-1.544000 0.337200
-1.494200 0.355800
-1.444400 0.380000
-1.394700 0.417900
-1.344900 0.789700
-1.295100 1.223900
-1.245300 1.691900
-1.195500 2.013900
-1.145800 1.970100
-1.096000 1.822000
-1.046200 1.696100
-0.996400 1.467500
-0.946600 1.257200
-0.896900 1.145300
-0.847100 1.092700
-0.797300 1.024800
-0.747500 0.950400
-0.697700 0.902000
-0.648000 1.118300
-0.598200 1.387600
-0.548400 1.589900
-0.498600 1.767500
-0.448800 1.944200
-0.399000 2.156700
-0.349300 2.429800
-0.299500 2.802500
-0.249700 3.036200
-0.199900 3.404300
-0.150100 3.410700
-0.100400 3.569400
-0.050600 3.926400
-0.000800 4.627300
0.049000 4.813200
0.098800 4.306100
0.148500 2.358000
0.198300 1.632000
0.248100 0.822400
0.297900 0.857500
0.347700 1.954800
0.397400 1.784400
0.447200 2.513700
0.497000 2.613300
0.546800 3.921500
0.596600 4.193900
0.646400 3.883700
0.696100 4.949300
0.745900 5.960400
0.795700 5.062600
0.845500 4.511500
0.895300 3.931800
0.945000 4.356300
0.994800 4.235900
1.044600 3.987300
1.094400 3.948700
1.144200 3.156400
1.193900 2.978200
1.243700 2.874700
1.293500 1.747900
1.343300 1.764200
1.393100 1.836900
1.442800 1.930800
1.492600 2.035900
1.542400 2.139700
1.592200 2.758300
1.642000 3.346600
1.691800 3.414600
1.741500 3.291700
1.791300 3.388900
1.841100 3.163300
1.890900 3.241000
1.940700 3.101100
1.990400 2.426700
2.040200 1.508200
2.090000 0.815100
2.139800 1.454900
2.189600 2.981400
2.239300 2.639100
2.289100 1.871900
2.338900 1.381300
2.388700 1.096400
2.438500 1.228200
2.488200 0.909700
2.538000 0.866900
2.587800 0.856300
2.637600 0.857100
2.687400 0.866300
2.737200 0.871700
2.786900 0.875000
2.836700 0.851500
2.886500 0.824300
2.936300 0.803700
2.986100 0.804000
3.035800 0.811700
3.085600 0.822300
3.135400 0.815200
3.185200 0.818000
3.235000 0.826300
3.284700 0.834100
3.334500 0.842500
3.384300 0.852900
3.434100 0.886400
3.483900 0.903500
3.533600 0.919100
3.583400 0.936600
3.633200 0.956200
3.683000 0.978000
3.732800 1.189200
3.782600 1.173500
3.832300 1.243000
3.882100 1.324000
3.931900 1.380100
3.981700 1.439500
4.031500 1.463600
4.081200 1.498600
4.131000 1.548400
4.180800 1.597200
4.230600 1.654200
4.280400 1.712100
4.330100 1.783000
4.379900 1.879200
4.429700 2.002600
4.479500 2.110100
4.529300 2.105800
4.579000 2.201400
4.628800 2.390200
4.678600 2.442100
4.728400 2.544100
4.778200 2.283500
4.828000 1.955100
4.877700 2.022100
4.927500 1.998100
4.977300 1.979000
5.027100 2.202400
5.076900 2.366800
5.126600 2.493700
5.176400 2.648300
5.226200 3.022900
5.276000 3.475600
5.325800 3.498600
5.375500 3.763500
5.425300 4.284200
5.475100 3.384400
5.524900 2.634200
5.574700 1.900200
5.624400 1.521900
5.674200 1.578900
5.724000 1.805200
5.773800 2.390400
5.823600 2.792000
5.873300 2.871500
5.923100 2.927300
5.972900 2.859300
6.022700 2.751300
6.072500 2.843000
6.122300 2.555300
6.172000 2.497600
6.221800 2.447400
6.271600 2.531400
6.321400 2.589200
6.371200 2.392700
6.420900 2.180800
6.470700 2.294000
6.520500 2.472300
6.570300 2.463100
6.620100 2.448900
6.669800 2.627400
6.719600 2.704300
6.769400 2.597500
6.819200 2.788900
6.869000 3.191900
6.918700 3.203700
6.968500 3.414500
7.018300 3.517600
7.068100 3.360900
7.117900 2.913100
7.167700 4.306100
7.217400 5.530300
7.267200 4.093600
7.317000 3.926100
7.366800 3.309800
7.416600 3.099800
7.466300 2.063400
7.516100 1.470500
7.565900 1.419600
7.615700 1.377800
7.665500 1.351900
7.715200 1.348900
7.765000 1.349500
7.814800 1.362600
7.864600 1.375400
7.914400 1.388600
7.964100 1.423500
8.013900 1.471300
8.063700 1.529200
8.113500 1.547400
8.163300 1.555600
8.213100 1.568400
8.262800 1.587100
8.312600 1.583400
8.362400 1.660400
8.412200 1.499100
8.462000 1.367200
8.511700 1.301000
8.561500 1.263300
8.611300 1.104400
8.661100 0.951800
8.710900 0.878300
8.760600 0.847000
8.810400 0.819800
8.860200 0.796200
8.910000 0.776900
8.959800 0.757900
9.009500 0.745700
9.059300 0.735400
9.109100 0.718800
9.158900 0.670700
9.208700 0.650900
9.258500 0.639100
9.308200 0.630100
9.358000 0.625900
9.407800 0.627300
9.457600 0.633200
9.507400 0.636400
9.557100 0.634700
9.606900 0.623300
9.656700 0.599900
9.706500 0.585000
9.756300 0.572600
9.806000 0.560800
9.855800 0.545100
9.905600 0.550000
9.955400 0.567400
10.005200 0.500500
10.054900 0.500000
10.104700 0.499800
10.154500 0.502700
10.204300 0.492300
10.254100 0.482700
10.303900 0.476900
10.353600 0.474600
10.403400 0.467100
10.453200 0.462300
10.503000 0.465100
10.552800 0.465900
10.602500 0.461500
10.652300 0.451600
10.702100 0.441500
10.751900 0.446400
10.801700 0.484400
10.851400 0.582100
10.901200 0.560700
10.951000 0.556200
11.000800 0.552500
11.050600 0.548000
11.100300 0.544400
11.150100 0.542500
11.199900 0.555000
11.249700 0.651500
11.299500 0.657100
11.349300 0.666900
11.399000 0.667200
11.448800 0.666600
11.498600 0.666600
11.548400 0.670000
11.598200 0.682100
11.647900 1.074200
11.697700 0.873700
11.747500 0.820600
11.797300 0.790300
11.847100 0.785400
11.896800 0.758400
11.946600 0.744000
11.996400 0.732900
12.046200 0.720600
12.096000 0.713000
12.145700 0.709900
12.195500 0.707100
12.245300 0.706900
12.295100 0.711400
12.344900 0.717300
12.394700 0.714400
12.444400 0.705900
12.494200 0.690200
12.544000 0.659700
12.593800 0.636300
12.643600 0.635000
12.693300 0.644200
12.743100 0.646400
12.792900 0.640300
12.842700 0.637600
12.892500 0.649600
12.942200 0.663100
12.992000 0.650000
13.041800 0.631800
13.091600 0.613200
13.141400 0.608700
13.191100 0.571700
13.240900 0.524900
13.290700 0.491500
13.340500 0.467700
13.390300 0.451500
13.440100 0.436500
13.489800 0.424000
13.539600 0.413900
13.589400 0.406700
13.639200 0.402600
13.689000 0.402800
