set title 'mp-978499 - Density of States'
set xlabel 'Energy (eV)'
set ylabel 'DOS (states/eV)'
set grid
set xrange [-10:10]
set yrange [0:3.650]
set xzeroaxis lt -1
set terminal png size 800,600
set output 'mp-978499_dos_gnuplot.png'
plot '-' using 1:2 with lines title 'DOS'
-9.936700 0.000000
-9.917800 0.000000
-9.899000 0.000000
-9.880200 0.000000
-9.861300 0.000000
-9.842500 0.000000
-9.823600 0.000000
-9.804800 0.000000
-9.785900 0.000000
-9.767100 0.000000
-9.748300 0.000000
-9.729400 0.000000
-9.710600 0.000000
-9.691700 0.000000
-9.672900 0.000000
-9.654000 0.000000
-9.635200 0.000000
-9.616400 0.000000
-9.597500 0.000000
-9.578700 0.000000
-9.559800 0.000000
-9.541000 0.000000
-9.522100 0.000000
-9.503300 0.000000
-9.484500 0.000000
-9.465600 0.000000
-9.446800 0.000000
-9.427900 0.000000
-9.409100 0.000000
-9.390300 0.000000
-9.371400 0.000000
-9.352600 0.000000
-9.333700 0.000000
-9.314900 0.000000
-9.296000 0.000000
-9.277200 0.000000
-9.258400 0.000000
-9.239500 0.000000
-9.220700 0.000000
-9.201800 0.000000
-9.183000 0.000000
-9.164100 0.000000
-9.145300 0.000000
-9.126500 0.000000
-9.107600 0.000000
-9.088800 0.000000
-9.069900 0.000000
-9.051100 0.000000
-9.032200 0.000000
-9.013400 0.000000
-8.994600 0.000000
-8.975700 0.000000
-8.956900 0.000000
-8.938000 0.000000
-8.919200 0.000000
-8.900400 0.000000
-8.881500 0.000000
-8.862700 0.000000
-8.843800 0.000000
-8.825000 0.000000
-8.806100 0.000000
-8.787300 0.000000
-8.768500 0.000000
-8.749600 0.000000
-8.730800 0.000000
-8.711900 0.000000
-8.693100 0.000000
-8.674200 0.000000
-8.655400 0.000000
-8.636600 0.000000
-8.617700 0.000000
-8.598900 0.000000
-8.580000 0.000000
-8.561200 0.000000
-8.542300 0.000000
-8.523500 0.000000
-8.504700 0.000000
-8.485800 0.000000
-8.467000 0.000000
-8.448100 0.000000
-8.429300 0.000000
-8.410500 0.000000
-8.391600 0.000000
-8.372800 0.000000
-8.353900 0.000000
-8.335100 0.000000
-8.316200 0.000000
-8.297400 0.000000
-8.278600 0.000000
-8.259700 0.000000
-8.240900 0.000000
-8.222000 0.000100
-8.203200 0.013600
-8.184300 0.047600
-8.165500 0.088000
-8.146700 0.132500
-8.127800 0.182300
-8.109000 0.211200
-8.090100 0.232200
-8.071300 0.240600
-8.052400 0.244900
-8.033600 0.256100
-8.014800 0.273700
-7.995900 0.292100
-7.977100 0.311200
-7.958200 0.326300
-7.939400 0.342800
-7.920600 0.362500
-7.901700 0.382500
-7.882900 0.402100
-7.864000 0.416600
-7.845200 0.427500
-7.826300 0.437400
-7.807500 0.446200
-7.788700 0.458500
-7.769800 0.471100
-7.751000 0.485300
-7.732100 0.500800
-7.713300 0.516600
-7.694400 0.532900
-7.675600 0.560500
-7.656800 0.600400
-7.637900 0.624000
-7.619100 0.635800
-7.600200 0.637900
-7.581400 0.633300
-7.562500 0.632200
-7.543700 0.629500
-7.524900 0.625400
-7.506000 0.631400
-7.487200 0.638000
-7.468300 0.643300
-7.449500 0.646000
-7.430700 0.647400
-7.411800 0.647300
-7.393000 0.646500
-7.374100 0.646200
-7.355300 0.645400
-7.336400 0.641100
-7.317600 0.635800
-7.298800 0.631700
-7.279900 0.629500
-7.261100 0.629100
-7.242200 0.630300
-7.223400 0.631700
-7.204500 0.633000
-7.185700 0.634200
-7.166900 0.635300
-7.148000 0.636800
-7.129200 0.638500
-7.110300 0.640200
-7.091500 0.642000
-7.072700 0.643800
-7.053800 0.645500
-7.035000 0.647200
-7.016100 0.649000
-6.997300 0.650800
-6.978400 0.651900
-6.959600 0.652700
-6.940800 0.653100
-6.921900 0.653200
-6.903100 0.653000
-6.884200 0.651500
-6.865400 0.649800
-6.846500 0.649800
-6.827700 0.649600
-6.808900 0.649600
-6.790000 0.649700
-6.771200 0.650100
-6.752300 0.650500
-6.733500 0.651100
-6.714600 0.651800
-6.695800 0.652500
-6.677000 0.653200
-6.658100 0.653800
-6.639300 0.654700
-6.620400 0.655700
-6.601600 0.656800
-6.582800 0.658200
-6.563900 0.659600
-6.545100 0.661100
-6.526200 0.662500
-6.507400 0.663900
-6.488500 0.665300
-6.469700 0.666600
-6.450900 0.667900
-6.432000 0.686000
-6.413200 0.716800
-6.394300 0.730600
-6.375500 0.754700
-6.356600 0.774700
-6.337800 0.791500
-6.319000 0.805700
-6.300100 0.817200
-6.281300 0.822600
-6.262400 0.828200
-6.243600 0.840200
-6.224700 0.852800
-6.205900 0.866600
-6.187100 0.882900
-6.168200 0.901400
-6.149400 0.922300
-6.130500 0.940900
-6.111700 0.960700
-6.092900 0.984900
-6.074000 1.012300
-6.055200 1.041200
-6.036300 1.124500
-6.017500 1.157800
-5.998600 1.184700
-5.979800 1.205700
-5.961000 1.220300
-5.942100 1.229500
-5.923300 1.233300
-5.904400 1.186600
-5.885600 1.183700
-5.866700 1.178900
-5.847900 1.172800
-5.829100 1.168000
-5.810200 1.164000
-5.791400 1.160500
-5.772500 1.157500
-5.753700 1.152500
-5.734800 1.138700
-5.716000 1.125000
-5.697200 1.111700
-5.678300 1.098900
-5.659500 1.086700
-5.640600 1.075200
-5.621800 1.063500
-5.603000 1.045800
-5.584100 1.039300
-5.565300 1.037700
-5.546400 1.036400
-5.527600 1.035700
-5.508700 1.036100
-5.489900 1.040300
-5.471100 1.061000
-5.452200 1.099600
-5.433400 1.153400
-5.414500 1.224200
-5.395700 1.332200
-5.376800 1.325600
-5.358000 1.305500
-5.339200 1.322000
-5.320300 1.341700
-5.301500 1.363100
-5.282600 1.387500
-5.263800 1.415100
-5.244900 1.440200
-5.226100 1.455400
-5.207300 1.488000
-5.188400 1.542600
-5.169600 1.586500
-5.150700 1.596600
-5.131900 1.611200
-5.113100 1.636800
-5.094200 1.673400
-5.075400 1.700800
-5.056500 1.700400
-5.037700 1.697600
-5.018800 1.690700
-5.000000 1.679500
-4.981200 1.664500
-4.962300 1.645500
-4.943500 1.630400
-4.924600 1.620500
-4.905800 1.611800
-4.886900 1.604500
-4.868100 1.598900
-4.849300 1.588200
-4.830400 1.574500
-4.811600 1.559000
-4.792700 1.548900
-4.773900 1.538500
-4.755000 1.530600
-4.736200 1.521200
-4.717400 1.510800
-4.698500 1.500400
-4.679700 1.490500
-4.660800 1.482000
-4.642000 1.473200
-4.623200 1.463100
-4.604300 1.451700
-4.585500 1.438800
-4.566600 1.423100
-4.547800 1.407300
-4.528900 1.394500
-4.510100 1.392500
-4.491300 1.381400
-4.472400 1.403300
-4.453600 1.387400
-4.434700 1.377300
-4.415900 1.359300
-4.397000 1.333800
-4.378200 1.239500
-4.359400 1.223200
-4.340500 1.230000
-4.321700 1.250800
-4.302800 1.261500
-4.284000 1.252300
-4.265100 1.275800
-4.246300 1.320500
-4.227500 1.370300
-4.208600 1.442800
-4.189800 1.533800
-4.170900 1.627300
-4.152100 1.726100
-4.133300 1.838200
-4.114400 1.965000
-4.095600 1.852200
-4.076700 1.794900
-4.057900 1.886300
-4.039000 1.985300
-4.020200 2.043800
-4.001400 2.132500
-3.982500 1.952200
-3.963700 1.844100
-3.944800 1.779600
-3.926000 1.759400
-3.907100 1.836200
-3.888300 1.940400
-3.869500 2.068100
-3.850600 2.324800
-3.831800 2.461200
-3.812900 2.531900
-3.794100 2.607800
-3.775200 2.646000
-3.756400 2.637400
-3.737600 2.499700
-3.718700 2.264300
-3.699900 2.015400
-3.681000 1.877900
-3.662200 1.663900
-3.643400 1.451600
-3.624500 1.239500
-3.605700 1.093500
-3.586800 0.987900
-3.568000 0.897200
-3.549100 0.816100
-3.530300 0.740400
-3.511500 0.674700
-3.492600 0.591300
-3.473800 0.585700
-3.454900 0.580100
-3.436100 0.574500
-3.417200 0.568900
-3.398400 0.563300
-3.379600 0.557600
-3.360700 0.552000
-3.341900 0.546400
-3.323000 0.540800
-3.304200 0.535200
-3.285400 0.529600
-3.266500 0.524000
-3.247700 0.518300
-3.228800 0.512700
-3.210000 0.507100
-3.191100 0.501500
-3.172300 0.495900
-3.153500 0.490300
-3.134600 0.484600
-3.115800 0.479000
-3.096900 0.473400
-3.078100 0.467800
-3.059200 0.463800
-3.040400 0.461200
-3.021600 0.459600
-3.002700 0.458700
-2.983900 0.458400
-2.965000 0.459000
-2.946200 0.460300
-2.927300 0.463000
-2.908500 0.465400
-2.889700 0.466400
-2.870800 0.461600
-2.852000 0.444400
-2.833100 0.435300
-2.814300 0.427100
-2.795500 0.420200
-2.776600 0.413100
-2.757800 0.405600
-2.738900 0.397900
-2.720100 0.389200
-2.701200 0.377100
-2.682400 0.364700
-2.663600 0.363200
-2.644700 0.360400
-2.625900 0.357300
-2.607000 0.354200
-2.588200 0.351100
-2.569300 0.348000
-2.550500 0.344800
-2.531700 0.341700
-2.512800 0.338600
-2.494000 0.335500
-2.475100 0.332300
-2.456300 0.329200
-2.437400 0.326100
-2.418600 0.323000
-2.399800 0.319800
-2.380900 0.316700
-2.362100 0.313600
-2.343200 0.310500
-2.324400 0.307300
-2.305600 0.304200
-2.286700 0.301100
-2.267900 0.298000
-2.249000 0.294800
-2.230200 0.291700
-2.211300 0.288600
-2.192500 0.285500
-2.173700 0.282300
-2.154800 0.279200
-2.136000 0.276100
-2.117100 0.273000
-2.098300 0.270100
-2.079400 0.268000
-2.060600 0.266300
-2.041800 0.265100
-2.022900 0.264100
-2.004100 0.263600
-1.985200 0.271800
-1.966400 0.355100
-1.947500 0.516400
-1.928700 0.652100
-1.909900 0.761700
-1.891000 0.832600
-1.872200 0.875500
-1.853300 0.871100
-1.834500 0.852400
-1.815700 0.871600
-1.796800 0.890300
-1.778000 0.900500
-1.759100 0.911200
-1.740300 0.923900
-1.721400 0.938200
-1.702600 0.954100
-1.683800 0.972400
-1.664900 0.978600
-1.646100 0.973600
-1.627200 0.968700
-1.608400 0.964800
-1.589500 0.973500
-1.570700 0.984000
-1.551900 0.995900
-1.533000 1.009100
-1.514200 1.021600
-1.495300 1.032500
-1.476500 1.048600
-1.457600 1.068200
-1.438800 1.102200
-1.420000 1.156000
-1.401100 1.221800
-1.382300 1.299700
-1.363400 1.388800
-1.344600 1.517800
-1.325800 1.693600
-1.306900 1.832900
-1.288100 1.924800
-1.269200 1.940800
-1.250400 1.850700
-1.231500 1.779600
-1.212700 1.756600
-1.193900 1.741300
-1.175000 1.736600
-1.156200 1.723200
-1.137300 1.707400
-1.118500 1.689200
-1.099600 1.665200
-1.080800 1.642400
-1.062000 1.643600
-1.043100 1.658600
-1.024300 1.689000
-1.005400 1.733100
-0.986600 1.742000
-0.967700 1.593700
-0.948900 1.458000
-0.930100 1.337900
-0.911200 1.302200
-0.892400 1.276200
-0.873500 1.274900
-0.854700 1.183300
-0.835900 1.102100
-0.817000 1.031200
-0.798200 0.969300
-0.779300 0.913700
-0.760500 0.864500
-0.741600 0.828000
-0.722800 0.800700
-0.704000 0.778800
-0.685100 0.762300
-0.666300 0.751200
-0.647400 0.745500
-0.628600 0.742200
-0.609700 0.728300
-0.590900 0.714800
-0.572100 0.702000
-0.553200 0.689400
-0.534400 0.676200
-0.515500 0.662600
-0.496700 0.653600
-0.477800 0.651800
-0.459000 0.637700
-0.440200 0.638700
-0.421300 0.575500
-0.402500 0.566200
-0.383600 0.556600
-0.364800 0.546800
-0.346000 0.536600
-0.327100 0.526100
-0.308300 0.515300
-0.289400 0.504000
-0.270600 0.492200
-0.251700 0.474700
-0.232900 0.458000
-0.214100 0.443000
-0.195200 0.432800
-0.176400 0.422800
-0.157500 0.412900
-0.138700 0.406400
-0.119800 0.402800
-0.101000 0.400400
-0.082200 0.399400
-0.063300 0.401300
-0.044500 0.406400
-0.025600 0.416200
-0.006800 0.434000
0.012100 0.459900
0.030900 0.493600
0.049700 0.535100
0.068600 0.624900
0.087400 0.614500
0.106300 0.596200
0.125100 0.601400
0.143900 0.611100
0.162800 0.635800
0.181600 0.667600
0.200500 0.709600
0.219300 0.761800
0.238200 0.824600
0.257000 0.961400
0.275800 0.918900
0.294700 0.902900
0.313500 0.911700
0.332400 0.913000
0.351200 0.911400
0.370100 0.912500
0.388900 0.833000
0.407700 0.741300
0.426600 0.725700
0.445400 0.700000
0.464300 0.684500
0.483100 0.675900
0.501900 0.674300
0.520800 0.679300
0.539600 0.690200
0.558500 0.706200
0.577300 0.736100
0.596200 0.839000
0.615000 1.318000
0.633800 1.060400
0.652700 1.125400
0.671500 1.188900
0.690400 1.236100
0.709200 1.291500
0.728100 1.391000
0.746900 1.402000
0.765700 1.363600
0.784600 1.355500
0.803400 1.360700
0.822300 1.373300
0.841100 1.420700
0.860000 1.417600
0.878800 1.413200
0.897600 1.395800
0.916500 1.369700
0.935300 1.341600
0.954200 1.361100
0.973000 1.359500
0.991800 1.379200
1.010700 1.370200
1.029500 1.377700
1.048400 1.377000
1.067200 1.381600
1.086100 1.381400
1.104900 1.380600
1.123700 1.374200
1.142600 1.375400
1.161400 1.377700
1.180300 1.380900
1.199100 1.385000
1.218000 1.389500
1.236800 1.396500
1.255600 1.414300
1.274500 1.431900
1.293300 1.454000
1.312200 1.438100
1.331000 1.423700
1.349900 1.411600
1.368700 1.400100
1.387500 1.425200
1.406400 1.514500
1.425200 1.664900
1.444100 1.620000
1.462900 1.659900
1.481700 1.690900
1.500600 1.714700
1.519400 1.748000
1.538300 1.762500
1.557100 1.779400
1.576000 1.797100
1.594800 1.786500
1.613600 1.786800
1.632500 1.786700
1.651300 1.784800
1.670200 1.798600
1.689000 1.761000
1.707900 1.731500
1.726700 1.704400
1.745500 1.684900
1.764400 1.676600
1.783200 1.676100
1.802100 1.675400
1.820900 1.678200
1.839800 1.684200
1.858600 1.670100
1.877400 1.671000
1.896300 1.673800
1.915100 1.674600
1.934000 1.677100
1.952800 1.681300
1.971600 1.673600
1.990500 1.666000
2.009300 1.658600
2.028200 1.651800
2.047000 1.655100
2.065900 1.661100
2.084700 1.667500
2.103500 1.663300
2.122400 1.672000
2.141200 1.691500
2.160100 1.722100
2.178900 1.749300
2.197800 1.809500
2.216600 1.824100
2.235400 1.835200
2.254300 1.835000
2.273100 1.817800
2.292000 1.784000
2.310800 1.794200
2.329700 1.809200
2.348500 1.824500
2.367300 1.856200
2.386200 1.876000
2.405000 1.897300
2.423900 1.929400
2.442700 1.976400
2.461500 2.026000
2.480400 2.022600
2.499200 1.971200
2.518100 1.972300
2.536900 2.002400
2.555800 2.045400
2.574600 2.089100
2.593400 2.128100
2.612300 2.189300
2.631100 2.206700
2.650000 2.206900
2.668800 2.216500
2.687700 2.269500
2.706500 2.231100
2.725300 2.239800
2.744200 2.267900
2.763000 2.293600
2.781900 2.309900
2.800700 2.315600
2.819600 2.313600
2.838400 2.307400
2.857200 2.297500
2.876100 2.281300
2.894900 2.267200
2.913800 2.269100
2.932600 2.266600
2.951400 2.252600
2.970300 2.237300
2.989100 2.219700
3.008000 2.201300
3.026800 2.177600
3.045700 2.099600
3.064500 2.068700
3.083300 2.042100
3.102200 2.014900
3.121000 1.984200
3.139900 1.960900
3.158700 1.976700
3.177600 1.985700
3.196400 2.002100
3.215200 2.014200
3.234100 2.007300
3.252900 2.114100
3.271800 2.040200
3.290600 1.970100
3.309500 1.913500
3.328300 1.866400
3.347100 1.845800
3.366000 1.826900
3.384800 1.806800
3.403700 1.794700
3.422500 1.809500
3.441300 1.805000
3.460200 1.760600
3.479000 1.742300
3.497900 1.725600
3.516700 1.712700
3.535600 1.707700
3.554400 1.708600
3.573200 1.712100
3.592100 1.709200
3.610900 1.705800
3.629800 1.710600
3.648600 1.724200
3.667500 1.731800
3.686300 1.724100
3.705100 1.716300
3.724000 1.709900
3.742800 1.706600
3.761700 1.704800
3.780500 1.704900
3.799400 1.710600
3.818200 1.731500
3.837000 1.742000
3.855900 1.750200
3.874700 1.758100
3.893600 1.770300
3.912400 1.787800
3.931200 1.788300
3.950100 1.795600
3.968900 1.805800
3.987800 1.834700
4.006600 1.901700
4.025500 1.816300
4.044300 1.781800
4.063100 1.779800
4.082000 1.779000
4.100800 1.780900
4.119700 1.783000
4.138500 1.800100
4.157400 1.811900
4.176200 1.822500
4.195000 1.834700
4.213900 1.854800
4.232700 1.882500
4.251600 1.913200
4.270400 1.944900
4.289200 1.981100
4.308100 2.022000
4.326900 2.063500
4.345800 2.109200
4.364600 2.183500
4.383500 2.190100
4.402300 2.194600
4.421100 2.197300
4.440000 2.192500
4.458800 2.182200
4.477700 2.161500
4.496500 2.131100
4.515400 2.111200
4.534200 2.196300
4.553000 2.120900
4.571900 2.008000
4.590700 1.949100
4.609600 1.911400
4.628400 1.880600
4.647300 1.869300
4.666100 1.913400
4.684900 1.968900
4.703800 1.998700
4.722600 1.918700
4.741500 1.824000
4.760300 1.763400
4.779100 1.776500
4.798000 1.807500
4.816800 1.853000
4.835700 1.905800
4.854500 1.949100
4.873400 1.952800
4.892200 1.936200
4.911000 1.914500
4.929900 1.885600
4.948700 1.886300
4.967600 1.893300
4.986400 1.917400
5.005300 1.941900
5.024100 1.936300
5.042900 1.972400
5.061800 2.030300
5.080600 2.113000
5.099500 2.154000
5.118300 2.163500
5.137200 2.164800
5.156000 2.162800
5.174800 2.155500
5.193700 2.155600
5.212500 2.166300
5.231400 2.174600
5.250200 2.191700
5.269000 2.217800
5.287900 2.253000
5.306700 2.283300
5.325600 2.325200
5.344400 2.259700
5.363300 2.253600
5.382100 2.277000
5.400900 2.295500
5.419800 2.303700
5.438600 2.296600
5.457500 2.288900
5.476300 2.286900
5.495200 2.277500
5.514000 2.259600
5.532800 2.233100
5.551700 2.207000
5.570500 2.181900
5.589400 2.181200
5.608200 2.123300
5.627100 2.083500
5.645900 2.065100
5.664700 2.056900
5.683600 2.045900
5.702400 2.045400
5.721300 2.086200
5.740100 2.176600
5.758900 2.213200
5.777800 2.235800
5.796600 2.236100
5.815500 2.225000
5.834300 2.219600
5.853200 2.211900
5.872000 2.201300
5.890800 2.187200
5.909700 2.164300
5.928500 2.109000
5.947400 2.057300
5.966200 1.998300
5.985100 1.940300
6.003900 1.886300
6.022700 1.845900
6.041600 1.825200
6.060400 1.808500
6.079300 1.792200
6.098100 1.764500
6.117000 1.735200
6.135800 1.707800
6.154600 1.693700
6.173500 1.690600
6.192300 1.724700
6.211200 1.739100
6.230000 1.754700
6.248800 1.776700
6.267700 1.804800
6.286500 1.839700
6.305400 1.879700
6.324200 1.927200
6.343100 1.982200
6.361900 2.062900
6.380700 1.913800
6.399600 1.903900
6.418400 1.926100
6.437300 2.051100
6.456100 2.142500
6.475000 2.258300
6.493800 2.236000
6.512600 2.181700
6.531500 2.113400
6.550300 2.056800
6.569200 2.020700
6.588000 2.011800
6.606900 2.005300
6.625700 1.993000
6.644500 1.975200
6.663400 1.910900
6.682200 1.900500
6.701100 1.894300
6.719900 1.891800
6.738700 1.899000
6.757600 1.918000
6.776400 1.945200
6.795300 1.978200
6.814100 2.021600
6.833000 2.140200
6.851800 2.526700
6.870600 2.593100
6.889500 2.465100
6.908300 2.216800
6.927200 2.106500
6.946000 2.044600
6.964900 2.036800
6.983700 2.068200
7.002500 2.202400
7.021400 2.197000
7.040200 2.190700
7.059100 2.200100
7.077900 2.211000
7.096800 2.220700
7.115600 2.224900
7.134400 2.242100
7.153300 2.219800
7.172100 2.199500
7.191000 2.182300
7.209800 2.204800
7.228600 2.338800
7.247500 2.170200
7.266300 2.162100
7.285200 2.161800
7.304000 2.210000
7.322900 2.309900
7.341700 2.386000
7.360500 2.471300
7.379400 2.570500
7.398200 2.626900
7.417100 2.660000
7.435900 2.677700
7.454800 2.735700
7.473600 2.795500
7.492400 2.856800
7.511300 2.915000
7.530100 2.960800
7.549000 3.087300
7.567800 3.148700
7.586700 3.179000
7.605500 3.191000
7.624300 3.214200
7.643200 3.245600
7.662000 3.317800
7.680900 3.282200
7.699700 3.297200
7.718500 3.293600
7.737400 3.289100
7.756200 3.231300
7.775100 3.197400
7.793900 3.195500
7.812800 3.176400
7.831600 3.144600
7.850400 3.051700
7.869300 2.955100
7.888100 2.858300
7.907000 2.824700
7.925800 2.711200
7.944700 2.659300
7.963500 2.601500
7.982300 2.573400
8.001200 2.509400
8.020000 2.440100
8.038900 2.369700
8.057700 2.338600
8.076500 2.336200
8.095400 2.363600
8.114200 2.370300
8.133100 2.231000
8.151900 2.145000
8.170800 2.105200
8.189600 2.135200
8.208400 2.212400
8.227300 2.299400
8.246100 2.415200
8.265000 2.486700
8.283800 2.594300
8.302700 2.707100
8.321500 2.820100
8.340300 2.867400
8.359200 2.999700
8.378000 3.038600
8.396900 3.019300
8.415700 2.974700
8.434600 2.919400
8.453400 2.898500
8.472200 2.842500
8.491100 2.767200
8.509900 2.701900
8.528800 2.651500
8.547600 2.609000
8.566400 2.571800
8.585300 2.541900
8.604100 2.513600
8.623000 2.482600
8.641800 2.452200
8.660700 2.425700
8.679500 2.405800
8.698300 2.385800
8.717200 2.358600
8.736000 2.338900
8.754900 2.322100
8.773700 2.318500
8.792600 2.202700
8.811400 2.088100
8.830200 1.968000
8.849100 1.877200
8.867900 1.793200
8.886800 1.732700
8.905600 1.723000
8.924500 1.718300
8.943300 1.711600
8.962100 1.702400
8.981000 1.691900
8.999800 1.682600
9.018700 1.675900
9.037500 1.672200
9.056300 1.673500
9.075200 1.678600
9.094000 1.686600
9.112900 1.696400
9.131700 1.705900
9.150600 1.706000
9.169400 1.694300
9.188200 1.683300
9.207100 1.675200
9.225900 1.670600
9.244800 1.660200
9.263600 1.645400
9.282500 1.637000
9.301300 1.636200
9.320100 1.640200
9.339000 1.646400
9.357800 1.655000
9.376700 1.669000
9.395500 1.684600
9.414400 1.709500
9.433200 1.744000
9.452000 1.794400
9.470900 1.863100
9.489700 1.925300
9.508600 1.948800
9.527400 1.900800
9.546200 1.885500
9.565100 1.864500
9.583900 1.802200
9.602800 1.744500
9.621600 1.703200
9.640500 1.670500
9.659300 1.711700
9.678100 1.712200
9.697000 1.702700
9.715800 1.772500
9.734700 1.623900
9.753500 1.572000
9.772400 1.529800
9.791200 1.498900
9.810000 1.476200
9.828900 1.458400
9.847700 1.463100
9.866600 1.461200
9.885400 1.454600
9.904300 1.437900
9.923100 1.431800
9.941900 1.427300
9.960800 1.424900
9.979600 1.420900
9.998500 1.410800
10.017300 1.400000
10.036100 1.390100
10.055000 1.382900
10.073800 1.381700
10.092700 1.386800
10.111500 1.393600
10.130400 1.390300
