set title 'mp-2466 - Density of States'
set xlabel 'Energy (eV)'
set ylabel 'DOS (states/eV)'
set grid
set xrange [-10:10]
set yrange [0:14.065]
set xzeroaxis lt -1
set terminal png size 800,600
set output 'mp-2466_dos_gnuplot.png'
plot '-' using 1:2 with lines title 'DOS'
-23.838900 0.000000
-23.798100 0.000000
-23.757300 0.000000
-23.716500 0.000000
-23.675800 0.000000
-23.635000 0.000000
-23.594200 0.000000
-23.553400 0.000000
-23.512700 0.000000
-23.471900 0.000000
-23.431100 0.000000
-23.390300 0.000000
-23.349600 0.000000
-23.308800 0.000000
-23.268000 0.000000
-23.227200 0.000000
-23.186500 0.000000
-23.145700 0.000000
-23.104900 0.000000
-23.064100 0.000000
-23.023400 0.000000
-22.982600 0.000000
-22.941800 0.000000
-22.901000 0.000000
-22.860300 0.000000
-22.819500 0.000000
-22.778700 0.000000
-22.737900 0.000000
-22.697200 0.000000
-22.656400 0.000000
-22.615600 0.000000
-22.574800 0.000000
-22.534100 0.000000
-22.493300 0.000000
-22.452500 0.000000
-22.411800 0.000000
-22.371000 0.000000
-22.330200 0.000000
-22.289400 0.000000
-22.248700 0.000000
-22.207900 0.000000
-22.167100 0.000000
-22.126300 0.000000
-22.085600 0.000000
-22.044800 0.000000
-22.004000 0.000000
-21.963200 0.000000
-21.922500 0.000000
-21.881700 0.000000
-21.840900 0.000000
-21.800100 0.000000
-21.759400 0.000000
-21.718600 0.000000
-21.677800 0.000000
-21.637000 0.000000
-21.596300 0.000000
-21.555500 0.000000
-21.514700 0.000000
-21.473900 0.000000
-21.433200 0.000000
-21.392400 0.000000
-21.351600 0.000000
-21.310800 0.000000
-21.270100 0.000000
-21.229300 0.000000
-21.188500 0.000000
-21.147700 0.000000
-21.107000 0.000000
-21.066200 0.000000
-21.025400 0.000000
-20.984600 0.000000
-20.943900 0.000000
-20.903100 0.000000
-20.862300 0.000000
-20.821500 0.000000
-20.780800 0.000000
-20.740000 0.000000
-20.699200 0.000000
-20.658400 0.000000
-20.617700 0.000000
-20.576900 0.000000
-20.536100 0.000000
-20.495300 0.000000
-20.454600 0.000000
-20.413800 0.000000
-20.373000 0.000000
-20.332200 0.000000
-20.291500 0.000000
-20.250700 0.001700
-20.209900 0.083700
-20.169200 1.306600
-20.128400 7.099900
-20.087600 15.480700
-20.046800 20.049200
-20.006100 29.271100
-19.965300 36.335400
-19.924500 25.553000
-19.883700 9.999100
-19.843000 1.842600
-19.802200 0.124800
-19.761400 0.002700
-19.720600 0.000000
-19.679900 0.000000
-19.639100 0.000000
-19.598300 0.000000
-19.557500 0.000000
-19.516800 0.000000
-19.476000 0.000000
-19.435200 0.000000
-19.394400 0.000000
-19.353700 0.000000
-19.312900 0.000000
-19.272100 0.000000
-19.231300 0.000000
-19.190600 0.000000
-19.149800 0.000000
-19.109000 0.000000
-19.068200 0.000000
-19.027500 0.000000
-18.986700 0.000000
-18.945900 0.000000
-18.905100 0.000000
-18.864400 0.000000
-18.823600 0.000000
-18.782800 0.000000
-18.742000 0.000000
-18.701300 0.000000
-18.660500 0.000000
-18.619700 0.000000
-18.578900 0.000000
-18.538200 0.000000
-18.497400 0.000000
-18.456600 0.000000
-18.415800 0.000000
-18.375100 0.000000
-18.334300 0.000000
-18.293500 0.000000
-18.252700 0.000000
-18.212000 0.000000
-18.171200 0.000000
-18.130400 0.000000
-18.089600 0.000000
-18.048900 0.000000
-18.008100 0.000000
-17.967300 0.000000
-17.926600 0.000000
-17.885800 0.000000
-17.845000 0.000000
-17.804200 0.000000
-17.763500 0.000000
-17.722700 0.000000
-17.681900 0.000000
-17.641100 0.000000
-17.600400 0.000000
-17.559600 0.000000
-17.518800 0.000000
-17.478000 0.000000
-17.437300 0.000000
-17.396500 0.000000
-17.355700 0.000000
-17.314900 0.000000
-17.274200 0.000000
-17.233400 0.000000
-17.192600 0.000000
-17.151800 0.000000
-17.111100 0.000000
-17.070300 0.000000
-17.029500 0.000000
-16.988700 0.000000
-16.948000 0.000000
-16.907200 0.000000
-16.866400 0.000000
-16.825600 0.000000
-16.784900 0.000000
-16.744100 0.000000
-16.703300 0.000000
-16.662500 0.000000
-16.621800 0.000000
-16.581000 0.000000
-16.540200 0.000000
-16.499400 0.000000
-16.458700 0.000000
-16.417900 0.000000
-16.377100 0.000000
-16.336300 0.000000
-16.295600 0.000000
-16.254800 0.000000
-16.214000 0.000000
-16.173200 0.000000
-16.132500 0.000000
-16.091700 0.000000
-16.050900 0.000000
-16.010100 0.000000
-15.969400 0.000000
-15.928600 0.000000
-15.887800 0.000000
-15.847000 0.000000
-15.806300 0.000000
-15.765500 0.000000
-15.724700 0.000000
-15.683900 0.000000
-15.643200 0.000000
-15.602400 0.000000
-15.561600 0.000000
-15.520900 0.000000
-15.480100 0.000000
-15.439300 0.000000
-15.398500 0.000000
-15.357800 0.000000
-15.317000 0.000000
-15.276200 0.000000
-15.235400 0.000000
-15.194700 0.000000
-15.153900 0.000000
-15.113100 0.000000
-15.072300 0.000000
-15.031600 0.000000
-14.990800 0.000000
-14.950000 0.000000
-14.909200 0.000000
-14.868500 0.000000
-14.827700 0.000000
-14.786900 0.000000
-14.746100 0.000000
-14.705400 0.000000
-14.664600 0.000000
-14.623800 0.000000
-14.583000 0.000000
-14.542300 0.000000
-14.501500 0.000000
-14.460700 0.000000
-14.419900 0.000000
-14.379200 0.000000
-14.338400 0.000000
-14.297600 0.000000
-14.256800 0.000000
-14.216100 0.000000
-14.175300 0.000000
-14.134500 0.000000
-14.093700 0.000000
-14.053000 0.000000
-14.012200 0.000000
-13.971400 0.000000
-13.930600 0.000000
-13.889900 0.000000
-13.849100 0.000000
-13.808300 0.000000
-13.767500 0.000000
-13.726800 0.000000
-13.686000 0.000000
-13.645200 0.000000
-13.604400 0.000000
-13.563700 0.000000
-13.522900 0.000000
-13.482100 0.000000
-13.441300 0.000000
-13.400600 0.000000
-13.359800 0.000000
-13.319000 0.000000
-13.278300 0.000000
-13.237500 0.000000
-13.196700 0.000000
-13.155900 0.000000
-13.115200 0.000000
-13.074400 0.000000
-13.033600 0.000000
-12.992800 0.000000
-12.952100 0.000000
-12.911300 0.000000
-12.870500 0.000000
-12.829700 0.000000
-12.789000 0.000000
-12.748200 0.000000
-12.707400 0.000000
-12.666600 0.000000
-12.625900 0.000000
-12.585100 0.000000
-12.544300 0.000000
-12.503500 0.000000
-12.462800 0.000000
-12.422000 0.000000
-12.381200 0.000000
-12.340400 0.000000
-12.299700 0.000000
-12.258900 0.000000
-12.218100 0.000000
-12.177300 0.000000
-12.136600 0.000000
-12.095800 0.000000
-12.055000 0.000000
-12.014200 0.000000
-11.973500 0.000000
-11.932700 0.000000
-11.891900 0.000000
-11.851100 0.000000
-11.810400 0.000000
-11.769600 0.000000
-11.728800 0.000000
-11.688000 0.000000
-11.647300 0.000000
-11.606500 0.000000
-11.565700 0.000000
-11.524900 0.000000
-11.484200 0.000000
-11.443400 0.000000
-11.402600 0.000000
-11.361800 0.000000
-11.321100 0.000000
-11.280300 0.000000
-11.239500 0.000000
-11.198700 0.000000
-11.158000 0.000000
-11.117200 0.000000
-11.076400 0.000000
-11.035700 0.000000
-10.994900 0.000000
-10.954100 0.000000
-10.913300 0.000000
-10.872600 0.000000
-10.831800 0.000000
-10.791000 0.000000
-10.750200 0.000000
-10.709500 0.000000
-10.668700 0.000000
-10.627900 0.000000
-10.587100 0.000000
-10.546400 0.000000
-10.505600 0.000000
-10.464800 0.000000
-10.424000 0.000000
-10.383300 0.000000
-10.342500 0.000000
-10.301700 0.000000
-10.260900 0.000000
-10.220200 0.000000
-10.179400 0.000000
-10.138600 0.000000
-10.097800 0.000000
-10.057100 0.000000
-10.016300 0.000000
-9.975500 0.000000
-9.934700 0.000000
-9.894000 0.000000
-9.853200 0.000000
-9.812400 0.000000
-9.771600 0.000000
-9.730900 0.000000
-9.690100 0.000000
-9.649300 0.000000
-9.608500 0.000000
-9.567800 0.000000
-9.527000 0.000000
-9.486200 0.000000
-9.445400 0.000000
-9.404700 0.000000
-9.363900 0.000000
-9.323100 0.000000
-9.282300 0.000000
-9.241600 0.000000
-9.200800 0.000000
-9.160000 0.000000
-9.119200 0.000000
-9.078500 0.000000
-9.037700 0.000000
-8.996900 0.000000
-8.956100 0.000000
-8.915400 0.000000
-8.874600 0.000000
-8.833800 0.000000
-8.793000 0.000000
-8.752300 0.000000
-8.711500 0.000000
-8.670700 0.000000
-8.630000 0.000000
-8.589200 0.000000
-8.548400 0.000000
-8.507600 0.000000
-8.466900 0.000000
-8.426100 0.000000
-8.385300 0.000000
-8.344500 0.000000
-8.303800 0.000000
-8.263000 0.000000
-8.222200 0.000000
-8.181400 0.000000
-8.140700 0.000000
-8.099900 0.000000
-8.059100 0.000000
-8.018300 0.000000
-7.977600 0.000000
-7.936800 0.000000
-7.896000 0.000000
-7.855200 0.000000
-7.814500 0.000000
-7.773700 0.000000
-7.732900 0.000000
-7.692100 0.000000
-7.651400 0.000000
-7.610600 0.000000
-7.569800 0.000000
-7.529000 0.000000
-7.488300 0.000000
-7.447500 0.000000
-7.406700 0.000000
-7.365900 0.000000
-7.325200 0.000000
-7.284400 0.000000
-7.243600 0.000000
-7.202800 0.000000
-7.162100 0.000000
-7.121300 0.000000
-7.080500 0.000000
-7.039700 0.000000
-6.999000 0.000000
-6.958200 0.000000
-6.917400 0.000000
-6.876600 0.000000
-6.835900 0.000000
-6.795100 0.000000
-6.754300 0.000000
-6.713500 0.000000
-6.672800 0.000000
-6.632000 0.000000
-6.591200 0.000000
-6.550400 0.000000
-6.509700 0.000000
-6.468900 0.000000
-6.428100 0.000000
-6.387400 0.000000
-6.346600 0.000000
-6.305800 0.000000
-6.265000 0.000000
-6.224300 0.000000
-6.183500 0.000000
-6.142700 0.000000
-6.101900 0.000000
-6.061200 0.000000
-6.020400 0.000000
-5.979600 0.000000
-5.938800 0.000000
-5.898100 0.000000
-5.857300 0.000000
-5.816500 0.000000
-5.775700 0.000000
-5.735000 0.000000
-5.694200 0.000000
-5.653400 0.000000
-5.612600 0.000000
-5.571900 0.000000
-5.531100 0.000000
-5.490300 0.000000
-5.449500 0.000000
-5.408800 0.000000
-5.368000 0.000000
-5.327200 0.000000
-5.286400 0.000000
-5.245700 0.000000
-5.204900 0.000000
-5.164100 0.000000
-5.123300 0.000000
-5.082600 0.000000
-5.041800 0.000000
-5.001000 0.000000
-4.960200 0.000000
-4.919500 0.000000
-4.878700 0.000000
-4.837900 0.000000
-4.797100 0.000000
-4.756400 0.000000
-4.715600 0.000000
-4.674800 0.000000
-4.634000 0.000000
-4.593300 0.000000
-4.552500 0.000000
-4.511700 0.000000
-4.470900 0.000000
-4.430200 0.000000
-4.389400 0.000000
-4.348600 0.000000
-4.307800 0.000000
-4.267100 0.000000
-4.226300 0.000000
-4.185500 0.000000
-4.144800 0.000000
-4.104000 0.000000
-4.063200 0.000000
-4.022400 0.000000
-3.981700 0.000000
-3.940900 0.000000
-3.900100 0.000000
-3.859300 0.000000
-3.818600 0.000000
-3.777800 0.000000
-3.737000 0.000000
-3.696200 0.000000
-3.655500 0.000000
-3.614700 0.000400
-3.573900 0.004800
-3.533100 0.019800
-3.492400 0.031800
-3.451600 0.048400
-3.410800 0.083700
-3.370000 0.148000
-3.329300 0.187400
-3.288500 0.121000
-3.247700 0.040200
-3.206900 0.064600
-3.166200 0.190700
-3.125400 0.259800
-3.084600 0.206700
-3.043800 0.177900
-3.003100 0.249700
-2.962300 0.322000
-2.921500 0.213200
-2.880700 0.130000
-2.840000 0.124500
-2.799200 0.279400
-2.758400 0.393900
-2.717600 0.280800
-2.676900 0.218000
-2.636100 0.258900
-2.595300 0.340900
-2.554500 0.309000
-2.513800 0.231600
-2.473000 0.376600
-2.432200 0.573000
-2.391400 0.586300
-2.350700 0.559900
-2.309900 0.359400
-2.269100 0.123700
-2.228300 0.160700
-2.187600 0.308900
-2.146800 0.428600
-2.106000 0.520600
-2.065200 0.622300
-2.024500 0.635600
-1.983700 0.607600
-1.942900 0.712700
-1.902100 0.709600
-1.861400 0.708900
-1.820600 0.849200
-1.779800 0.787900
-1.739100 0.590800
-1.698300 0.540600
-1.657500 0.642700
-1.616700 1.124100
-1.576000 1.880600
-1.535200 1.970500
-1.494400 1.695100
-1.453600 1.600200
-1.412900 1.829600
-1.372100 2.492300
-1.331300 3.334600
-1.290500 3.708800
-1.249800 3.408400
-1.209000 3.619400
-1.168200 5.091400
-1.127400 6.438700
-1.086700 6.712300
-1.045900 6.742400
-1.005100 6.713700
-0.964300 6.498300
-0.923600 6.590300
-0.882800 6.789700
-0.842000 6.116100
-0.801200 5.966400
-0.760500 7.132700
-0.719700 8.162600
-0.678900 9.345900
-0.638100 11.151700
-0.597400 11.362800
-0.556600 9.733700
-0.515800 8.445900
-0.475000 8.637600
-0.434300 9.447100
-0.393500 9.963400
-0.352700 10.291100
-0.311900 10.150900
-0.271200 9.387700
-0.230400 8.257200
-0.189600 7.178000
-0.148800 6.559300
-0.108100 5.891500
-0.067300 4.255900
-0.026500 3.077000
0.014300 3.952700
0.055000 4.934000
0.095800 3.834000
0.136600 2.684400
0.177400 2.585700
0.218100 3.160300
0.258900 4.216500
0.299700 4.667800
0.340500 5.027700
0.381200 6.619700
0.422000 9.336700
0.462800 10.976200
0.503500 11.853800
0.544300 12.786600
0.585100 11.209800
0.625900 8.730900
0.666600 7.552900
0.707400 7.280000
0.748200 6.387900
0.789000 6.175100
0.829700 6.159700
0.870500 6.196900
0.911300 7.075000
0.952100 8.324700
0.992800 8.580300
1.033600 8.133100
1.074400 8.641000
1.115200 9.159800
1.155900 8.481100
1.196700 7.434700
1.237500 6.561400
1.278300 5.911500
1.319000 5.543600
1.359800 4.925400
1.400600 4.699600
1.441400 4.454700
1.482100 3.543300
1.522900 2.822400
1.563700 2.288200
1.604500 2.112000
1.645200 2.273600
1.686000 2.350100
1.726800 2.452600
1.767600 2.727600
1.808300 2.940600
1.849100 3.115200
1.889900 3.004400
1.930700 2.376100
1.971400 1.601000
2.012200 1.124700
2.053000 0.659000
2.093800 0.602100
2.134500 0.952300
2.175300 1.286200
2.216100 1.331400
2.256900 1.347700
2.297600 1.151000
2.338400 1.084200
2.379200 1.476100
2.420000 1.504100
2.460700 1.289600
2.501500 1.200100
2.542300 1.109900
2.583100 1.044800
2.623800 1.195100
2.664600 1.423200
2.705400 0.929100
2.746100 0.682400
2.786900 0.808300
2.827700 1.074400
2.868500 1.370300
2.909200 1.304500
2.950000 0.901900
2.990800 0.646400
3.031600 0.679800
3.072300 0.883400
3.113100 1.197400
3.153900 1.216200
3.194700 0.845900
3.235400 0.594800
3.276200 0.597500
3.317000 0.817400
3.357800 1.049700
3.398500 1.003300
3.439300 0.857600
3.480100 0.905300
3.520900 0.813700
3.561600 0.538500
3.602400 0.544600
3.643200 0.707700
3.684000 0.776500
3.724700 0.929600
3.765500 0.911100
3.806300 1.171400
3.847100 1.462100
3.887800 1.302500
3.928600 1.321300
3.969400 1.272300
4.010200 1.108300
4.050900 1.233500
4.091700 1.245800
4.132500 0.915700
4.173300 0.895900
4.214000 1.340900
4.254800 1.473600
4.295600 1.147100
4.336400 0.821800
4.377100 0.715000
4.417900 1.199600
4.458700 1.592200
4.499500 1.328900
4.540200 0.988400
4.581000 0.637400
4.621800 0.345200
4.662600 0.442100
4.703300 0.784200
4.744100 1.273600
4.784900 1.523800
4.825700 1.158500
4.866400 0.997800
4.907200 1.409500
4.948000 1.599500
4.988800 1.233100
5.029500 0.981500
5.070300 0.685600
5.111100 0.765600
5.151800 1.056800
5.192600 1.123100
5.233400 0.946900
5.274200 0.686000
5.314900 0.627900
5.355700 0.602700
5.396500 0.607200
5.437300 0.925600
5.478000 1.302300
5.518800 1.000200
5.559600 0.515700
5.600400 0.441100
5.641100 0.470600
5.681900 0.498000
5.722700 0.630100
5.763500 0.689100
5.804200 0.870100
5.845000 1.236400
5.885800 1.605500
5.926600 1.836000
5.967300 1.630500
6.008100 1.386500
6.048900 1.467000
6.089700 1.550000
6.130400 1.820800
6.171200 2.686000
6.212000 2.972400
6.252800 2.662300
6.293500 2.793900
6.334300 2.554600
6.375100 1.866400
6.415900 1.562000
6.456600 1.602900
6.497400 1.912000
6.538200 2.274300
6.579000 2.296000
6.619700 2.187500
6.660500 1.821900
6.701300 1.494800
6.742100 1.824500
6.782800 2.485800
6.823600 2.957600
6.864400 2.918700
6.905200 2.459800
6.945900 2.068500
6.986700 1.298000
7.027500 0.922400
7.068300 1.595300
7.109000 3.063500
7.149800 4.342500
7.190600 4.718600
7.231400 4.105900
7.272100 3.673400
7.312900 3.594000
7.353700 3.369900
7.394400 3.442400
7.435200 3.503100
7.476000 3.328400
7.516800 2.824300
7.557500 2.842500
7.598300 2.843800
7.639100 3.009400
7.679900 3.358200
7.720600 3.124500
7.761400 3.286100
7.802200 3.894600
7.843000 3.958000
7.883700 3.489000
7.924500 2.782700
7.965300 2.715900
8.006100 2.660000
8.046800 2.006700
8.087600 1.944600
8.128400 2.345200
8.169200 2.182800
8.209900 1.695300
8.250700 1.485100
8.291500 1.568800
8.332300 1.440800
8.373000 1.087600
8.413800 1.164400
8.454600 1.441900
8.495400 1.720800
8.536100 1.673700
8.576900 1.260900
8.617700 1.526100
8.658500 2.292900
8.699200 2.186900
8.740000 1.916900
8.780800 2.240500
8.821600 2.194200
8.862300 2.088900
8.903100 2.119100
8.943900 2.114300
8.984700 2.586000
9.025400 2.978800
9.066200 2.425400
9.107000 1.723400
9.147800 1.621100
9.188500 1.933300
9.229300 2.092000
9.270100 1.724000
9.310900 1.070300
9.351600 0.765200
9.392400 0.704000
9.433200 0.597100
9.474000 0.839500
9.514700 0.946000
9.555500 0.578300
9.596300 0.293100
9.637000 0.130300
9.677800 0.104600
9.718600 0.328100
9.759400 0.654400
9.800100 0.785800
9.840900 0.759100
9.881700 0.742600
9.922500 0.847800
9.963200 1.145000
10.004000 1.411400
10.044800 1.976100
10.085600 2.279500
10.126300 1.600500
10.167100 1.255000
10.207900 2.131900
10.248700 2.676300
10.289400 2.082700
10.330200 1.801000
10.371000 1.938700
10.411800 1.950800
10.452500 1.779700
10.493300 1.571400
10.534100 1.358900
10.574900 1.268200
10.615600 1.181800
10.656400 1.169500
10.697200 1.192600
10.738000 1.048700
10.778700 1.026000
10.819500 1.195400
10.860300 1.063100
10.901100 0.987500
10.941800 1.227200
10.982600 1.475000
11.023400 1.523500
11.064200 1.326500
11.104900 1.572900
11.145700 1.903400
11.186500 1.605300
11.227300 1.108700
11.268000 1.156900
11.308800 1.683500
11.349600 1.793800
11.390400 1.465000
11.431100 1.322500
11.471900 1.389400
11.512700 1.876600
11.553500 2.114100
11.594200 1.753800
11.635000 1.599800
11.675800 1.396900
11.716600 1.267900
11.757300 1.425100
11.798100 1.409800
11.838900 0.836500
11.879700 0.502600
11.920400 0.853400
11.961200 1.170700
12.002000 1.080000
12.042700 1.455100
12.083500 1.979700
12.124300 1.999400
12.165100 1.864600
12.205800 1.604500
12.246600 1.242900
12.287400 1.022000
12.328200 0.811400
12.368900 0.593400
12.409700 0.680300
12.450500 0.892600
12.491300 1.087600
12.532000 1.239300
12.572800 1.187000
12.613600 1.208100
12.654400 1.506400
12.695100 1.964600
12.735900 2.046900
12.776700 1.921400
12.817500 2.082900
12.858200 2.111300
12.899000 1.976000
12.939800 2.317800
12.980600 2.705900
13.021300 2.499400
13.062100 2.592600
13.102900 2.392100
13.143700 1.886300
13.184400 1.760900
13.225200 1.582200
13.266000 1.478600
13.306800 1.698500
13.347500 1.570900
13.388300 1.405900
13.429100 1.691800
13.469900 1.711100
13.510600 1.357500
13.551400 1.357600
13.592200 1.555900
13.633000 1.543600
13.673700 1.382400
13.714500 1.307900
13.755300 1.308600
13.796100 0.948400
13.836800 0.983100
13.877600 1.506800
13.918400 1.615800
13.959200 1.615600
13.999900 1.631700
14.040700 1.429200
14.081500 1.477200
14.122300 1.815300
14.163000 1.586500
14.203800 1.516700
14.244600 2.163500
14.285300 2.567400
14.326100 2.276700
14.366900 1.658300
14.407700 1.594100
14.448400 1.896300
14.489200 1.940300
14.530000 2.022200
14.570800 1.764700
14.611500 1.348700
14.652300 1.536700
14.693100 1.480800
14.733900 0.946000
14.774600 0.803800
14.815400 1.028100
14.856200 1.129800
14.897000 1.179600
14.937700 1.548000
14.978500 1.591900
15.019300 1.280400
15.060100 1.023900
15.100800 0.955900
15.141600 1.247300
15.182400 2.107600
15.223200 2.708300
15.263900 2.560800
15.304700 2.331800
15.345500 2.148000
15.386300 2.082900
15.427000 2.132400
15.467800 2.126100
15.508600 2.541600
15.549400 2.639800
15.590100 2.371800
15.630900 2.415900
15.671700 1.965300
15.712500 1.402600
15.753200 1.469100
15.794000 1.723500
15.834800 1.472800
15.875600 1.256200
15.916300 1.405700
15.957100 1.711000
15.997900 2.093100
16.038700 2.118900
16.079400 1.602400
16.120200 1.178900
16.161000 1.290400
16.201800 1.543400
16.242500 1.599400
16.283300 1.873000
16.324100 2.517500
16.364900 2.939100
16.405600 2.529200
16.446400 2.077800
16.487200 2.073400
16.527900 2.003500
16.568700 1.813600
16.609500 1.883600
16.650300 2.168300
16.691000 2.200300
16.731800 1.997200
16.772600 1.899900
16.813400 2.020100
16.854100 2.012400
16.894900 1.813000
16.935700 1.825000
16.976500 1.870000
17.017200 2.232200
17.058000 2.614400
17.098800 2.051700
17.139600 1.777900
17.180300 2.532200
17.221100 3.007100
17.261900 2.357800
17.302700 1.822900
17.343400 2.174200
17.384200 2.684000
17.425000 2.696000
17.465800 2.021300
17.506500 1.563300
17.547300 1.823800
17.588100 1.752200
17.628900 1.558100
17.669600 1.737800
17.710400 1.932600
17.751200 2.044700
17.792000 2.487600
17.832700 2.333800
17.873500 1.914300
17.914300 1.746700
17.955100 1.601800
17.995800 1.723100
18.036600 2.013200
18.077400 2.123400
18.118200 2.082100
18.158900 1.846100
18.199700 1.724600
