set title 'mp-541180 - Density of States'
set xlabel 'Energy (eV)'
set ylabel 'DOS (states/eV)'
set grid
set xrange [-10:10]
set yrange [0:44.823]
set xzeroaxis lt -1
set terminal png size 800,600
set output 'mp-541180_dos_gnuplot.png'
plot '-' using 1:2 with lines title 'DOS'
-7.761100 0.000000
-7.747700 0.000000
-7.734400 0.000000
-7.721100 0.000000
-7.707700 0.000000
-7.694400 0.000000
-7.681000 0.000000
-7.667700 0.000000
-7.654300 0.000000
-7.641000 0.000000
-7.627700 0.000000
-7.614300 0.000000
-7.601000 0.000000
-7.587600 0.000000
-7.574300 0.000000
-7.561000 0.000000
-7.547600 0.000000
-7.534300 0.000000
-7.520900 0.000000
-7.507600 0.000000
-7.494300 0.000000
-7.480900 0.000000
-7.467600 0.000000
-7.454200 0.000000
-7.440900 0.000000
-7.427500 0.000000
-7.414200 0.000000
-7.400900 0.000000
-7.387500 0.000000
-7.374200 0.000000
-7.360800 0.000000
-7.347500 0.000000
-7.334200 0.000000
-7.320800 0.000000
-7.307500 0.000000
-7.294100 0.000000
-7.280800 0.000000
-7.267400 0.000000
-7.254100 0.000000
-7.240800 0.000000
-7.227400 0.000000
-7.214100 0.000000
-7.200700 0.000000
-7.187400 0.000000
-7.174100 0.000000
-7.160700 0.000000
-7.147400 0.000000
-7.134000 0.000000
-7.120700 0.000000
-7.107400 0.000000
-7.094000 0.000000
-7.080700 0.000000
-7.067300 0.000000
-7.054000 0.000000
-7.040600 0.000000
-7.027300 0.000000
-7.014000 0.000000
-7.000600 0.000000
-6.987300 0.000000
-6.973900 0.000000
-6.960600 0.000000
-6.947300 0.000000
-6.933900 0.000000
-6.920600 0.000000
-6.907200 0.000000
-6.893900 0.000000
-6.880500 0.000000
-6.867200 0.000000
-6.853900 0.000000
-6.840500 0.000000
-6.827200 0.000000
-6.813800 0.000000
-6.800500 0.000000
-6.787200 0.000000
-6.773800 0.000000
-6.760500 0.000000
-6.747100 0.000000
-6.733800 0.000000
-6.720500 0.000000
-6.707100 0.000000
-6.693800 0.000000
-6.680400 0.000000
-6.667100 0.000000
-6.653700 0.000000
-6.640400 0.000000
-6.627100 0.000000
-6.613700 0.000000
-6.600400 0.000000
-6.587000 0.000000
-6.573700 0.000000
-6.560400 0.000000
-6.547000 0.000800
-6.533700 0.058300
-6.520300 0.134000
-6.507000 0.209800
-6.493600 0.285500
-6.480300 0.361200
-6.467000 0.436900
-6.453600 0.512700
-6.440300 0.588400
-6.426900 0.664100
-6.413600 0.739800
-6.400300 0.815600
-6.386900 0.891300
-6.373600 0.967000
-6.360200 1.042700
-6.346900 1.118500
-6.333600 0.775000
-6.320200 0.638400
-6.306900 0.646400
-6.293500 0.654400
-6.280200 0.662300
-6.266800 0.670300
-6.253500 0.678300
-6.240200 0.686300
-6.226800 0.694200
-6.213500 0.702200
-6.200100 0.710200
-6.186800 0.718200
-6.173500 0.726100
-6.160100 0.745100
-6.146800 0.785900
-6.133400 0.841100
-6.120100 0.912100
-6.106700 1.000800
-6.093400 1.090200
-6.080100 1.179600
-6.066700 1.269000
-6.053400 1.358400
-6.040000 1.447800
-6.026700 1.537300
-6.013400 1.626700
-6.000000 1.716100
-5.986700 1.805500
-5.973300 1.894800
-5.960000 1.803900
-5.946600 1.763700
-5.933300 1.711100
-5.920000 1.609200
-5.906600 1.554200
-5.893300 1.562900
-5.879900 1.571700
-5.866600 1.580400
-5.853300 1.589200
-5.839900 1.597900
-5.826600 1.606700
-5.813200 1.615400
-5.799900 1.624200
-5.786600 1.632900
-5.773200 1.641700
-5.759900 1.654800
-5.746500 1.684100
-5.733200 1.731400
-5.719800 1.787900
-5.706500 1.852000
-5.693200 1.923600
-5.679800 2.002800
-5.666500 2.089600
-5.653100 2.184000
-5.639800 2.286100
-5.626500 2.403700
-5.613100 2.525700
-5.599800 2.647400
-5.586400 2.704500
-5.573100 2.726500
-5.559700 2.766000
-5.546400 2.804900
-5.533100 2.841100
-5.519700 2.873900
-5.506400 2.900700
-5.493000 2.921400
-5.479700 2.929600
-5.466400 2.918400
-5.453000 2.854200
-5.439700 2.872900
-5.426300 2.898900
-5.413000 2.925800
-5.399700 2.953400
-5.386300 2.982200
-5.373000 3.012300
-5.359600 3.042500
-5.346300 3.072700
-5.332900 3.103000
-5.319600 3.133200
-5.306300 3.163400
-5.292900 3.253600
-5.279600 3.330500
-5.266200 3.384300
-5.252900 3.438300
-5.239600 3.492600
-5.226200 3.571500
-5.212900 3.688300
-5.199500 3.820200
-5.186200 3.967400
-5.172800 4.130100
-5.159500 4.306600
-5.146200 4.492600
-5.132800 4.680800
-5.119500 4.747600
-5.106100 4.848700
-5.092800 4.963600
-5.079500 5.088800
-5.066100 5.231500
-5.052800 6.243000
-5.039400 6.299500
-5.026100 6.378900
-5.012800 6.488400
-4.999400 6.579500
-4.986100 6.667000
-4.972700 6.764700
-4.959400 6.823200
-4.946000 6.755100
-4.932700 6.775200
-4.919400 6.826800
-4.906000 6.878000
-4.892700 6.929800
-4.879300 6.982000
-4.866000 7.043400
-4.852700 7.135000
-4.839300 7.600300
-4.826000 7.887400
-4.812600 8.085600
-4.799300 8.356800
-4.785900 9.870000
-4.772600 11.595800
-4.759300 13.352600
-4.745900 7.314200
-4.732600 7.382700
-4.719200 7.474300
-4.705900 7.474000
-4.692600 7.472000
-4.679200 7.483900
-4.665900 7.965200
-4.652500 9.238900
-4.639200 10.287100
-4.625900 12.121800
-4.612500 7.229600
-4.599200 6.326700
-4.585800 6.394000
-4.572500 6.630600
-4.559100 7.008500
-4.545800 8.237400
-4.532500 11.668200
-4.519100 12.105800
-4.505800 11.197100
-4.492400 10.443000
-4.479100 10.767100
-4.465800 8.987000
-4.452400 8.299800
-4.439100 8.872800
-4.425700 9.524500
-4.412400 11.560900
-4.399000 14.015300
-4.385700 19.043900
-4.372400 22.635500
-4.359000 17.375500
-4.345700 13.025500
-4.332300 11.340000
-4.319000 9.310800
-4.305700 5.687700
-4.292300 3.057300
-4.279000 7.079900
-4.265600 14.319700
-4.252300 8.366700
-4.239000 6.852100
-4.225600 6.459600
-4.212300 6.070300
-4.198900 5.684300
-4.185600 5.301600
-4.172200 4.922200
-4.158900 4.334400
-4.145600 3.679400
-4.132200 3.201300
-4.118900 3.167900
-4.105500 3.134600
-4.092200 3.101400
-4.078900 3.068300
-4.065500 3.035400
-4.052200 3.002600
-4.038800 2.969900
-4.025500 2.943400
-4.012100 2.966900
-3.998800 3.024400
-3.985500 3.113900
-3.972100 3.191500
-3.958800 3.205300
-3.945400 3.171600
-3.932100 3.080000
-3.918800 2.975300
-3.905400 2.870400
-3.892100 2.765200
-3.878700 3.296700
-3.865400 3.057100
-3.852100 2.566000
-3.838700 2.153700
-3.825400 1.526500
-3.812000 0.812400
-3.798700 0.286200
-3.785300 0.005300
-3.772000 0.000000
-3.758700 0.000000
-3.745300 0.000000
-3.732000 0.000000
-3.718600 0.000000
-3.705300 0.000000
-3.692000 0.000000
-3.678600 0.000000
-3.665300 0.000000
-3.651900 0.000000
-3.638600 0.000000
-3.625200 0.000000
-3.611900 0.000000
-3.598600 0.000000
-3.585200 0.000000
-3.571900 0.000000
-3.558500 0.000000
-3.545200 0.000000
-3.531900 0.000000
-3.518500 0.000000
-3.505200 0.000000
-3.491800 0.000000
-3.478500 0.000000
-3.465200 0.000000
-3.451800 0.000000
-3.438500 0.000000
-3.425100 0.000000
-3.411800 0.000000
-3.398400 0.000000
-3.385100 0.000000
-3.371800 0.000000
-3.358400 0.000000
-3.345100 0.000000
-3.331700 0.000000
-3.318400 0.000000
-3.305100 0.000000
-3.291700 0.000000
-3.278400 0.000000
-3.265000 0.000000
-3.251700 0.000000
-3.238300 0.000000
-3.225000 0.000000
-3.211700 0.000000
-3.198300 0.000000
-3.185000 0.000000
-3.171600 0.000000
-3.158300 0.000000
-3.145000 0.000000
-3.131600 0.000000
-3.118300 0.000000
-3.104900 0.000000
-3.091600 0.000000
-3.078300 0.000000
-3.064900 0.000000
-3.051600 0.000000
-3.038200 0.000000
-3.024900 0.000000
-3.011500 0.000000
-2.998200 0.000000
-2.984900 0.000000
-2.971500 0.000000
-2.958200 0.000000
-2.944800 0.000000
-2.931500 0.000000
-2.918200 0.000000
-2.904800 0.000000
-2.891500 0.000000
-2.878100 0.000000
-2.864800 0.000000
-2.851400 0.000000
-2.838100 0.000000
-2.824800 0.000000
-2.811400 0.000000
-2.798100 0.000000
-2.784700 0.000000
-2.771400 0.000000
-2.758100 0.000000
-2.744700 0.000000
-2.731400 0.000000
-2.718000 0.000000
-2.704700 0.000000
-2.691400 0.000000
-2.678000 0.000000
-2.664700 0.000000
-2.651300 0.000000
-2.638000 0.000000
-2.624600 0.000000
-2.611300 0.000000
-2.598000 0.000000
-2.584600 0.000000
-2.571300 0.000000
-2.557900 0.000000
-2.544600 0.000000
-2.531300 0.000000
-2.517900 0.000000
-2.504600 0.000000
-2.491200 0.000000
-2.477900 0.000000
-2.464500 0.000000
-2.451200 0.000000
-2.437900 0.000000
-2.424500 0.000000
-2.411200 0.000000
-2.397800 0.000000
-2.384500 0.000000
-2.371200 0.000000
-2.357800 0.000000
-2.344500 0.000000
-2.331100 0.000000
-2.317800 0.000000
-2.304500 0.000000
-2.291100 0.000000
-2.277800 0.000000
-2.264400 0.000000
-2.251100 0.000000
-2.237700 0.000000
-2.224400 0.000000
-2.211100 0.000000
-2.197700 0.000000
-2.184400 0.000000
-2.171000 0.000000
-2.157700 0.000000
-2.144400 0.000000
-2.131000 0.000000
-2.117700 0.000000
-2.104300 0.000000
-2.091000 0.000000
-2.077600 0.000000
-2.064300 0.000000
-2.051000 0.000000
-2.037600 0.000000
-2.024300 0.000000
-2.010900 0.000000
-1.997600 0.000000
-1.984300 0.000000
-1.970900 0.000000
-1.957600 0.000000
-1.944200 0.000000
-1.930900 0.000000
-1.917600 0.000000
-1.904200 0.000000
-1.890900 0.000000
-1.877500 0.000000
-1.864200 0.000000
-1.850800 0.000000
-1.837500 0.000000
-1.824200 0.000000
-1.810800 0.000000
-1.797500 0.000000
-1.784100 0.000000
-1.770800 0.000000
-1.757500 0.000000
-1.744100 0.000000
-1.730800 0.000000
-1.717400 0.000000
-1.704100 0.000000
-1.690700 0.000000
-1.677400 0.000000
-1.664100 0.000000
-1.650700 0.000000
-1.637400 0.000000
-1.624000 0.000000
-1.610700 0.000000
-1.597400 0.000000
-1.584000 0.000000
-1.570700 0.000000
-1.557300 0.000000
-1.544000 0.000000
-1.530700 0.000000
-1.517300 0.000000
-1.504000 0.000000
-1.490600 0.000000
-1.477300 0.000000
-1.463900 0.000000
-1.450600 0.000000
-1.437300 0.000000
-1.423900 0.000000
-1.410600 0.000000
-1.397200 0.000000
-1.383900 0.000000
-1.370600 0.000000
-1.357200 0.000000
-1.343900 0.000000
-1.330500 0.000000
-1.317200 0.000000
-1.303800 0.000000
-1.290500 0.000000
-1.277200 0.000000
-1.263800 0.000000
-1.250500 0.000000
-1.237100 0.000000
-1.223800 0.000000
-1.210500 0.000000
-1.197100 0.000000
-1.183800 0.000000
-1.170400 0.000000
-1.157100 0.000000
-1.143800 0.000000
-1.130400 0.000000
-1.117100 0.000000
-1.103700 0.000000
-1.090400 0.000000
-1.077000 0.000000
-1.063700 0.000000
-1.050400 0.000000
-1.037000 0.000000
-1.023700 0.000000
-1.010300 0.000000
-0.997000 0.000000
-0.983700 0.000000
-0.970300 0.000000
-0.957000 0.000000
-0.943600 0.000000
-0.930300 0.000000
-0.916900 0.000000
-0.903600 0.000000
-0.890300 0.000000
-0.876900 0.000000
-0.863600 0.000000
-0.850200 0.000000
-0.836900 0.000000
-0.823600 0.000000
-0.810200 0.000000
-0.796900 0.000000
-0.783500 0.000000
-0.770200 0.000000
-0.756900 0.000000
-0.743500 0.000000
-0.730200 0.000000
-0.716800 0.000000
-0.703500 0.000000
-0.690100 0.000000
-0.676800 0.000000
-0.663500 0.000000
-0.650100 0.000000
-0.636800 0.000000
-0.623400 0.000000
-0.610100 0.000000
-0.596800 0.000000
-0.583400 0.000000
-0.570100 0.000000
-0.556700 0.000000
-0.543400 0.000000
-0.530000 0.000000
-0.516700 0.000000
-0.503400 0.000000
-0.490000 0.000000
-0.476700 0.000000
-0.463300 0.000000
-0.450000 0.000000
-0.436700 0.000000
-0.423300 0.000000
-0.410000 0.000000
-0.396600 0.000000
-0.383300 0.000000
-0.370000 0.000000
-0.356600 0.000000
-0.343300 0.000000
-0.329900 0.000000
-0.316600 0.000000
-0.303200 0.000000
-0.289900 0.000000
-0.276600 0.000000
-0.263200 0.000000
-0.249900 0.000000
-0.236500 0.000000
-0.223200 0.000000
-0.209900 0.000000
-0.196500 0.000000
-0.183200 0.000000
-0.169800 0.000000
-0.156500 0.000000
-0.143100 0.000000
-0.129800 0.000000
-0.116500 0.000000
-0.103100 0.000000
-0.089800 0.000000
-0.076400 0.000000
-0.063100 0.000000
-0.049800 0.000000
-0.036400 0.000000
-0.023100 0.000000
-0.009700 0.000000
0.003600 0.000000
0.017000 0.000000
0.030300 0.000000
0.043600 0.000000
0.057000 0.000000
0.070300 0.000000
0.083700 0.000000
0.097000 0.000000
0.110300 0.000000
0.123700 0.000000
0.137000 0.000000
0.150400 0.000000
0.163700 0.000000
0.177000 0.000000
0.190400 0.000000
0.203700 0.000000
0.217100 0.000000
0.230400 0.000000
0.243800 0.000000
0.257100 0.000000
0.270400 0.000000
0.283800 0.000000
0.297100 0.000000
0.310500 0.000000
0.323800 0.000000
0.337100 0.000000
0.350500 0.000000
0.363800 0.000000
0.377200 0.000000
0.390500 0.902800
0.403900 1.884300
0.417200 2.682400
0.430500 2.385300
0.443900 2.086600
0.457200 1.786500
0.470600 1.491400
0.483900 1.359000
0.497200 1.413100
0.510600 1.473100
0.523900 1.533100
0.537300 1.593100
0.550600 1.653200
0.563900 1.713200
0.577300 1.773200
0.590600 1.833200
0.604000 1.893200
0.617300 5.187500
0.630700 4.860400
0.644000 5.093100
0.657300 5.101200
0.670700 5.074300
0.684000 4.484700
0.697400 4.488400
0.710700 4.664800
0.724000 4.999100
0.737400 5.558700
0.750700 6.149900
0.764100 6.782200
0.777400 7.938800
0.790800 8.213200
0.804100 8.095400
0.817400 10.850400
0.830800 11.608400
0.844100 18.735900
0.857500 7.244200
0.870800 7.619000
0.884100 8.045100
0.897500 8.685200
0.910800 10.217400
0.924200 12.000000
0.937500 13.725500
0.950800 17.715300
0.964200 9.244000
0.977500 9.418800
0.990900 9.010600
1.004200 8.459500
1.017600 7.910400
1.030900 7.363100
1.044200 6.818400
1.057600 6.314600
1.070900 5.873000
1.084300 5.876100
1.097600 7.551000
1.110900 7.570200
1.124300 7.428400
1.137600 7.178400
1.151000 7.482800
1.164300 7.534500
1.177700 6.749500
1.191000 6.285700
1.204300 5.740300
1.217700 5.308300
1.231000 5.037100
1.244400 4.891400
1.257700 4.635100
1.271000 4.262600
1.284400 3.900800
1.297700 16.017500
1.311100 9.404000
1.324400 14.008900
1.337700 17.062600
1.351100 10.636800
1.364400 9.803100
1.377800 9.145600
1.391100 8.504600
1.404500 7.967100
1.417800 9.427200
1.431100 8.136200
1.444500 6.298900
1.457800 5.288200
1.471200 4.772000
1.484500 4.418500
1.497800 4.124900
1.511200 3.801300
1.524500 4.353400
1.537900 7.185900
1.551200 11.813500
1.564600 15.100600
1.577900 16.744900
1.591200 20.308800
1.604600 7.045200
1.617900 7.278400
1.631300 7.621700
1.644600 8.064100
1.657900 9.714700
1.671300 10.729800
1.684600 11.369400
1.698000 11.805700
1.711300 7.349500
1.724600 7.612900
1.738000 8.500400
1.751300 10.169000
1.764700 13.556800
1.778000 12.494000
1.791400 13.179500
1.804700 18.698900
1.818000 20.077800
1.831400 15.478100
1.844700 14.961700
1.858100 15.886400
1.871400 17.987300
1.884700 23.976200
1.898100 15.995300
1.911400 13.700700
1.924800 12.992800
1.938100 13.393100
1.951500 13.781000
1.964800 12.746800
1.978100 9.889300
1.991500 10.788500
2.004800 11.750900
2.018200 12.522800
2.031500 13.249400
2.044800 13.541700
2.058200 14.162800
2.071500 14.915500
2.084900 15.600200
2.098200 16.060300
2.111500 16.015000
2.124900 17.039200
2.138200 18.493900
2.151600 20.199600
2.164900 17.759900
2.178300 15.648000
2.191600 15.143100
2.204900 15.119100
2.218300 15.541000
2.231600 16.153400
2.245000 14.719600
2.258300 12.868400
2.271600 11.265500
2.285000 10.312300
2.298300 10.346300
2.311700 10.293200
2.325000 10.411400
2.338400 11.586900
2.351700 16.242700
2.365000 18.748200
2.378400 17.111700
2.391700 13.579600
2.405100 10.491600
2.418400 9.448800
2.431700 8.573300
2.445100 7.149000
2.458400 6.111600
2.471800 10.040000
2.485100 8.935500
2.498400 7.853200
2.511800 7.099600
2.525100 6.565300
2.538500 6.058400
2.551800 8.121600
2.565200 8.170400
2.578500 8.715400
2.591800 9.788900
2.605200 10.161400
2.618500 8.524100
2.631900 7.702500
2.645200 7.144300
2.658500 7.391800
2.671900 7.777300
2.685200 7.548400
2.698600 7.229000
2.711900 7.000800
2.725300 7.440200
2.738600 8.201100
2.751900 9.691600
2.765300 13.772500
2.778600 13.756200
2.792000 11.361000
2.805300 10.865100
2.818600 10.641200
2.832000 10.231500
2.845300 9.779500
2.858700 10.482000
2.872000 14.239000
2.885300 4.899000
2.898700 5.301400
2.912000 11.757300
2.925400 25.181400
2.938700 23.259700
2.952100 17.220300
2.965400 14.566200
2.978700 14.924400
2.992100 19.713800
3.005400 24.171000
3.018800 20.746900
3.032100 16.421800
3.045400 17.650100
3.058800 14.644100
3.072100 14.833800
3.085500 15.620200
3.098800 16.828700
3.112200 18.070300
3.125500 19.209400
3.138800 14.292400
3.152200 14.966800
3.165500 16.114200
3.178900 17.248800
3.192200 18.298000
3.205500 18.888300
3.218900 19.510400
3.232200 18.192900
3.245600 17.460900
3.258900 16.556900
3.272200 15.599400
3.285600 14.992900
3.298900 18.088100
3.312300 13.311500
3.325600 13.170200
3.339000 12.629800
3.352300 11.631500
3.365600 10.549200
3.379000 9.457100
3.392300 8.418400
3.405700 7.541300
3.419000 6.999900
3.432300 7.027800
3.445700 9.618600
3.459000 16.689500
3.472400 23.233000
3.485700 9.774500
3.499100 9.798600
3.512400 6.983400
3.525700 6.929400
3.539100 6.875800
3.552400 6.832800
3.565800 9.214800
3.579100 3.772200
3.592400 1.287700
3.605800 1.778300
3.619100 2.268800
3.632500 2.759200
3.645800 3.249600
3.659100 7.631000
3.672500 9.311100
3.685800 15.481900
3.699200 17.543300
3.712500 19.604500
3.725900 20.242100
3.739200 20.638700
3.752500 20.034300
3.765900 19.085400
3.779200 19.252600
3.792600 21.218000
3.805900 28.125700
3.819200 40.748100
3.832600 31.941400
3.845900 14.929100
3.859300 10.705900
3.872600 10.042700
3.886000 9.883800
3.899300 9.864900
3.912600 10.052800
3.926000 9.104300
3.939300 8.265500
3.952700 8.001500
3.966000 7.738600
3.979300 7.306900
3.992700 7.000600
4.006000 7.142200
4.019400 7.550200
4.032700 6.458000
4.046000 7.212400
4.059400 8.065500
4.072700 8.122100
4.086100 7.917800
4.099400 9.317000
4.112800 9.554700
4.126100 10.216400
4.139400 9.137600
4.152800 10.686500
4.166100 14.786700
4.179500 13.606400
4.192800 8.395000
4.206100 7.853300
4.219500 7.444100
4.232800 7.140700
4.246200 6.934400
4.259500 6.612900
4.272900 7.803500
4.286200 10.480600
4.299500 11.907300
4.312900 11.892200
4.326200 10.380900
4.339600 10.031400
4.352900 11.113000
4.366200 13.530700
4.379600 13.707300
4.392900 12.971100
4.406300 12.191500
4.419600 14.028700
4.432900 11.244800
4.446300 10.085300
4.459600 9.993800
4.473000 10.051900
4.486300 10.469800
4.499700 12.492300
4.513000 14.937300
4.526300 15.745900
4.539700 12.401600
4.553000 11.480200
4.566400 11.162000
4.579700 11.835300
4.593000 12.908700
4.606400 13.871200
4.619700 15.382900
4.633100 14.196900
4.646400 12.653000
4.659800 12.113300
4.673100 12.283900
4.686400 12.141400
4.699800 12.033800
4.713100 11.531500
4.726500 9.194800
4.739800 9.348700
4.753100 10.720600
4.766500 13.175600
4.779800 13.556100
4.793200 14.356100
4.806500 14.834300
4.819800 18.824500
4.833200 14.575500
4.846500 12.184700
4.859900 12.008500
4.873200 12.082200
4.886600 12.155300
4.899900 12.213200
4.913200 12.236100
4.926600 12.220200
4.939900 12.215600
4.953300 13.194400
4.966600 14.360900
4.979900 14.298200
4.993300 13.162800
5.006600 12.977100
5.020000 14.138800
5.033300 22.014100
5.046700 10.910900
5.060000 11.014000
5.073300 11.088700
5.086700 11.052500
5.100000 10.980600
5.113400 10.894400
5.126700 10.803600
5.140000 10.468400
5.153400 10.286400
5.166700 10.195100
5.180100 10.038000
5.193400 9.905500
5.206700 9.791000
5.220100 9.707200
5.233400 9.500500
5.246800 9.262800
5.260100 9.164600
5.273500 9.883200
5.286800 14.680400
5.300100 11.164400
5.313500 12.099000
5.326800 13.907200
5.340200 10.116900
5.353500 10.191000
5.366800 10.188700
5.380200 10.078000
5.393500 9.932400
5.406900 9.735700
5.420200 9.477400
5.433600 9.222900
5.446900 9.017700
5.460200 8.836400
5.473600 8.654800
5.486900 8.397600
5.500300 8.052700
5.513600 7.626400
5.526900 11.232600
5.540300 10.238800
5.553600 9.698100
5.567000 8.942400
5.580300 7.723800
5.593600 7.127300
5.607000 6.712300
5.620300 6.555400
5.633700 6.308500
5.647000 6.157800
5.660400 6.287700
5.673700 6.429000
5.687000 6.675600
5.700400 6.983200
5.713700 7.171800
5.727100 7.238500
5.740400 7.171200
5.753700 6.948500
5.767100 6.813700
5.780400 6.766200
5.793800 6.717500
5.807100 6.609900
5.820500 6.375600
5.833800 6.040000
5.847100 5.978800
5.860500 5.947800
5.873800 5.928700
5.887200 5.921500
5.900500 5.933000
5.913800 5.946700
5.927200 5.962600
5.940500 5.980400
5.953900 5.998800
5.967200 6.663800
5.980500 6.623700
5.993900 6.555800
6.007200 6.512900
6.020600 6.493500
6.033900 6.491200
6.047300 6.496400
6.060600 6.532600
6.073900 6.572000
6.087300 6.615200
6.100600 6.663800
6.114000 6.694700
6.127300 6.681000
6.140600 6.621800
6.154000 6.412300
6.167300 6.102400
6.180700 5.967100
6.194000 6.032300
6.207400 5.912900
6.220700 5.527000
6.234000 5.054700
