set title 'mp-975461 - Density of States'
set xlabel 'Energy (eV)'
set ylabel 'DOS (states/eV)'
set grid
set xrange [-10:10]
set yrange [0:29.690]
set xzeroaxis lt -1
set terminal png size 800,600
set output 'mp-975461_dos_gnuplot.png'
plot '-' using 1:2 with lines title 'DOS'
-8.368600 0.000000
-8.351300 0.000000
-8.334000 0.000000
-8.316600 0.000000
-8.299300 0.000000
-8.281900 0.000000
-8.264600 0.000000
-8.247200 0.000000
-8.229900 0.000000
-8.212500 0.000000
-8.195200 0.000000
-8.177800 0.000000
-8.160500 0.000000
-8.143100 0.000000
-8.125800 0.000000
-8.108500 0.000000
-8.091100 0.000000
-8.073800 0.000000
-8.056400 0.000000
-8.039100 0.000000
-8.021700 0.000000
-8.004400 0.000000
-7.987000 0.000000
-7.969700 0.000000
-7.952300 0.000000
-7.935000 0.000000
-7.917700 0.000000
-7.900300 0.000000
-7.883000 0.000000
-7.865600 0.000000
-7.848300 0.000000
-7.830900 0.000000
-7.813600 0.000000
-7.796200 0.000000
-7.778900 0.000000
-7.761500 0.000000
-7.744200 0.000000
-7.726900 0.000000
-7.709500 0.000000
-7.692200 0.000000
-7.674800 0.000000
-7.657500 0.000000
-7.640100 0.000000
-7.622800 0.000000
-7.605400 0.000000
-7.588100 0.000000
-7.570700 0.000000
-7.553400 0.000000
-7.536100 0.000000
-7.518700 0.000000
-7.501400 0.000000
-7.484000 0.000000
-7.466700 0.000000
-7.449300 0.000000
-7.432000 0.000000
-7.414600 0.000000
-7.397300 0.000000
-7.379900 0.000000
-7.362600 0.000000
-7.345200 0.000000
-7.327900 0.000000
-7.310600 0.000000
-7.293200 0.000000
-7.275900 0.000000
-7.258500 0.000000
-7.241200 0.000000
-7.223800 0.000000
-7.206500 0.000000
-7.189100 0.000000
-7.171800 0.000000
-7.154400 0.000000
-7.137100 0.000000
-7.119800 0.000000
-7.102400 0.000000
-7.085100 0.000000
-7.067700 0.000000
-7.050400 0.000000
-7.033000 0.000000
-7.015700 0.000000
-6.998300 0.000000
-6.981000 0.000000
-6.963600 0.000000
-6.946300 0.000000
-6.929000 0.000000
-6.911600 0.000100
-6.894300 0.000400
-6.876900 0.001400
-6.859600 0.004600
-6.842200 0.011900
-6.824900 0.025000
-6.807500 0.044300
-6.790200 0.070500
-6.772800 0.107400
-6.755500 0.160700
-6.738200 0.229400
-6.720800 0.300200
-6.703500 0.356000
-6.686100 0.391400
-6.668800 0.417700
-6.651400 0.449200
-6.634100 0.484700
-6.616700 0.502600
-6.599400 0.480100
-6.582000 0.425000
-6.564700 0.386400
-6.547300 0.423800
-6.530000 0.557700
-6.512700 0.750200
-6.495300 0.930100
-6.478000 1.037500
-6.460600 1.054300
-6.443300 1.013300
-6.425900 0.979700
-6.408600 1.002200
-6.391200 1.062000
-6.373900 1.085400
-6.356500 1.027600
-6.339200 0.931500
-6.321900 0.884900
-6.304500 0.927500
-6.287200 1.017500
-6.269800 1.085300
-6.252500 1.114700
-6.235100 1.164300
-6.217800 1.299400
-6.200400 1.500700
-6.183100 1.662700
-6.165700 1.687300
-6.148400 1.570300
-6.131100 1.403600
-6.113700 1.309600
-6.096400 1.350000
-6.079000 1.474500
-6.061700 1.568700
-6.044300 1.567900
-6.027000 1.506700
-6.009600 1.461500
-5.992300 1.476600
-5.974900 1.553900
-5.957600 1.677700
-5.940300 1.836800
-5.922900 2.038300
-5.905600 2.300400
-5.888200 2.629800
-5.870900 3.033400
-5.853500 3.559400
-5.836200 4.287100
-5.818800 5.223400
-5.801500 6.196600
-5.784100 6.877100
-5.766800 6.963300
-5.749400 6.393300
-5.732100 5.374800
-5.714800 4.203400
-5.697400 3.074900
-5.680100 2.068900
-5.662700 1.237500
-5.645400 0.634600
-5.628000 0.271200
-5.610700 0.094800
-5.593300 0.026800
-5.576000 0.006100
-5.558600 0.001100
-5.541300 0.000200
-5.524000 0.000000
-5.506600 0.000000
-5.489300 0.000000
-5.471900 0.000000
-5.454600 0.000000
-5.437200 0.000000
-5.419900 0.000000
-5.402500 0.000000
-5.385200 0.000000
-5.367800 0.000000
-5.350500 0.000000
-5.333200 0.000000
-5.315800 0.000000
-5.298500 0.000000
-5.281100 0.000000
-5.263800 0.000000
-5.246400 0.000000
-5.229100 0.000000
-5.211700 0.000000
-5.194400 0.000000
-5.177000 0.000000
-5.159700 0.000000
-5.142400 0.000000
-5.125000 0.000000
-5.107700 0.000000
-5.090300 0.000000
-5.073000 0.000000
-5.055600 0.000000
-5.038300 0.000000
-5.020900 0.000000
-5.003600 0.000000
-4.986200 0.000000
-4.968900 0.000000
-4.951500 0.000000
-4.934200 0.000000
-4.916900 0.000000
-4.899500 0.000000
-4.882200 0.000000
-4.864800 0.000000
-4.847500 0.000000
-4.830100 0.000000
-4.812800 0.000000
-4.795400 0.000000
-4.778100 0.000000
-4.760700 0.000000
-4.743400 0.000000
-4.726100 0.000000
-4.708700 0.000000
-4.691400 0.000000
-4.674000 0.000000
-4.656700 0.000000
-4.639300 0.000000
-4.622000 0.000000
-4.604600 0.000000
-4.587300 0.000000
-4.569900 0.000000
-4.552600 0.000000
-4.535300 0.000000
-4.517900 0.000000
-4.500600 0.000000
-4.483200 0.000000
-4.465900 0.000000
-4.448500 0.000000
-4.431200 0.000000
-4.413800 0.000000
-4.396500 0.000000
-4.379100 0.000000
-4.361800 0.000000
-4.344500 0.000000
-4.327100 0.000000
-4.309800 0.000000
-4.292400 0.000000
-4.275100 0.000000
-4.257700 0.000000
-4.240400 0.000000
-4.223000 0.000000
-4.205700 0.000000
-4.188300 0.000000
-4.171000 0.000000
-4.153700 0.000000
-4.136300 0.000000
-4.119000 0.000300
-4.101600 0.001300
-4.084300 0.004900
-4.066900 0.015300
-4.049600 0.039500
-4.032200 0.087100
-4.014900 0.171000
-3.997500 0.313900
-3.980200 0.550700
-3.962800 0.911600
-3.945500 1.391600
-3.928200 1.952400
-3.910800 2.578700
-3.893500 3.310800
-3.876100 4.165200
-3.858800 5.023800
-3.841400 5.679500
-3.824100 6.035500
-3.806700 6.207700
-3.789400 6.411800
-3.772000 6.798000
-3.754700 7.375100
-3.737400 8.002500
-3.720000 8.459100
-3.702700 8.632100
-3.685300 8.675800
-3.668000 8.915000
-3.650600 9.563600
-3.633300 10.597200
-3.615900 11.908900
-3.598600 13.508800
-3.581200 15.509500
-3.563900 17.919800
-3.546600 20.477700
-3.529200 22.694400
-3.511900 24.112700
-3.494500 24.619700
-3.477200 24.541500
-3.459800 24.354800
-3.442500 24.291400
-3.425100 24.308100
-3.407800 24.399400
-3.390400 24.715700
-3.373100 25.286700
-3.355800 25.812000
-3.338400 25.884500
-3.321100 25.362500
-3.303700 24.440800
-3.286400 23.433700
-3.269000 22.589300
-3.251700 22.052600
-3.234300 21.835300
-3.217000 21.767100
-3.199600 21.575800
-3.182300 21.094400
-3.164900 20.377600
-3.147600 19.621300
-3.130300 19.033100
-3.112900 18.788400
-3.095600 19.001800
-3.078200 19.620800
-3.060900 20.354800
-3.043500 20.820300
-3.026200 20.808800
-3.008800 20.378200
-2.991500 19.713000
-2.974100 18.994200
-2.956800 18.399600
-2.939500 18.109300
-2.922100 18.254700
-2.904800 18.884500
-2.887400 19.951700
-2.870100 21.253400
-2.852700 22.382300
-2.835400 22.842000
-2.818000 22.323100
-2.800700 20.919400
-2.783300 19.085800
-2.766000 17.394700
-2.748700 16.308600
-2.731300 16.067200
-2.714000 16.625300
-2.696600 17.639100
-2.679300 18.584200
-2.661900 19.008300
-2.644600 18.799600
-2.627200 18.260200
-2.609900 17.839100
-2.592500 17.763100
-2.575200 18.026600
-2.557900 18.713300
-2.540500 20.082600
-2.523200 22.198600
-2.505800 24.602500
-2.488500 26.460100
-2.471100 26.991200
-2.453800 25.812600
-2.436400 23.099700
-2.419100 19.563100
-2.401700 16.168300
-2.384400 13.651400
-2.367000 12.160500
-2.349700 11.359500
-2.332400 10.862100
-2.315000 10.487800
-2.297700 10.139400
-2.280300 9.619100
-2.263000 8.686800
-2.245600 7.284900
-2.228300 5.654800
-2.210900 4.195700
-2.193600 3.183900
-2.176200 2.623200
-2.158900 2.347900
-2.141600 2.225400
-2.124200 2.232800
-2.106900 2.368600
-2.089500 2.557000
-2.072200 2.663900
-2.054800 2.587000
-2.037500 2.313400
-2.020100 1.913900
-2.002800 1.502700
-1.985400 1.183100
-1.968100 1.005600
-1.950800 0.972100
-1.933400 1.071800
-1.916100 1.288800
-1.898700 1.585300
-1.881400 1.924700
-1.864000 2.311800
-1.846700 2.750400
-1.829300 3.151300
-1.812000 3.359500
-1.794600 3.321600
-1.777300 3.161600
-1.760000 3.030200
-1.742600 2.924500
-1.725300 2.723100
-1.707900 2.367400
-1.690600 1.937100
-1.673200 1.564300
-1.655900 1.339000
-1.638500 1.299000
-1.621200 1.447100
-1.603800 1.730400
-1.586500 2.018700
-1.569100 2.156900
-1.551800 2.078300
-1.534500 1.861900
-1.517100 1.660500
-1.499800 1.572300
-1.482400 1.584200
-1.465100 1.626800
-1.447700 1.664700
-1.430400 1.717100
-1.413000 1.792700
-1.395700 1.832000
-1.378300 1.755000
-1.361000 1.570500
-1.343700 1.394500
-1.326300 1.338700
-1.309000 1.401500
-1.291600 1.485800
-1.274300 1.509900
-1.256900 1.485800
-1.239600 1.500400
-1.222200 1.637500
-1.204900 1.903300
-1.187500 2.193500
-1.170200 2.345500
-1.152900 2.263300
-1.135500 2.009300
-1.118200 1.758400
-1.100800 1.656500
-1.083500 1.717500
-1.066100 1.835300
-1.048800 1.872900
-1.031400 1.756300
-1.014100 1.514800
-0.996700 1.251600
-0.979400 1.066700
-0.962100 0.984200
-0.944700 0.949900
-0.927400 0.905100
-0.910000 0.856100
-0.892700 0.855800
-0.875300 0.929700
-0.858000 1.041600
-0.840600 1.132300
-0.823300 1.178800
-0.805900 1.206100
-0.788600 1.247500
-0.771200 1.316600
-0.753900 1.423600
-0.736600 1.588400
-0.719200 1.811200
-0.701900 2.038300
-0.684500 2.173600
-0.667200 2.131600
-0.649800 1.890000
-0.632500 1.501700
-0.615100 1.062300
-0.597800 0.664100
-0.580400 0.363100
-0.563100 0.174000
-0.545800 0.083600
-0.528400 0.074300
-0.511100 0.142200
-0.493700 0.294600
-0.476400 0.527300
-0.459000 0.803600
-0.441700 1.064300
-0.424300 1.260500
-0.407000 1.370300
-0.389600 1.384200
-0.372300 1.296600
-0.355000 1.131500
-0.337600 0.960100
-0.320300 0.861000
-0.302900 0.857100
-0.285600 0.899200
-0.268200 0.915800
-0.250900 0.883800
-0.233500 0.853300
-0.216200 0.891900
-0.198800 0.997000
-0.181500 1.081000
-0.164200 1.061300
-0.146800 0.952700
-0.129500 0.852500
-0.112100 0.838600
-0.094800 0.900900
-0.077400 0.974000
-0.060100 1.016100
-0.042700 1.032600
-0.025400 1.039600
-0.008000 1.054400
0.009300 1.121900
0.026700 1.288400
0.044000 1.519900
0.061300 1.695600
0.078700 1.719200
0.096000 1.604000
0.113400 1.433000
0.130700 1.277200
0.148100 1.171400
0.165400 1.133300
0.182800 1.185100
0.200100 1.352100
0.217500 1.629100
0.234800 1.939100
0.252100 2.149800
0.269500 2.158300
0.286800 1.961200
0.304200 1.638600
0.321500 1.287000
0.338900 0.982800
0.356200 0.790100
0.373600 0.759700
0.390900 0.891300
0.408300 1.105700
0.425600 1.284200
0.442900 1.355900
0.460300 1.334800
0.477600 1.271700
0.495000 1.200300
0.512300 1.141700
0.529700 1.124400
0.547000 1.161200
0.564400 1.215800
0.581700 1.230400
0.599100 1.188300
0.616400 1.124300
0.633700 1.071200
0.651100 1.031500
0.668400 1.014300
0.685800 1.059400
0.703100 1.190200
0.720500 1.357300
0.737800 1.462400
0.755200 1.449000
0.772500 1.358100
0.789900 1.292900
0.807200 1.337700
0.824500 1.512100
0.841900 1.774900
0.859200 2.056300
0.876600 2.300500
0.893900 2.493700
0.911300 2.642200
0.928600 2.736800
0.946000 2.766200
0.963300 2.756400
0.980700 2.756500
0.998000 2.781900
1.015400 2.794900
1.032700 2.745100
1.050000 2.617000
1.067400 2.431800
1.084700 2.213700
1.102100 1.986500
1.119400 1.815200
1.136800 1.795500
1.154100 1.945500
1.171500 2.143200
1.188800 2.238200
1.206200 2.215400
1.223500 2.191800
1.240800 2.259200
1.258200 2.394000
1.275500 2.515300
1.292900 2.558000
1.310200 2.469400
1.327600 2.206500
1.344900 1.781700
1.362300 1.289200
1.379600 0.860900
1.397000 0.592700
1.414300 0.501500
1.431600 0.539300
1.449000 0.644000
1.466300 0.772400
1.483700 0.897200
1.501000 1.002900
1.518400 1.105400
1.535700 1.248700
1.553100 1.445400
1.570400 1.620900
1.587800 1.648200
1.605100 1.466200
1.622400 1.154600
1.639800 0.878700
1.657100 0.775500
1.674500 0.887700
1.691800 1.159700
1.709200 1.465400
1.726500 1.674200
1.743900 1.735700
1.761200 1.695100
1.778600 1.619700
1.795900 1.544300
1.813300 1.501400
1.830600 1.547200
1.847900 1.713000
1.865300 1.946200
1.882600 2.121100
1.900000 2.115200
1.917300 1.899700
1.934700 1.569600
1.952000 1.270100
1.969400 1.085500
1.986700 1.009700
2.004100 1.007800
2.021400 1.065200
2.038700 1.169300
2.056100 1.288500
2.073400 1.401500
2.090800 1.514100
2.108100 1.608000
2.125500 1.605700
2.142800 1.438200
2.160200 1.136300
2.177500 0.812500
2.194900 0.566100
2.212200 0.436800
2.229500 0.433200
2.246900 0.562700
2.264200 0.823800
2.281600 1.192200
2.298900 1.615400
2.316300 2.008700
2.333600 2.266300
2.351000 2.314400
2.368300 2.162700
2.385700 1.894500
2.403000 1.608000
2.420300 1.373100
2.437700 1.224800
2.455000 1.171500
2.472400 1.202300
2.489700 1.298100
2.507100 1.437600
2.524400 1.592900
2.541800 1.734200
2.559100 1.850000
2.576500 1.960000
2.593800 2.094200
2.611200 2.247500
2.628500 2.351800
2.645800 2.314100
2.663200 2.105800
2.680500 1.810100
2.697900 1.572500
2.715200 1.501800
2.732600 1.599400
2.749900 1.758100
2.767300 1.838900
2.784600 1.772400
2.802000 1.600300
2.819300 1.432800
2.836600 1.377200
2.854000 1.476600
2.871300 1.679600
2.888700 1.879800
2.906000 2.008400
2.923400 2.080600
2.940700 2.151900
2.958100 2.251500
2.975400 2.357400
2.992800 2.404500
3.010100 2.314500
3.027400 2.063400
3.044800 1.742000
3.062100 1.517800
3.079500 1.506100
3.096800 1.677000
3.114200 1.889700
3.131500 2.009100
3.148900 1.995300
3.166200 1.904900
3.183600 1.822700
3.200900 1.807700
3.218200 1.885000
3.235600 2.039400
3.252900 2.196500
3.270300 2.251300
3.287600 2.157800
3.305000 1.987500
3.322300 1.885700
3.339700 1.965400
3.357000 2.226100
3.374400 2.543800
3.391700 2.743000
3.409100 2.716500
3.426400 2.496000
3.443700 2.203100
3.461100 1.940600
3.478400 1.747600
3.495800 1.634900
3.513100 1.624600
3.530500 1.744900
3.547800 2.006000
3.565200 2.374600
3.582500 2.750900
3.599900 2.985700
3.617200 2.965900
3.634500 2.704100
3.651900 2.331800
3.669200 2.002700
3.686600 1.790500
3.703900 1.657700
3.721300 1.511600
3.738600 1.296700
3.756000 1.046300
3.773300 0.865800
3.790700 0.865500
3.808000 1.081800
3.825300 1.434400
3.842700 1.768800
3.860000 1.960000
3.877400 1.981900
3.894700 1.890700
3.912100 1.768900
3.929400 1.682800
3.946800 1.651200
3.964100 1.639900
3.981500 1.603500
3.998800 1.537900
4.016100 1.483500
4.033500 1.493000
4.050800 1.613800
4.068200 1.883200
4.085500 2.292600
4.102900 2.741700
4.120200 3.064500
4.137600 3.142600
4.154900 2.989400
4.172300 2.703700
4.189600 2.358100
4.207000 1.974300
4.224300 1.589000
4.241600 1.291700
4.259000 1.175100
4.276300 1.255700
4.293700 1.447200
4.311000 1.617900
4.328400 1.694300
4.345700 1.728000
4.363100 1.850900
4.380400 2.140800
4.397800 2.529300
4.415100 2.856500
4.432400 2.997000
4.449800 2.903900
4.467100 2.580600
4.484500 2.080600
4.501800 1.526000
4.519200 1.063000
4.536500 0.782200
4.553900 0.692300
4.571200 0.761900
4.588600 0.963900
4.605900 1.271200
4.623200 1.622300
4.640600 1.920100
4.657900 2.088300
4.675300 2.129000
4.692600 2.105700
4.710000 2.067200
4.727300 2.004900
4.744700 1.903300
4.762000 1.805600
4.779400 1.780200
4.796700 1.819900
4.814000 1.825800
4.831400 1.702800
4.848700 1.445200
4.866100 1.128500
4.883400 0.848000
4.900800 0.669200
4.918100 0.616000
4.935500 0.682000
4.952800 0.842400
4.970200 1.056900
4.987500 1.277300
5.004900 1.462700
5.022200 1.583500
5.039500 1.613800
5.056900 1.549700
5.074200 1.444500
5.091600 1.400300
5.108900 1.500700
5.126300 1.745100
5.143600 2.040600
5.161000 2.254700
5.178300 2.300800
5.195700 2.202700
5.213000 2.075600
5.230300 2.018300
5.247700 2.019000
5.265000 1.988400
5.282400 1.879700
5.299700 1.747700
5.317100 1.696000
5.334400 1.785700
5.351800 1.986600
5.369100 2.194100
5.386500 2.299000
5.403800 2.261600
5.421100 2.131600
5.438500 1.988000
5.455800 1.854500
5.473200 1.698100
5.490500 1.512200
5.507900 1.363400
5.525200 1.331300
5.542600 1.429100
5.559900 1.606100
5.577300 1.808700
5.594600 2.007000
5.611900 2.166000
5.629300 2.244200
5.646600 2.237200
5.664000 2.177800
5.681300 2.078000
5.698700 1.915700
5.716000 1.685600
5.733400 1.420200
5.750700 1.166600
5.768100 0.981900
5.785400 0.929500
5.802700 1.024800
5.820100 1.183400
5.837400 1.266400
5.854800 1.193400
5.872100 0.997500
5.889500 0.780100
5.906800 0.630400
5.924200 0.578400
5.941500 0.594500
5.958900 0.625800
5.976200 0.639900
5.993600 0.649600
6.010900 0.707500
6.028200 0.871100
6.045600 1.151400
6.062900 1.486900
6.080300 1.774000
6.097600 1.927200
6.115000 1.919500
6.132300 1.774200
6.149700 1.531900
6.167000 1.240700
6.184400 0.975700
6.201700 0.835100
6.219000 0.880500
6.236400 1.071900
6.253700 1.279000
6.271100 1.383400
6.288400 1.377400
6.305800 1.350800
6.323100 1.382300
6.340500 1.467300
6.357800 1.549000
6.375200 1.582400
6.392500 1.553200
6.409800 1.463400
6.427200 1.325900
6.444500 1.174800
6.461900 1.067900
6.479200 1.055000
6.496600 1.139900
6.513900 1.293800
6.531300 1.507300
6.548600 1.794400
6.566000 2.124100
6.583300 2.384200
6.600600 2.450000
6.618000 2.286300
6.635300 1.964700
6.652700 1.598300
6.670000 1.278100
6.687400 1.056000
6.704700 0.955300
6.722100 0.976400
6.739400 1.099400
6.756800 1.284200
6.774100 1.468700
6.791500 1.590700
6.808800 1.640600
6.826100 1.674700
6.843500 1.737100
6.860800 1.788700
6.878200 1.760500
6.895500 1.665500
6.912900 1.600200
6.930200 1.629400
6.947600 1.710400
6.964900 1.737100
6.982300 1.633800
6.999600 1.407300
7.016900 1.136700
7.034300 0.924100
7.051600 0.842200
7.069000 0.921200
7.086300 1.170400
7.103700 1.581900
7.121000 2.102500
7.138400 2.630500
7.155700 3.062300
7.173100 3.335700
7.190400 3.429300
7.207700 3.337200
7.225100 3.045800
7.242400 2.554500
7.259800 1.936400
7.277100 1.357500
7.294500 0.997800
7.311800 0.942800
7.329200 1.136400
7.346500 1.421100
7.363900 1.632700
7.381200 1.688700
7.398500 1.617000
7.415900 1.513500
7.433200 1.466000
7.450600 1.495700
7.467900 1.560400
7.485300 1.615000
7.502600 1.656500
7.520000 1.713000
7.537300 1.815000
7.554700 1.988800
7.572000 2.246900
7.589400 2.551900
7.606700 2.812600
7.624000 2.949300
7.641400 2.947400
7.658700 2.827100
7.676100 2.609400
7.693400 2.355200
7.710800 2.177800
7.728100 2.147600
7.745500 2.210400
7.762800 2.253700
7.780200 2.236000
7.797500 2.217100
7.814800 2.281600
7.832200 2.452900
7.849500 2.666000
7.866900 2.807200
7.884200 2.791300
7.901600 2.624100
7.918900 2.392800
7.936300 2.197700
7.953600 2.087500
7.971000 2.043100
7.988300 2.012800
8.005600 1.981000
8.023000 2.000300
8.040300 2.125600
8.057700 2.311700
8.075000 2.423800
8.092400 2.382300
8.109700 2.273500
8.127100 2.267400
8.144400 2.420100
8.161800 2.606200
8.179100 2.676800
8.196400 2.656500
8.213800 2.728400
8.231100 3.003300
8.248500 3.344700
8.265800 3.479700
8.283200 3.283600
8.300500 2.905200
8.317900 2.612500
8.335200 2.556500
8.352600 2.680500
8.369900 2.808500
8.387300 2.803600
8.404600 2.673400
8.421900 2.551700
8.439300 2.568500
8.456600 2.716900
8.474000 2.842300
8.491300 2.774000
8.508700 2.471900
8.526000 2.061100
8.543400 1.747700
8.560700 1.686800
8.578100 1.880200
8.595400 2.176500
8.612700 2.395400
8.630100 2.467100
8.647400 2.450500
8.664800 2.431800
8.682100 2.431100
8.699500 2.415700
8.716800 2.376600
8.734200 2.351900
8.751500 2.382500
8.768900 2.478000
8.786200 2.613900
8.803500 2.734900
8.820900 2.786500
8.838200 2.775400
8.855600 2.774000
8.872900 2.843400
8.890300 2.974800
8.907600 3.106400
8.925000 3.157700
8.942300 3.051200
8.959700 2.757200
8.977000 2.335200
8.994300 1.901700
9.011700 1.547100
9.029000 1.290200
9.046400 1.106800
9.063700 0.983900
9.081100 0.944000
9.098400 1.028600
9.115800 1.259800
9.133100 1.600700
9.150500 1.948100
9.167800 2.190900
9.185200 2.293100
9.202500 2.313200
9.219800 2.339800
9.237200 2.414900
9.254500 2.502600
9.271900 2.525900
9.289200 2.447900
9.306600 2.317900
9.323900 2.217800
9.341300 2.179600
9.358600 2.187400
9.376000 2.244800
9.393300 2.384800
9.410600 2.598600
9.428000 2.788300
9.445300 2.825300
9.462700 2.655400
9.480000 2.349100
9.497400 2.066400
9.514700 1.968100
9.532100 2.114800
9.549400 2.413300
9.566800 2.680000
9.584100 2.795800
9.601400 2.803000
9.618800 2.824700
9.636100 2.898600
9.653500 2.935200
9.670800 2.845000
9.688200 2.656900
9.705500 2.482100
9.722900 2.393000
9.740200 2.368300
9.757600 2.327300
9.774900 2.187400
9.792200 1.922900
9.809600 1.613300
9.826900 1.421000
9.844300 1.478500
9.861600 1.761000
9.879000 2.073500
9.896300 2.194200
9.913700 2.060300
9.931000 1.817700
9.948400 1.692900
9.965700 1.809000
9.983100 2.106000
10.000400 2.420300
10.017700 2.635500
10.035100 2.751300
10.052400 2.819200
10.069800 2.842500
