set title 'mp-1064307 - Density of States'
set xlabel 'Energy (eV)'
set ylabel 'DOS (states/eV)'
set grid
set xrange [-10:10]
set yrange [0:7.637]
set xzeroaxis lt -1
set terminal png size 800,600
set output 'mp-1064307_dos_gnuplot.png'
plot '-' using 1:2 with lines title 'DOS'
-9.347300 0.000000
-9.328600 0.000000
-9.309900 0.000000
-9.291100 0.000000
-9.272400 0.000000
-9.253700 0.000000
-9.234900 0.000000
-9.216200 0.000000
-9.197500 0.000000
-9.178800 0.000000
-9.160000 0.000000
-9.141300 0.000000
-9.122600 0.000000
-9.103800 0.000000
-9.085100 0.000000
-9.066400 0.000000
-9.047600 0.000000
-9.028900 0.000000
-9.010200 0.000000
-8.991500 0.000000
-8.972700 0.000000
-8.954000 0.000000
-8.935300 0.000000
-8.916500 0.000000
-8.897800 0.000000
-8.879100 0.000000
-8.860300 0.000000
-8.841600 0.000000
-8.822900 0.000000
-8.804200 0.000000
-8.785400 0.000000
-8.766700 0.000000
-8.748000 0.000000
-8.729200 0.000000
-8.710500 0.000000
-8.691800 0.000000
-8.673000 0.000000
-8.654300 0.000000
-8.635600 0.000000
-8.616900 0.000000
-8.598100 0.000000
-8.579400 0.000000
-8.560700 0.000000
-8.541900 0.000000
-8.523200 0.000000
-8.504500 0.000000
-8.485700 0.000000
-8.467000 0.000000
-8.448300 0.000000
-8.429600 0.000000
-8.410800 0.000000
-8.392100 0.000000
-8.373400 0.000000
-8.354600 0.000000
-8.335900 0.000000
-8.317200 0.000000
-8.298400 0.000000
-8.279700 0.000000
-8.261000 0.000000
-8.242300 0.000000
-8.223500 0.000000
-8.204800 0.000000
-8.186100 0.000000
-8.167300 0.000000
-8.148600 0.000000
-8.129900 0.000000
-8.111100 0.000000
-8.092400 0.000000
-8.073700 0.000000
-8.055000 0.000000
-8.036200 0.000000
-8.017500 0.000000
-7.998800 0.000000
-7.980000 0.000000
-7.961300 0.000000
-7.942600 0.000000
-7.923800 0.000000
-7.905100 0.000000
-7.886400 0.000000
-7.867700 0.000000
-7.848900 0.000000
-7.830200 0.000000
-7.811500 0.000000
-7.792700 0.000000
-7.774000 0.000000
-7.755300 0.000000
-7.736500 0.000000
-7.717800 0.000000
-7.699100 0.000000
-7.680400 0.000000
-7.661600 0.000000
-7.642900 0.000300
-7.624200 0.047600
-7.605400 0.174200
-7.586700 0.328700
-7.568000 0.419900
-7.549200 0.449500
-7.530500 0.479400
-7.511800 0.537100
-7.493100 0.606800
-7.474300 0.669500
-7.455600 0.717100
-7.436900 0.757900
-7.418100 0.799500
-7.399400 0.839700
-7.380700 0.876200
-7.361900 0.916300
-7.343200 0.960500
-7.324500 1.007000
-7.305800 1.052900
-7.287000 1.097700
-7.268300 1.140900
-7.249600 1.185600
-7.230800 1.231800
-7.212100 1.279700
-7.193400 1.332800
-7.174600 1.392300
-7.155900 1.454200
-7.137200 1.511900
-7.118500 1.569100
-7.099700 1.631200
-7.081000 1.763400
-7.062300 1.970200
-7.043500 2.101100
-7.024800 2.135300
-7.006100 2.155900
-6.987400 2.191800
-6.968600 2.267100
-6.949900 2.374900
-6.931200 2.550100
-6.912400 2.872000
-6.893700 3.000700
-6.875000 3.074400
-6.856200 3.021400
-6.837500 2.957600
-6.818800 2.703300
-6.800100 2.423500
-6.781300 2.232000
-6.762600 2.170700
-6.743900 2.113100
-6.725100 2.044100
-6.706400 1.954000
-6.687700 1.885600
-6.668900 1.815900
-6.650200 1.755700
-6.631500 1.712100
-6.612800 1.685600
-6.594000 1.664500
-6.575300 1.643600
-6.556600 1.623800
-6.537800 1.604500
-6.519100 1.583900
-6.500400 1.561200
-6.481600 1.534400
-6.462900 1.499200
-6.444200 1.471300
-6.425500 1.444600
-6.406700 1.423500
-6.388000 1.409400
-6.369300 1.403300
-6.350500 1.396500
-6.331800 1.389700
-6.313100 1.382800
-6.294300 1.375600
-6.275600 1.363700
-6.256900 1.354200
-6.238200 1.345100
-6.219400 1.336700
-6.200700 1.328500
-6.182000 1.319200
-6.163200 1.308500
-6.144500 1.296500
-6.125800 1.281100
-6.107000 1.270600
-6.088300 1.262700
-6.069600 1.258100
-6.050900 1.257200
-6.032100 1.256300
-6.013400 1.255500
-5.994700 1.254500
-5.975900 1.253600
-5.957200 1.252700
-5.938500 1.252100
-5.919700 1.252800
-5.901000 1.254300
-5.882300 1.255000
-5.863600 1.256000
-5.844800 1.257700
-5.826100 1.260000
-5.807400 1.263100
-5.788600 1.267000
-5.769900 1.271400
-5.751200 1.275700
-5.732400 1.280500
-5.713700 1.285500
-5.695000 1.290500
-5.676300 1.295800
-5.657500 1.301400
-5.638800 1.307300
-5.620100 1.313600
-5.601300 1.320400
-5.582600 1.328000
-5.563900 1.337200
-5.545100 1.347600
-5.526400 2.048400
-5.507700 2.744300
-5.489000 3.314400
-5.470200 3.374100
-5.451500 3.648100
-5.432800 3.713100
-5.414000 3.732000
-5.395300 3.669400
-5.376600 3.752400
-5.357800 3.863400
-5.339100 3.978500
-5.320400 4.061200
-5.301700 4.060400
-5.282900 4.149800
-5.264200 4.185300
-5.245500 4.223900
-5.226700 4.718200
-5.208000 4.166900
-5.189300 3.800000
-5.170500 3.690000
-5.151800 3.590500
-5.133100 3.502500
-5.114400 3.476000
-5.095600 3.457900
-5.076900 3.505700
-5.058200 3.563400
-5.039400 3.290400
-5.020700 3.021300
-5.002000 2.780200
-4.983200 2.536800
-4.964500 2.173600
-4.945800 1.836600
-4.927100 1.834800
-4.908300 1.831300
-4.889600 1.826800
-4.870900 1.822000
-4.852100 1.817300
-4.833400 1.816600
-4.814700 1.820600
-4.795900 1.828600
-4.777200 1.837900
-4.758500 1.841800
-4.739800 1.848200
-4.721000 1.865900
-4.702300 1.862700
-4.683600 1.850000
-4.664800 1.822200
-4.646100 1.777300
-4.627400 1.707500
-4.608600 1.630400
-4.589900 1.571900
-4.571200 1.536200
-4.552500 1.511000
-4.533700 1.486200
-4.515000 1.460500
-4.496300 1.435900
-4.477500 1.413400
-4.458800 1.393000
-4.440100 1.376200
-4.421300 1.364200
-4.402600 1.354800
-4.383900 1.345800
-4.365200 1.337000
-4.346400 1.328400
-4.327700 1.319900
-4.309000 1.311600
-4.290200 1.299700
-4.271500 1.287800
-4.252800 1.276400
-4.234000 1.265400
-4.215300 1.255900
-4.196600 1.247100
-4.177900 1.239700
-4.159100 1.233900
-4.140400 1.228600
-4.121700 1.224000
-4.102900 1.219800
-4.084200 1.216000
-4.065500 1.212400
-4.046700 1.208900
-4.028000 1.205500
-4.009300 1.202300
-3.990600 1.199100
-3.971800 1.196200
-3.953100 1.193500
-3.934400 1.190600
-3.915600 1.188000
-3.896900 1.185700
-3.878200 1.183800
-3.859400 1.193900
-3.840700 1.206500
-3.822000 1.219900
-3.803300 1.234100
-3.784500 1.242300
-3.765800 1.250300
-3.747100 1.257900
-3.728300 1.265300
-3.709600 1.272600
-3.690900 1.280100
-3.672100 1.287300
-3.653400 1.293800
-3.634700 1.299700
-3.616000 1.305600
-3.597200 1.311500
-3.578500 1.317400
-3.559800 1.323300
-3.541000 1.329200
-3.522300 1.335200
-3.503600 1.341300
-3.484800 1.516600
-3.466100 1.685100
-3.447400 1.770000
-3.428700 1.853800
-3.409900 1.926800
-3.391200 1.995300
-3.372500 2.061700
-3.353700 2.128600
-3.335000 1.771300
-3.316300 1.717300
-3.297500 1.645000
-3.278800 1.572000
-3.260100 1.498900
-3.241400 1.432200
-3.222600 1.401200
-3.203900 1.384700
-3.185200 1.365000
-3.166400 1.342700
-3.147700 1.318100
-3.129000 1.290600
-3.110200 1.258100
-3.091500 1.221200
-3.072800 1.180800
-3.054100 1.137400
-3.035300 1.087600
-3.016600 1.031200
-2.997900 0.978800
-2.979100 0.913500
-2.960400 0.799500
-2.941700 0.692800
-2.922900 0.660200
-2.904200 0.510000
-2.885500 0.312000
-2.866800 0.000600
-2.848000 0.000000
-2.829300 0.000000
-2.810600 0.000000
-2.791800 0.000000
-2.773100 0.000000
-2.754400 0.000000
-2.735600 0.000000
-2.716900 0.000000
-2.698200 0.000000
-2.679500 0.000000
-2.660700 0.000000
-2.642000 0.000000
-2.623300 0.000000
-2.604500 0.000000
-2.585800 0.000000
-2.567100 0.000000
-2.548300 0.000000
-2.529600 0.000000
-2.510900 0.000000
-2.492200 0.000000
-2.473400 0.000000
-2.454700 0.000000
-2.436000 0.000000
-2.417200 0.000000
-2.398500 0.000000
-2.379800 0.000000
-2.361000 0.000000
-2.342300 0.000000
-2.323600 0.000000
-2.304900 0.000000
-2.286100 0.000000
-2.267400 0.000000
-2.248700 0.000000
-2.229900 0.000000
-2.211200 0.000000
-2.192500 0.000000
-2.173700 0.000000
-2.155000 0.000000
-2.136300 0.000000
-2.117600 0.000000
-2.098800 0.000000
-2.080100 0.000000
-2.061400 0.000000
-2.042600 0.000000
-2.023900 0.000000
-2.005200 0.000000
-1.986400 0.000000
-1.967700 0.000000
-1.949000 0.000000
-1.930300 0.000000
-1.911500 0.000000
-1.892800 0.000000
-1.874100 0.000000
-1.855300 0.000000
-1.836600 0.000000
-1.817900 0.000000
-1.799100 0.000000
-1.780400 0.000000
-1.761700 0.000000
-1.743000 0.000000
-1.724200 0.000000
-1.705500 0.000000
-1.686800 0.000000
-1.668000 0.000000
-1.649300 0.000000
-1.630600 0.000000
-1.611800 0.000000
-1.593100 0.000000
-1.574400 0.000000
-1.555700 0.000000
-1.536900 0.000000
-1.518200 0.000000
-1.499500 0.000000
-1.480700 0.000000
-1.462000 0.000000
-1.443300 0.000000
-1.424500 0.000000
-1.405800 0.000000
-1.387100 0.000000
-1.368400 0.000000
-1.349600 0.000000
-1.330900 0.000000
-1.312200 0.000000
-1.293400 0.000000
-1.274700 0.000000
-1.256000 0.000000
-1.237300 0.000000
-1.218500 0.000000
-1.199800 0.000000
-1.181100 0.000000
-1.162300 0.000000
-1.143600 0.000000
-1.124900 0.000000
-1.106100 0.000000
-1.087400 0.000000
-1.068700 0.000000
-1.050000 0.000000
-1.031200 0.000000
-1.012500 0.000000
-0.993800 0.000000
-0.975000 0.000000
-0.956300 0.000000
-0.937600 0.000000
-0.918800 0.000000
-0.900100 0.000000
-0.881400 0.000000
-0.862700 0.000000
-0.843900 0.000000
-0.825200 0.000000
-0.806500 0.000000
-0.787700 0.000000
-0.769000 0.000000
-0.750300 0.000000
-0.731500 0.000000
-0.712800 0.000000
-0.694100 0.000000
-0.675400 0.000000
-0.656600 0.000000
-0.637900 0.000000
-0.619200 0.000000
-0.600400 0.000000
-0.581700 0.000000
-0.563000 0.000000
-0.544200 0.000000
-0.525500 0.000000
-0.506800 0.000000
-0.488100 0.000000
-0.469300 0.000000
-0.450600 0.000000
-0.431900 0.000000
-0.413100 0.000000
-0.394400 0.000000
-0.375700 0.000000
-0.356900 0.000000
-0.338200 0.000000
-0.319500 0.000000
-0.300800 0.000000
-0.282000 0.000000
-0.263300 0.000000
-0.244600 0.000000
-0.225800 0.000000
-0.207100 0.000000
-0.188400 0.000000
-0.169600 0.000000
-0.150900 0.000000
-0.132200 0.000000
-0.113500 0.000000
-0.094700 0.000000
-0.076000 0.000000
-0.057300 0.000000
-0.038500 0.000000
-0.019800 0.000000
-0.001100 0.000000
0.017700 0.000000
0.036400 0.000000
0.055100 0.000000
0.073800 0.000000
0.092600 0.000000
0.111300 0.000000
0.130000 0.000000
0.148800 0.000000
0.167500 0.000000
0.186200 0.000000
0.205000 0.000000
0.223700 0.000000
0.242400 0.000000
0.261100 0.025400
0.279900 0.144900
0.298600 0.254700
0.317300 0.400400
0.336100 0.599000
0.354800 0.841500
0.373500 1.011400
0.392300 1.134900
0.411000 1.228500
0.429700 1.276900
0.448400 1.353100
0.467200 1.463400
0.485900 1.586600
0.504600 1.756100
0.523400 1.907400
0.542100 2.065400
0.560800 2.098000
0.579600 2.086100
0.598300 2.022600
0.617000 2.016300
0.635700 2.007300
0.654500 1.984300
0.673200 1.950200
0.691900 1.933200
0.710700 1.916400
0.729400 1.901700
0.748100 1.839400
0.766900 1.810500
0.785600 1.805800
0.804300 1.800200
0.823000 1.774400
0.841800 1.774300
0.860500 1.810600
0.879200 1.854500
0.898000 1.900600
0.916700 1.946800
0.935400 1.991500
0.954200 2.036600
0.972900 2.083100
0.991600 2.138200
1.010300 2.210400
1.029100 2.470500
1.047800 2.825700
1.066500 3.071600
1.085300 3.066600
1.104000 3.027900
1.122700 3.022000
1.141500 3.035800
1.160200 3.053900
1.178900 3.071200
1.197600 3.109200
1.216400 3.168000
1.235100 3.192500
1.253800 3.180500
1.272600 3.166500
1.291300 3.233300
1.310000 3.367000
1.328800 3.420000
1.347500 3.360400
1.366200 3.253700
1.384900 3.132000
1.403700 3.041900
1.422400 2.992800
1.441100 2.970700
1.459900 2.955300
1.478600 2.935700
1.497300 2.951600
1.516100 2.973700
1.534800 3.020000
1.553500 3.094500
1.572200 3.202600
1.591000 3.264600
1.609700 3.310800
1.628400 3.281600
1.647200 3.250600
1.665900 3.240200
1.684600 3.248000
1.703400 3.253200
1.722100 3.259600
1.740800 3.243100
1.759500 3.210900
1.778300 3.216800
1.797000 3.237000
1.815700 3.256800
1.834500 3.245800
1.853200 3.217100
1.871900 3.210400
1.890700 3.244900
1.909400 3.288600
1.928100 3.304900
1.946800 3.185100
1.965600 3.081400
1.984300 3.117400
2.003000 3.147400
2.021800 3.142100
2.040500 3.016400
2.059200 2.798800
2.078000 2.616700
2.096700 2.346300
2.115400 2.130300
2.134100 1.956000
2.152900 1.801800
2.171600 1.776300
2.190300 1.786700
2.209100 1.826800
2.227800 1.877700
2.246500 1.964300
2.265300 2.101500
2.284000 2.319400
2.302700 2.484900
2.321400 2.652800
2.340200 2.748300
2.358900 2.767200
2.377600 2.740900
2.396400 2.707000
2.415100 2.668500
2.433800 2.566900
2.452600 2.541300
2.471300 2.514600
2.490000 2.499700
2.508700 2.523700
2.527500 2.546500
2.546200 2.516300
2.564900 2.483500
2.583700 2.486100
2.602400 2.518900
2.621100 2.571700
2.639900 2.634400
2.658600 2.733100
2.677300 2.836000
2.696000 2.930400
2.714800 3.007300
2.733500 2.995400
2.752200 2.961100
2.771000 2.940300
2.789700 2.993500
2.808400 3.049400
2.827200 3.088200
2.845900 3.106400
2.864600 3.068800
2.883300 3.080900
2.902100 3.148300
2.920800 3.308100
2.939500 3.590700
2.958300 3.972000
2.977000 4.131000
2.995700 4.330500
3.014500 4.571900
3.033200 4.883000
3.051900 5.352000
3.070600 5.629900
3.089400 5.798200
3.108100 6.001500
3.126800 6.229000
3.145600 6.483000
3.164300 6.489800
3.183000 6.486700
3.201800 6.942500
3.220500 6.269300
3.239200 5.366400
3.257900 4.869200
3.276700 4.275700
3.295400 3.753900
3.314100 3.412300
3.332900 3.122600
3.351600 3.023800
3.370300 2.942100
3.389100 2.877600
3.407800 2.817800
3.426500 2.715000
3.445200 2.622400
3.464000 2.574700
3.482700 2.553100
3.501400 2.543600
3.520200 2.531600
3.538900 2.486100
3.557600 2.299400
3.576400 2.087600
3.595100 1.972100
3.613800 1.876200
3.632500 1.800500
3.651300 1.744600
3.670000 1.699400
3.688700 1.718800
3.707500 1.784300
3.726200 1.813400
3.744900 1.972400
3.763700 2.215200
3.782400 2.473400
3.801100 2.805500
3.819800 3.141500
3.838600 3.457100
3.857300 3.808100
3.876000 4.245100
3.894800 4.419500
3.913500 4.552500
3.932200 4.393200
3.951000 4.376700
3.969700 4.380400
3.988400 4.190600
4.007100 4.027700
4.025900 3.891000
4.044600 3.825400
4.063300 3.794800
4.082100 3.738600
4.100800 3.604700
4.119500 3.449200
4.138300 3.384300
4.157000 3.351000
4.175700 3.344500
4.194400 3.333000
4.213200 3.313800
4.231900 3.309300
4.250600 3.308600
4.269400 3.331600
4.288100 3.371600
4.306800 3.385600
4.325600 3.364400
4.344300 3.353200
4.363000 3.374400
4.381700 3.412300
4.400500 3.447600
4.419200 3.459300
4.437900 3.324500
4.456700 3.172100
4.475400 3.103600
4.494100 3.019800
4.512800 2.995900
4.531600 3.003000
4.550300 3.000500
4.569000 2.972800
4.587800 2.924000
4.606500 2.856900
4.625200 2.792200
4.644000 2.749000
4.662700 2.718300
4.681400 2.697700
4.700100 2.683600
4.718900 2.640800
4.737600 2.587700
4.756300 2.578500
4.775100 2.646600
4.793800 2.786100
4.812500 2.778300
4.831300 2.702500
4.850000 2.634400
4.868700 2.627800
4.887400 2.623100
4.906200 2.621500
4.924900 2.649000
4.943600 2.687100
4.962400 2.734100
4.981100 2.819100
4.999800 2.844900
5.018600 2.809100
5.037300 2.802400
5.056000 2.751600
5.074700 2.693200
5.093500 2.686200
5.112200 2.653900
5.130900 2.630300
5.149700 2.616000
5.168400 2.607600
5.187100 2.627000
5.205900 2.660600
5.224600 2.734200
5.243300 2.822900
5.262000 2.900600
5.280800 2.919200
5.299500 2.947600
5.318200 2.945100
5.337000 2.883600
5.355700 2.810200
5.374400 2.744600
5.393200 2.682200
5.411900 2.616500
5.430600 2.552200
5.449300 2.501300
5.468100 2.451700
5.486800 2.416300
5.505500 2.392700
5.524300 2.371300
5.543000 2.351200
5.561700 2.331900
5.580500 2.365800
5.599200 2.419900
5.617900 2.443600
5.636600 2.422000
5.655400 2.331200
5.674100 2.229100
5.692800 2.165000
5.711600 2.116600
5.730300 2.075800
5.749000 2.028600
5.767800 1.990400
5.786500 1.957800
5.805200 1.941800
5.823900 1.948100
5.842700 1.956100
5.861400 1.966000
5.880100 1.978000
5.898900 1.994300
5.917600 2.014000
5.936300 2.035700
5.955100 2.063800
5.973800 2.101700
5.992500 2.135300
6.011200 2.165400
6.030000 2.197900
6.048700 2.233100
6.067400 2.273200
6.086200 2.306200
6.104900 2.338000
6.123600 2.370900
6.142400 2.510700
6.161100 2.648800
6.179800 2.639100
6.198500 2.613300
6.217300 2.652500
6.236000 2.697200
6.254700 2.725000
6.273500 2.733300
6.292200 2.712100
6.310900 2.669800
6.329700 2.636000
6.348400 2.600300
6.367100 2.578700
6.385800 2.565900
6.404600 2.571600
6.423300 2.594700
6.442000 2.626500
6.460800 2.668900
6.479500 2.718100
6.498200 2.770500
6.517000 2.817600
6.535700 2.840000
6.554400 2.831200
6.573100 2.747100
6.591900 2.713100
6.610600 2.688300
6.629300 2.636300
6.648100 2.821400
6.666800 2.530100
6.685500 2.294900
6.704300 2.208100
6.723000 2.108700
6.741700 2.017300
6.760400 1.952900
6.779200 1.894700
6.797900 1.848000
6.816600 1.823000
6.835400 1.802900
6.854100 1.785500
6.872800 1.744900
6.891600 1.782700
6.910300 1.806400
6.929000 1.836500
6.947700 1.878900
6.966500 1.960400
6.985200 2.051600
7.003900 2.142800
7.022700 2.470800
7.041400 2.829400
7.060100 2.663800
7.078900 2.693700
7.097600 2.665500
7.116300 2.596300
7.135000 2.618700
7.153800 2.620600
7.172500 2.616100
7.191200 2.621800
7.210000 3.058000
7.228700 2.654300
7.247400 2.543500
7.266200 2.539400
7.284900 2.544500
7.303600 2.571400
7.322300 3.027200
7.341100 2.686900
7.359800 2.058300
7.378500 2.101200
7.397300 2.192100
7.416000 2.397500
7.434700 2.566900
7.453500 2.658700
7.472200 2.796600
7.490900 2.949400
7.509600 3.098600
7.528400 3.259500
7.547100 3.396800
7.565800 3.518600
7.584600 3.732800
7.603300 3.982100
7.622000 4.298000
7.640800 4.687600
7.659500 5.309200
7.678200 5.792700
7.696900 6.231200
7.715700 6.395200
7.734400 6.378600
7.753100 6.390600
7.771900 6.456900
7.790600 6.631300
7.809300 6.852200
7.828100 6.481100
7.846800 6.129400
7.865500 5.784800
7.884200 5.585000
7.903000 4.688500
7.921700 4.326600
7.940400 4.091300
7.959200 3.830800
7.977900 3.493400
7.996600 3.257100
8.015400 3.046900
8.034100 2.879300
8.052800 2.745200
8.071500 2.643400
8.090300 2.439200
8.109000 2.325100
8.127700 2.216300
8.146500 2.140900
8.165200 2.071700
8.183900 1.841600
8.202700 1.732400
8.221400 1.584400
8.240100 1.455200
8.258800 1.343900
8.277600 1.239900
8.296300 1.111700
8.315000 0.961400
8.333800 0.899900
8.352500 0.870800
8.371200 0.829300
8.390000 0.796300
8.408700 0.766100
8.427400 0.737300
8.446100 0.708500
8.464900 0.676800
8.483600 0.641600
8.502300 0.598600
8.521100 0.556700
8.539800 0.521700
8.558500 0.484400
8.577300 0.450900
8.596000 0.436500
8.614700 0.436500
8.633400 0.436500
8.652200 0.436400
8.670900 0.436400
8.689600 0.436400
8.708400 0.436400
8.727100 0.436300
8.745800 0.436300
8.764600 0.436300
8.783300 0.436300
8.802000 0.436300
8.820700 0.436300
8.839500 0.436200
8.858200 0.436200
8.876900 0.436200
8.895700 0.436200
8.914400 0.436200
8.933100 0.436200
8.951900 0.436100
8.970600 0.436200
8.989300 0.475000
9.008000 0.511300
9.026800 0.553900
9.045500 0.602100
9.064200 0.650800
9.083000 0.683800
9.101700 0.704700
9.120400 0.716300
9.139200 0.727400
9.157900 0.737900
9.176600 0.747900
9.195300 0.757200
9.214100 0.766000
9.232800 0.774900
9.251500 0.784800
9.270300 0.794700
9.289000 0.804000
9.307700 0.813600
9.326500 0.823500
9.345200 0.833800
9.363900 0.844400
9.382600 0.855400
9.401400 0.868500
9.420100 0.889300
9.438800 0.918900
9.457600 0.958600
9.476300 0.997200
9.495000 1.035700
9.513800 1.075200
9.532500 1.115300
9.551200 1.094000
9.569900 1.081300
9.588700 1.017500
9.607400 0.942000
9.626100 0.886100
9.644900 0.882900
9.663600 0.840600
9.682300 0.806300
9.701100 0.751600
9.719800 0.678600
9.738500 0.646800
9.757200 0.612300
9.776000 0.587000
9.794700 0.572700
9.813400 0.559500
9.832200 0.548300
9.850900 0.539200
9.869600 0.532000
9.888400 0.526600
9.907100 0.523200
9.925800 0.522000
9.944500 0.529100
9.963300 0.550900
9.982000 0.609900
10.000700 0.673800
10.019500 0.796800
10.038200 0.979400
10.056900 1.136300
10.075700 1.372400
10.094400 1.494300
10.113100 1.594600
10.131800 1.622300
10.150600 1.690900
10.169300 1.894400
10.188000 2.091500
10.206800 2.213400
10.225500 2.333100
10.244200 2.466700
10.262900 2.543600
10.281700 2.552100
10.300400 2.571700
10.319100 2.608200
10.337900 2.617200
10.356600 2.648100
10.375300 2.681000
10.394100 2.691800
10.412800 2.710300
10.431500 2.792300
10.450200 2.879700
10.469000 2.905000
10.487700 2.850400
10.506400 2.797800
10.525200 2.712600
10.543900 2.609800
10.562600 2.510000
10.581400 2.480800
10.600100 2.470300
