set title 'mp-1069815 - Density of States'
set xlabel 'Energy (eV)'
set ylabel 'DOS (states/eV)'
set grid
set xrange [-10:10]
set yrange [0:128.225]
set xzeroaxis lt -1
set terminal png size 800,600
set output 'mp-1069815_dos_gnuplot.png'
plot '-' using 1:2 with lines title 'DOS'
-8.382100 0.000000
-8.366500 0.000000
-8.350900 0.000000
-8.335400 0.000000
-8.319800 0.000000
-8.304200 0.000000
-8.288700 0.000000
-8.273100 0.000000
-8.257600 0.000000
-8.242000 0.000000
-8.226400 0.000000
-8.210900 0.000000
-8.195300 0.000000
-8.179800 0.000000
-8.164200 0.000000
-8.148600 0.000000
-8.133100 0.000000
-8.117500 0.000000
-8.101900 0.000000
-8.086400 0.000000
-8.070800 0.000000
-8.055300 0.000000
-8.039700 0.000000
-8.024100 0.000000
-8.008600 0.000000
-7.993000 0.000000
-7.977400 0.000000
-7.961900 0.000000
-7.946300 0.000000
-7.930800 0.000000
-7.915200 0.000000
-7.899600 0.000000
-7.884100 0.000000
-7.868500 0.000000
-7.853000 0.000000
-7.837400 0.000000
-7.821800 0.000000
-7.806300 0.000000
-7.790700 0.000000
-7.775100 0.000000
-7.759600 0.000000
-7.744000 0.000000
-7.728500 0.000000
-7.712900 0.000000
-7.697300 0.000000
-7.681800 0.000000
-7.666200 0.000000
-7.650700 0.000000
-7.635100 0.000000
-7.619500 0.000000
-7.604000 0.000000
-7.588400 0.000000
-7.572800 0.000000
-7.557300 0.000000
-7.541700 0.000000
-7.526200 0.000000
-7.510600 0.000000
-7.495000 0.000000
-7.479500 0.000000
-7.463900 0.000000
-7.448300 0.000000
-7.432800 0.000000
-7.417200 0.000000
-7.401700 0.000000
-7.386100 0.000000
-7.370500 0.000000
-7.355000 0.000000
-7.339400 0.000000
-7.323900 0.000000
-7.308300 0.000000
-7.292700 0.000000
-7.277200 0.000000
-7.261600 0.000000
-7.246000 0.000000
-7.230500 0.000000
-7.214900 0.000000
-7.199400 0.000000
-7.183800 0.000000
-7.168200 0.000000
-7.152700 0.000000
-7.137100 0.000000
-7.121500 0.000000
-7.106000 0.000000
-7.090400 0.000000
-7.074900 0.000000
-7.059300 0.000000
-7.043700 0.000000
-7.028200 0.000000
-7.012600 0.000000
-6.997100 0.000000
-6.981500 0.000000
-6.965900 0.249500
-6.950400 6.534500
-6.934800 11.048900
-6.919200 16.703800
-6.903700 29.043600
-6.888100 37.804600
-6.872600 33.399300
-6.857000 49.844600
-6.841400 59.068000
-6.825900 59.370700
-6.810300 62.677800
-6.794700 80.549000
-6.779200 62.841100
-6.763600 67.146300
-6.748100 83.304000
-6.732500 113.868700
-6.716900 64.426500
-6.701400 74.493300
-6.685800 62.678000
-6.670300 87.896700
-6.654700 116.568300
-6.639100 57.408000
-6.623600 80.671100
-6.608000 54.804200
-6.592400 52.109800
-6.576900 64.460100
-6.561300 77.359700
-6.545800 60.784500
-6.530200 68.053000
-6.514600 32.162500
-6.499100 16.078700
-6.483500 11.832700
-6.468000 17.279700
-6.452400 28.298900
-6.436800 18.371800
-6.421300 19.468700
-6.405700 22.103800
-6.390100 19.044000
-6.374600 18.762600
-6.359000 18.043700
-6.343500 2.703600
-6.327900 0.000000
-6.312300 0.000000
-6.296800 0.000000
-6.281200 0.000000
-6.265600 0.000000
-6.250100 0.000000
-6.234500 0.000000
-6.219000 0.000000
-6.203400 0.000000
-6.187800 0.000000
-6.172300 0.000000
-6.156700 0.000000
-6.141200 0.000000
-6.125600 0.000000
-6.110000 0.000000
-6.094500 0.000000
-6.078900 0.000000
-6.063300 0.000000
-6.047800 0.000000
-6.032200 0.000000
-6.016700 0.000000
-6.001100 0.000000
-5.985500 0.000000
-5.970000 0.000000
-5.954400 0.000000
-5.938800 0.000000
-5.923300 0.000000
-5.907700 0.000000
-5.892200 0.000000
-5.876600 0.000000
-5.861000 0.000000
-5.845500 0.000000
-5.829900 0.000000
-5.814400 0.000000
-5.798800 0.000000
-5.783200 0.000000
-5.767700 0.000000
-5.752100 0.000000
-5.736500 0.000000
-5.721000 0.000000
-5.705400 0.000000
-5.689900 0.000000
-5.674300 0.000000
-5.658700 0.000000
-5.643200 0.000000
-5.627600 0.000000
-5.612100 0.000000
-5.596500 0.000000
-5.580900 0.000000
-5.565400 0.000000
-5.549800 0.000000
-5.534200 0.000000
-5.518700 0.000000
-5.503100 0.000000
-5.487600 0.000000
-5.472000 0.000000
-5.456400 0.000000
-5.440900 0.000000
-5.425300 0.000000
-5.409700 0.000000
-5.394200 0.000000
-5.378600 0.000000
-5.363100 0.000000
-5.347500 0.000000
-5.331900 0.000000
-5.316400 0.000000
-5.300800 0.000000
-5.285300 0.000000
-5.269700 0.000000
-5.254100 0.000000
-5.238600 0.000000
-5.223000 0.000000
-5.207400 0.000000
-5.191900 0.000000
-5.176300 0.000000
-5.160800 0.000000
-5.145200 0.000000
-5.129600 0.000000
-5.114100 0.000000
-5.098500 0.000000
-5.082900 0.000000
-5.067400 0.000000
-5.051800 0.000000
-5.036300 0.000000
-5.020700 0.000000
-5.005100 0.000000
-4.989600 0.000000
-4.974000 0.000000
-4.958500 0.000000
-4.942900 0.000000
-4.927300 0.000000
-4.911800 0.000000
-4.896200 0.000000
-4.880600 0.000000
-4.865100 0.000000
-4.849500 0.000000
-4.834000 0.000000
-4.818400 0.000000
-4.802800 0.000000
-4.787300 0.000000
-4.771700 0.000000
-4.756200 0.000000
-4.740600 0.000000
-4.725000 0.000000
-4.709500 0.000000
-4.693900 0.000000
-4.678300 0.000000
-4.662800 0.000000
-4.647200 0.000000
-4.631700 0.000000
-4.616100 0.000000
-4.600500 0.000000
-4.585000 0.000000
-4.569400 0.000000
-4.553800 0.000000
-4.538300 0.000000
-4.522700 0.000000
-4.507200 0.000000
-4.491600 0.000000
-4.476000 0.000000
-4.460500 0.000000
-4.444900 0.000000
-4.429400 0.000000
-4.413800 0.000000
-4.398200 0.000000
-4.382700 0.000000
-4.367100 0.000000
-4.351500 0.000000
-4.336000 0.000000
-4.320400 0.000000
-4.304900 0.000000
-4.289300 0.000000
-4.273700 0.000000
-4.258200 0.000000
-4.242600 0.000000
-4.227000 0.000000
-4.211500 0.000000
-4.195900 0.000000
-4.180400 0.000000
-4.164800 0.000000
-4.149200 0.000000
-4.133700 0.000000
-4.118100 0.000000
-4.102600 0.000000
-4.087000 0.000000
-4.071400 0.000000
-4.055900 0.000000
-4.040300 0.000000
-4.024700 0.000000
-4.009200 0.000000
-3.993600 0.000000
-3.978100 0.000000
-3.962500 0.000000
-3.946900 0.000000
-3.931400 0.000000
-3.915800 0.000000
-3.900200 0.000000
-3.884700 0.000000
-3.869100 0.000000
-3.853600 0.000000
-3.838000 0.000000
-3.822400 0.000000
-3.806900 0.000000
-3.791300 0.000000
-3.775800 0.000000
-3.760200 0.000000
-3.744600 0.000000
-3.729100 0.000000
-3.713500 0.000000
-3.697900 0.000000
-3.682400 0.000000
-3.666800 0.000000
-3.651300 0.000000
-3.635700 0.000000
-3.620100 0.000000
-3.604600 0.000000
-3.589000 0.000000
-3.573500 0.000000
-3.557900 0.000000
-3.542300 0.000000
-3.526800 0.000000
-3.511200 0.000000
-3.495600 0.000000
-3.480100 0.000000
-3.464500 0.000000
-3.449000 0.000000
-3.433400 0.000000
-3.417800 0.000000
-3.402300 0.000000
-3.386700 0.000000
-3.371100 0.000000
-3.355600 0.000000
-3.340000 0.000000
-3.324500 0.000000
-3.308900 0.000000
-3.293300 0.000000
-3.277800 0.000000
-3.262200 0.000000
-3.246700 0.000000
-3.231100 0.000000
-3.215500 0.000000
-3.200000 0.000000
-3.184400 0.000000
-3.168800 0.000000
-3.153300 0.000000
-3.137700 0.000000
-3.122200 0.000000
-3.106600 0.000000
-3.091000 0.000000
-3.075500 0.000000
-3.059900 0.000000
-3.044300 0.000000
-3.028800 0.000000
-3.013200 0.000000
-2.997700 0.000000
-2.982100 0.000000
-2.966500 0.000000
-2.951000 0.000000
-2.935400 0.000000
-2.919900 0.000000
-2.904300 0.000000
-2.888700 0.000000
-2.873200 0.000000
-2.857600 0.000000
-2.842000 0.000000
-2.826500 0.000000
-2.810900 0.000000
-2.795400 0.000000
-2.779800 0.000000
-2.764200 0.000000
-2.748700 0.000000
-2.733100 0.000000
-2.717600 0.000000
-2.702000 0.000000
-2.686400 0.000000
-2.670900 0.000000
-2.655300 0.000000
-2.639700 0.000000
-2.624200 0.000000
-2.608600 0.000000
-2.593100 0.000000
-2.577500 0.000000
-2.561900 0.000000
-2.546400 0.000000
-2.530800 0.000000
-2.515200 0.000000
-2.499700 0.000000
-2.484100 0.000000
-2.468600 0.000000
-2.453000 0.000000
-2.437400 0.000000
-2.421900 0.000000
-2.406300 0.000000
-2.390800 0.000000
-2.375200 0.000000
-2.359600 0.000000
-2.344100 0.000000
-2.328500 0.000000
-2.312900 0.000000
-2.297400 0.000000
-2.281800 0.000000
-2.266300 0.000000
-2.250700 0.000000
-2.235100 0.000000
-2.219600 0.000000
-2.204000 0.000000
-2.188400 0.000000
-2.172900 0.000000
-2.157300 0.000000
-2.141800 0.000000
-2.126200 0.000000
-2.110600 0.009800
-2.095100 0.040600
-2.079500 0.091800
-2.064000 0.136600
-2.048400 0.151100
-2.032800 0.153400
-2.017300 0.164100
-2.001700 0.182100
-1.986100 0.200600
-1.970600 0.219800
-1.955000 0.239300
-1.939500 0.254400
-1.923900 0.263700
-1.908300 0.267400
-1.892800 0.272000
-1.877200 0.279800
-1.861700 0.289500
-1.846100 0.300000
-1.830500 0.310400
-1.815000 0.320900
-1.799400 0.331300
-1.783800 0.341700
-1.768300 0.352600
-1.752700 0.363900
-1.737200 0.374300
-1.721600 0.380700
-1.706000 0.385500
-1.690500 0.391200
-1.674900 0.398500
-1.659300 0.405600
-1.643800 0.412500
-1.628200 0.419200
-1.612700 0.426000
-1.597100 0.433000
-1.581500 0.440300
-1.566000 0.447800
-1.550400 0.455800
-1.534900 0.464100
-1.519300 0.472500
-1.503700 0.481000
-1.488200 0.489600
-1.472600 0.498500
-1.457000 0.507300
-1.441500 0.515400
-1.425900 0.522300
-1.410400 0.528500
-1.394800 0.535100
-1.379200 0.542200
-1.363700 0.549800
-1.348100 0.557400
-1.332500 0.565100
-1.317000 0.572700
-1.301400 0.580400
-1.285900 0.588000
-1.270300 0.595700
-1.254700 0.603600
-1.239200 0.622700
-1.223600 0.653500
-1.208100 0.681300
-1.192500 0.705900
-1.176900 0.668000
-1.161400 0.672400
-1.145800 0.676600
-1.130200 0.680500
-1.114700 0.684300
-1.099100 0.687800
-1.083600 0.690000
-1.068000 0.690100
-1.052400 0.686800
-1.036900 0.684400
-1.021300 0.682300
-1.005700 0.682500
-0.990200 0.683900
-0.974600 0.685400
-0.959100 0.686900
-0.943500 0.688500
-0.927900 0.690000
-0.912400 0.691600
-0.896800 0.693200
-0.881300 0.694800
-0.865700 0.696300
-0.850100 0.697700
-0.834600 0.694100
-0.819000 0.695100
-0.803400 0.696100
-0.787900 0.697200
-0.772300 0.698400
-0.756800 0.699600
-0.741200 0.700900
-0.725600 0.702500
-0.710100 0.704600
-0.694500 0.706600
-0.679000 0.708600
-0.663400 0.710500
-0.647800 0.712000
-0.632300 0.713200
-0.616700 0.714200
-0.601100 0.715400
-0.585600 0.716800
-0.570000 0.718200
-0.554500 0.718900
-0.538900 0.718900
-0.523300 0.719100
-0.507800 0.719500
-0.492200 0.720800
-0.476600 0.722400
-0.461100 0.724100
-0.445500 0.726000
-0.430000 0.728000
-0.414400 0.730100
-0.398800 0.732200
-0.383300 0.734400
-0.367700 0.736600
-0.352200 0.738900
-0.336600 0.741300
-0.321000 0.743800
-0.305500 0.746400
-0.289900 0.748900
-0.274300 0.751500
-0.258800 0.754200
-0.243200 0.757200
-0.227700 0.760500
-0.212100 0.764000
-0.196500 0.767800
-0.181000 0.809300
-0.165400 0.853600
-0.149800 0.901800
-0.134300 0.861300
-0.118700 0.873900
-0.103200 0.887000
-0.087600 0.901100
-0.072000 0.916400
-0.056500 0.932900
-0.040900 0.945300
-0.025400 0.956000
-0.009800 0.966800
0.005800 0.981000
0.021300 1.004500
0.036900 1.076800
0.052500 1.130100
0.068000 1.152900
0.083600 1.143700
0.099100 1.126000
0.114700 1.108800
0.130300 1.099300
0.145800 1.091900
0.161400 1.091700
0.176900 1.090000
0.192500 1.085900
0.208100 1.079100
0.223600 1.069700
0.239200 1.061700
0.254800 1.054500
0.270300 1.049000
0.285900 1.049600
0.301400 1.061900
0.317000 1.085700
0.332600 1.113500
0.348100 1.110900
0.363700 1.087200
0.379300 1.058400
0.394800 1.048500
0.410400 1.043200
0.425900 1.038600
0.441500 1.033900
0.457100 1.028800
0.472600 1.022500
0.488200 1.015100
0.503700 1.008300
0.519300 1.003500
0.534900 1.000300
0.550400 0.997400
0.566000 0.994500
0.581600 0.991700
0.597100 0.988800
0.612700 0.986100
0.628200 0.983600
0.643800 0.981300
0.659400 0.979000
0.674900 0.975400
0.690500 0.971700
0.706100 0.968200
0.721600 0.964900
0.737200 0.962300
0.752700 1.001500
0.768300 0.990300
0.783900 0.980100
0.799400 0.950700
0.815000 0.960600
0.830500 0.974400
0.846100 0.991500
0.861700 1.014300
0.877200 1.044500
0.892800 1.106300
0.908400 1.216600
0.923900 1.389600
0.939500 1.324300
0.955000 1.331500
0.970600 1.340600
0.986200 1.336700
1.001700 1.357700
1.017300 1.378700
1.032900 1.388000
1.048400 1.424500
1.064000 1.521200
1.079500 1.608300
1.095100 1.743600
1.110700 1.916000
1.126200 1.954700
1.141800 1.988100
1.157300 2.024800
1.172900 2.024400
1.188500 1.969800
1.204000 1.941600
1.219600 1.940100
1.235200 1.944300
1.250700 1.951100
1.266300 1.954600
1.281800 1.959100
1.297400 1.973400
1.313000 1.983000
1.328500 1.981600
1.344100 1.983400
1.359600 1.986000
1.375200 2.012900
1.390800 2.000700
1.406300 1.997000
1.421900 1.986300
1.437500 1.977000
1.453000 1.970800
1.468600 1.972400
1.484100 2.021100
1.499700 2.000900
1.515300 2.221500
1.530800 2.199900
1.546400 2.214000
1.562000 2.218500
1.577500 2.221900
1.593100 2.233000
1.608600 2.273900
1.624200 2.316200
1.639800 2.282400
1.655300 2.191300
1.670900 2.094000
1.686400 2.031300
1.702000 1.971000
1.717600 1.912400
1.733100 1.830500
1.748700 1.803500
1.764300 1.792500
1.779800 1.803700
1.795400 1.813600
1.810900 1.810100
1.826500 1.820800
1.842100 1.826900
1.857600 1.878100
1.873200 1.957200
1.888800 2.069000
1.904300 2.194700
1.919900 2.336300
1.935400 2.460600
1.951000 2.597000
1.966600 2.830000
1.982100 3.223900
1.997700 3.628200
2.013200 4.357900
2.028800 4.807600
2.044400 4.827400
2.059900 5.913600
2.075500 4.314600
2.091100 4.535400
2.106600 4.202500
2.122200 3.371100
2.137700 3.080900
2.153300 2.885600
2.168900 3.025800
2.184400 2.690200
2.200000 2.532800
2.215500 2.378600
2.231100 2.206600
2.246700 2.044900
2.262200 1.900700
2.277800 1.793300
2.293400 1.707400
2.308900 1.635800
2.324500 1.569500
2.340000 1.530100
2.355600 1.500600
2.371200 1.629600
2.386700 1.889400
2.402300 1.943400
2.417900 1.977300
2.433400 1.998900
2.449000 2.005900
2.464500 2.007600
2.480100 2.005500
2.495700 1.991200
2.511200 1.980600
2.526800 1.936700
2.542300 1.874200
2.557900 1.812400
2.573500 1.762400
2.589000 1.721700
2.604600 1.683900
2.620200 1.647200
2.635700 1.608200
2.651300 1.570900
2.666800 1.540900
2.682400 1.515200
2.698000 1.524400
2.713500 1.502400
2.729100 1.481600
2.744700 1.467500
2.760200 1.457100
2.775800 1.448900
2.791300 1.442300
2.806900 1.437000
2.822500 1.433700
2.838000 1.431200
2.853600 1.427900
2.869100 1.423400
2.884700 1.417700
2.900300 1.411200
2.915800 1.405100
2.931400 1.400400
2.947000 1.398900
2.962500 1.400200
2.978100 1.403100
2.993600 1.408000
3.009200 1.418300
3.024800 1.432400
3.040300 1.453100
3.055900 1.475300
3.071400 1.493400
3.087000 1.507700
3.102600 1.521400
3.118100 1.539200
3.133700 1.561400
3.149300 1.581400
3.164800 1.599100
3.180400 1.615600
3.195900 1.698300
3.211500 1.655300
3.227100 1.643100
3.242600 1.669000
3.258200 1.734600
3.273800 1.803700
3.289300 2.391900
3.304900 2.893000
3.320400 3.191100
3.336000 3.541500
3.351600 4.018800
3.367100 4.630100
3.382700 5.698700
3.398200 5.670000
3.413800 4.901600
3.429400 4.760900
3.444900 4.731600
3.460500 4.837300
3.476100 4.967300
3.491600 5.132900
3.507200 5.345300
3.522700 5.275900
3.538300 5.293200
3.553900 5.575300
3.569400 5.675900
3.585000 5.926700
3.600600 5.519600
3.616100 5.363800
3.631700 5.182500
3.647200 4.963200
3.662800 5.205000
3.678400 4.908000
3.693900 4.645700
3.709500 4.357100
3.725000 4.086500
3.740600 3.967100
3.756200 3.871200
3.771700 3.772800
3.787300 3.696400
3.802900 3.890200
3.818400 4.765000
3.834000 5.209300
3.849500 5.724700
3.865100 6.257500
3.880700 6.099700
3.896200 6.199200
3.911800 6.221800
3.927400 6.218900
3.942900 6.327400
3.958500 6.751900
3.974000 7.234400
3.989600 7.509800
4.005200 8.554500
4.020700 9.325100
4.036300 10.292600
4.051800 10.901700
4.067400 12.194600
4.083000 16.282600
4.098500 12.799700
4.114100 10.100200
4.129700 9.025400
4.145200 8.504200
4.160800 8.043500
4.176300 7.563100
4.191900 7.265700
4.207500 6.974400
4.223000 6.734200
4.238600 8.117300
4.254100 8.318700
4.269700 5.501100
4.285300 4.632300
4.300800 5.652800
4.316400 6.151300
4.332000 6.118100
4.347500 5.658200
4.363100 5.527600
4.378600 5.881900
4.394200 5.950200
4.409800 5.969900
4.425300 6.065400
4.440900 6.220500
4.456500 6.182500
4.472000 6.276700
4.487600 6.059900
4.503100 5.928300
4.518700 5.853200
4.534300 5.857900
4.549800 6.201700
4.565400 6.475500
4.580900 5.790200
4.596500 5.449400
4.612100 5.530700
4.627600 5.618100
4.643200 5.827600
4.658800 6.155200
4.674300 6.673900
4.689900 7.609000
4.705400 7.254200
4.721000 6.683900
4.736600 6.389300
4.752100 6.211100
4.767700 6.174300
4.783300 6.362100
4.798800 7.026500
4.814400 7.929700
4.829900 8.932000
4.845500 8.843600
4.861100 8.912100
4.876600 8.519600
4.892200 8.151600
4.907700 7.718500
4.923300 7.247800
4.938900 6.788600
4.954400 6.277800
4.970000 5.985500
4.985600 5.965100
5.001100 5.755000
5.016700 5.550200
5.032200 5.350400
5.047800 4.261100
5.063400 3.987600
5.078900 3.767500
5.094500 3.578500
5.110000 3.599500
5.125600 3.797300
5.141200 4.811500
5.156700 7.124300
5.172300 7.945500
5.187900 10.224700
5.203400 11.760500
5.219000 18.017300
5.234500 17.302800
5.250100 16.946100
5.265700 14.741800
5.281200 13.135600
5.296800 10.766300
5.312400 9.798500
5.327900 9.231500
5.343500 9.741000
5.359000 9.467800
5.374600 8.850800
5.390200 8.716600
5.405700 8.559300
5.421300 9.922700
5.436800 10.751900
5.452400 10.247600
5.468000 9.296600
5.483500 8.689700
5.499100 8.399600
5.514700 8.327300
5.530200 8.161200
5.545800 8.270900
5.561300 8.452600
5.576900 8.549400
5.592500 8.657300
5.608000 8.440200
5.623600 7.776500
5.639200 7.390400
5.654700 7.486900
5.670300 7.556300
5.685800 7.542500
5.701400 7.454000
5.717000 8.009200
5.732500 6.213800
5.748100 3.896000
5.763600 3.501100
5.779200 3.426100
5.794800 3.412300
5.810300 3.495400
5.825900 3.577200
5.841500 3.709100
5.857000 3.855900
5.872600 3.390500
5.888100 2.858600
5.903700 2.426600
5.919300 2.227400
5.934800 2.074200
5.950400 1.986200
5.965900 1.908600
5.981500 1.845300
5.997100 1.798900
6.012600 1.767100
6.028200 1.756400
6.043800 1.745100
6.059300 1.750500
6.074900 1.764700
6.090400 1.797500
6.106000 1.915400
6.121600 1.994200
6.137100 2.020600
6.152700 2.010100
6.168300 2.011100
6.183800 1.933100
6.199400 1.985700
6.214900 2.033500
6.230500 2.095000
6.246100 2.184200
6.261600 2.250500
6.277200 2.280200
6.292700 2.305400
6.308300 2.324000
6.323900 2.403700
6.339400 2.515200
6.355000 2.619900
6.370600 3.031900
6.386100 3.010100
6.401700 2.996400
6.417200 2.862400
6.432800 2.820600
6.448400 2.810400
6.463900 2.813100
6.479500 2.711900
6.495100 2.700100
6.510600 2.711800
6.526200 2.772700
6.541700 2.739200
6.557300 2.676600
6.572900 2.641400
6.588400 2.621700
6.604000 2.615800
6.619500 2.608100
6.635100 2.573600
6.650700 2.547700
6.666200 2.546400
6.681800 2.553000
6.697400 2.565400
6.712900 2.574600
6.728500 2.580200
6.744000 2.589700
6.759600 2.609100
6.775200 2.639500
6.790700 2.616300
6.806300 2.614600
6.821900 2.614800
6.837400 2.615700
6.853000 2.614200
6.868500 2.604200
6.884100 2.576000
6.899700 2.550300
6.915200 2.523600
6.930800 2.494400
6.946300 2.471800
6.961900 2.451100
6.977500 2.434200
6.993000 2.430100
7.008600 2.448400
7.024200 2.450200
7.039700 2.450600
7.055300 2.446000
7.070800 2.436500
7.086400 2.423100
7.102000 2.420400
7.117500 2.459300
7.133100 2.489700
7.148600 2.492100
7.164200 2.426100
7.179800 2.352700
7.195300 2.287600
7.210900 2.217800
7.226500 2.146600
7.242000 2.051800
7.257600 1.933300
7.273100 1.901000
7.288700 1.874300
7.304300 1.848100
7.319800 1.822600
7.335400 1.797700
7.351000 1.773700
7.366500 1.751200
7.382100 1.730800
7.397600 1.712200
7.413200 1.697000
7.428800 1.685500
7.444300 1.670300
7.459900 1.649100
7.475400 1.630500
7.491000 1.615500
7.506600 1.599500
7.522100 1.580200
7.537700 1.560500
7.553300 1.540600
7.568800 1.513100
7.584400 1.486300
7.599900 1.460300
7.615500 1.434400
7.631100 1.410000
7.646600 1.386200
7.662200 1.366100
7.677800 1.349700
7.693300 1.333000
7.708900 1.316500
7.724400 1.299000
7.740000 1.283100
7.755600 1.270200
7.771100 1.258500
7.786700 1.245300
7.802200 1.232700
7.817800 1.220400
7.833400 1.207100
7.848900 1.192200
7.864500 1.177300
7.880100 1.162200
7.895600 1.149300
7.911200 1.137000
7.926700 1.125300
7.942300 1.114300
7.957900 1.104300
7.973400 1.095400
7.989000 1.086500
8.004500 1.077300
8.020100 1.180000
8.035700 1.188400
8.051200 1.195100
8.066800 1.198800
8.082400 1.204800
8.097900 1.218200
8.113500 1.232900
8.129000 1.248900
