set title 'mp-8633 - Density of States'
set xlabel 'Energy (eV)'
set ylabel 'DOS (states/eV)'
set grid
set xrange [-10:10]
set yrange [0:8.290]
set xzeroaxis lt -1
set terminal png size 800,600
set output 'mp-8633_dos_gnuplot.png'
plot '-' using 1:2 with lines title 'DOS'
-44.750200 0.000000
-44.660000 0.000000
-44.569800 0.000000
-44.479500 0.000000
-44.389300 0.000000
-44.299100 0.000000
-44.208800 0.000000
-44.118600 0.000000
-44.028400 0.000000
-43.938200 0.000000
-43.847900 0.000000
-43.757700 0.000000
-43.667500 0.000000
-43.577200 0.000000
-43.487000 0.000000
-43.396800 0.000000
-43.306600 0.000000
-43.216300 0.000000
-43.126100 0.000000
-43.035900 0.000000
-42.945600 0.000000
-42.855400 0.000000
-42.765200 0.000000
-42.674900 0.000000
-42.584700 0.000000
-42.494500 0.000000
-42.404300 0.000000
-42.314000 0.000000
-42.223800 0.000000
-42.133600 0.000000
-42.043300 0.000000
-41.953100 0.000000
-41.862900 0.000000
-41.772600 0.000000
-41.682400 0.000000
-41.592200 0.000000
-41.502000 0.000000
-41.411700 0.000000
-41.321500 0.000000
-41.231300 0.000000
-41.141000 0.000000
-41.050800 0.000000
-40.960600 0.000000
-40.870400 0.000000
-40.780100 0.000000
-40.689900 0.000000
-40.599700 0.000000
-40.509400 0.000000
-40.419200 0.000000
-40.329000 0.000000
-40.238700 0.000000
-40.148500 0.000000
-40.058300 0.000000
-39.968100 0.000000
-39.877800 0.000000
-39.787600 0.000000
-39.697400 0.000000
-39.607100 0.000000
-39.516900 0.000000
-39.426700 0.000000
-39.336500 0.000000
-39.246200 0.000000
-39.156000 0.000000
-39.065800 0.000000
-38.975500 0.000000
-38.885300 0.000000
-38.795100 0.000000
-38.704800 0.000000
-38.614600 0.000000
-38.524400 0.000000
-38.434200 0.000000
-38.343900 0.000000
-38.253700 0.000000
-38.163500 0.000000
-38.073200 0.000000
-37.983000 0.000000
-37.892800 0.000000
-37.802500 0.000000
-37.712300 0.000000
-37.622100 0.000000
-37.531900 0.000000
-37.441600 0.000000
-37.351400 0.000000
-37.261200 0.000000
-37.170900 0.000000
-37.080700 0.000000
-36.990500 0.000000
-36.900300 0.000000
-36.810000 0.000000
-36.719800 0.000000
-36.629600 0.000000
-36.539300 0.677000
-36.449100 4.737000
-36.358900 10.050900
-36.268600 2.204700
-36.178400 4.489800
-36.088200 5.566100
-35.998000 12.581400
-35.907700 13.045900
-35.817500 12.779100
-35.727300 3.073100
-35.637000 0.000000
-35.546800 0.000000
-35.456600 0.000000
-35.366400 0.000000
-35.276100 0.000000
-35.185900 0.000000
-35.095700 0.000000
-35.005400 0.000000
-34.915200 0.000000
-34.825000 0.000000
-34.734700 0.000000
-34.644500 0.000000
-34.554300 0.000000
-34.464100 0.000000
-34.373800 0.000000
-34.283600 0.000000
-34.193400 0.000000
-34.103100 0.000000
-34.012900 0.000000
-33.922700 0.000000
-33.832400 0.000000
-33.742200 0.000000
-33.652000 0.000000
-33.561800 0.000000
-33.471500 0.000000
-33.381300 0.000000
-33.291100 0.000000
-33.200800 0.000000
-33.110600 0.000000
-33.020400 0.000000
-32.930200 0.000000
-32.839900 0.000000
-32.749700 0.000000
-32.659500 0.000000
-32.569200 0.000000
-32.479000 0.000000
-32.388800 0.000000
-32.298500 0.000000
-32.208300 0.000000
-32.118100 0.000000
-32.027900 0.000000
-31.937600 0.000000
-31.847400 0.000000
-31.757200 0.000000
-31.666900 0.000000
-31.576700 0.000000
-31.486500 0.000000
-31.396300 0.000000
-31.306000 0.000000
-31.215800 0.000000
-31.125600 0.000000
-31.035300 0.000000
-30.945100 0.000000
-30.854900 0.000000
-30.764600 0.000000
-30.674400 0.000000
-30.584200 0.000000
-30.494000 0.000000
-30.403700 0.000000
-30.313500 0.000000
-30.223300 0.000000
-30.133000 0.000000
-30.042800 0.000000
-29.952600 0.000000
-29.862300 0.000000
-29.772100 0.000000
-29.681900 0.000000
-29.591700 0.000000
-29.501400 0.000000
-29.411200 0.000000
-29.321000 0.000000
-29.230700 0.000000
-29.140500 0.000000
-29.050300 0.000000
-28.960100 0.000000
-28.869800 0.000000
-28.779600 0.000000
-28.689400 0.000000
-28.599100 0.000000
-28.508900 0.000000
-28.418700 0.000000
-28.328400 0.000000
-28.238200 0.000000
-28.148000 0.000000
-28.057800 0.000000
-27.967500 0.000000
-27.877300 0.000000
-27.787100 0.000000
-27.696800 0.000000
-27.606600 0.000000
-27.516400 0.000000
-27.426200 0.000000
-27.335900 0.000000
-27.245700 0.000000
-27.155500 0.000000
-27.065200 0.000000
-26.975000 0.000000
-26.884800 0.000000
-26.794500 0.000000
-26.704300 0.000000
-26.614100 0.000000
-26.523900 0.000000
-26.433600 0.000000
-26.343400 0.000000
-26.253200 0.000000
-26.162900 0.000000
-26.072700 0.000000
-25.982500 0.000000
-25.892200 0.000000
-25.802000 0.000000
-25.711800 0.000000
-25.621600 0.000000
-25.531300 0.000000
-25.441100 0.000000
-25.350900 0.000000
-25.260600 0.000000
-25.170400 0.000000
-25.080200 0.000000
-24.990000 0.000000
-24.899700 0.000000
-24.809500 0.000000
-24.719300 0.000000
-24.629000 0.000000
-24.538800 0.000000
-24.448600 0.000000
-24.358300 0.000000
-24.268100 0.000000
-24.177900 0.000000
-24.087700 0.000000
-23.997400 0.000000
-23.907200 0.000000
-23.817000 0.000000
-23.726700 0.000000
-23.636500 0.000000
-23.546300 0.000000
-23.456100 0.000000
-23.365800 0.000000
-23.275600 0.000000
-23.185400 0.000000
-23.095100 0.000000
-23.004900 0.000000
-22.914700 0.000000
-22.824400 0.000000
-22.734200 0.000000
-22.644000 0.000000
-22.553800 0.000000
-22.463500 0.000000
-22.373300 0.000000
-22.283100 0.000000
-22.192800 0.000000
-22.102600 0.000000
-22.012400 0.000000
-21.922100 0.000000
-21.831900 0.000000
-21.741700 0.000000
-21.651500 0.000000
-21.561200 0.000000
-21.471000 0.000000
-21.380800 0.000000
-21.290500 0.000000
-21.200300 0.000000
-21.110100 0.000000
-21.019900 0.000000
-20.929600 0.000000
-20.839400 0.000000
-20.749200 0.000000
-20.658900 0.000000
-20.568700 0.000000
-20.478500 0.000000
-20.388200 0.000000
-20.298000 0.000000
-20.207800 0.000000
-20.117600 0.000000
-20.027300 0.000000
-19.937100 0.000000
-19.846900 0.000000
-19.756600 0.000000
-19.666400 0.000000
-19.576200 0.000000
-19.486000 0.000000
-19.395700 0.000000
-19.305500 0.000000
-19.215300 0.000000
-19.125000 0.000000
-19.034800 0.000000
-18.944600 0.000000
-18.854300 0.000000
-18.764100 0.000000
-18.673900 0.000000
-18.583700 0.000000
-18.493400 0.000000
-18.403200 0.000000
-18.313000 0.000000
-18.222700 0.000000
-18.132500 0.000000
-18.042300 0.000000
-17.952000 0.000000
-17.861800 0.000000
-17.771600 0.000000
-17.681400 0.000000
-17.591100 0.000000
-17.500900 0.000000
-17.410700 0.000000
-17.320400 0.000000
-17.230200 0.000000
-17.140000 0.000000
-17.049800 0.000000
-16.959500 0.000000
-16.869300 0.000000
-16.779100 0.000000
-16.688800 0.000000
-16.598600 0.000000
-16.508400 0.000000
-16.418100 0.000000
-16.327900 0.000000
-16.237700 0.000000
-16.147500 0.000000
-16.057200 0.000000
-15.967000 0.000000
-15.876800 0.000000
-15.786500 0.000000
-15.696300 0.000000
-15.606100 0.000000
-15.515900 0.000000
-15.425600 0.000000
-15.335400 0.000000
-15.245200 0.000000
-15.154900 0.000000
-15.064700 0.000000
-14.974500 0.000000
-14.884200 0.000000
-14.794000 0.000000
-14.703800 0.000000
-14.613600 0.000000
-14.523300 0.000000
-14.433100 0.000000
-14.342900 0.000000
-14.252600 0.000000
-14.162400 0.000000
-14.072200 0.000000
-13.981900 0.000000
-13.891700 0.000000
-13.801500 0.000000
-13.711300 0.000000
-13.621000 0.000000
-13.530800 0.000000
-13.440600 0.000000
-13.350300 0.000000
-13.260100 0.000000
-13.169900 0.000000
-13.079700 0.000000
-12.989400 0.000000
-12.899200 0.000000
-12.809000 0.000000
-12.718700 0.000000
-12.628500 0.000000
-12.538300 0.000000
-12.448000 0.000000
-12.357800 0.000000
-12.267600 0.000000
-12.177400 0.000000
-12.087100 0.000000
-11.996900 0.000000
-11.906700 0.000000
-11.816400 0.000000
-11.726200 0.000000
-11.636000 0.000000
-11.545800 0.000000
-11.455500 0.000000
-11.365300 0.000000
-11.275100 0.000000
-11.184800 0.000000
-11.094600 0.000000
-11.004400 0.000000
-10.914100 0.000000
-10.823900 0.000000
-10.733700 0.000000
-10.643500 0.000000
-10.553200 0.000000
-10.463000 0.000000
-10.372800 0.000000
-10.282500 0.000000
-10.192300 0.000000
-10.102100 0.000000
-10.011800 0.000000
-9.921600 0.000000
-9.831400 0.000000
-9.741200 0.000000
-9.650900 0.000000
-9.560700 0.000000
-9.470500 0.000000
-9.380200 0.000000
-9.290000 0.000000
-9.199800 0.000000
-9.109600 0.000000
-9.019300 0.000000
-8.929100 0.000000
-8.838900 0.000000
-8.748600 0.000000
-8.658400 0.000000
-8.568200 0.000000
-8.477900 0.000000
-8.387700 0.000000
-8.297500 0.000000
-8.207300 0.000000
-8.117000 0.000000
-8.026800 0.000000
-7.936600 0.000000
-7.846300 0.000000
-7.756100 0.000000
-7.665900 0.000000
-7.575700 0.000000
-7.485400 0.000000
-7.395200 0.000000
-7.305000 0.000000
-7.214700 0.000000
-7.124500 0.000000
-7.034300 0.000000
-6.944000 0.000000
-6.853800 0.000000
-6.763600 0.000000
-6.673400 0.000000
-6.583100 0.000000
-6.492900 0.000000
-6.402700 0.000000
-6.312400 0.000000
-6.222200 0.000000
-6.132000 0.000000
-6.041700 0.000000
-5.951500 0.000000
-5.861300 0.000000
-5.771100 0.000000
-5.680800 0.000000
-5.590600 0.000000
-5.500400 0.000000
-5.410100 0.000000
-5.319900 0.000000
-5.229700 0.000000
-5.139500 0.000000
-5.049200 0.000000
-4.959000 0.000000
-4.868800 0.000000
-4.778500 0.000000
-4.688300 0.000000
-4.598100 0.000000
-4.507800 0.000000
-4.417600 0.000000
-4.327400 0.000000
-4.237200 0.000000
-4.146900 0.000000
-4.056700 0.000000
-3.966500 0.000000
-3.876200 0.000000
-3.786000 0.000000
-3.695800 0.000000
-3.605600 0.000000
-3.515300 0.000000
-3.425100 0.000000
-3.334900 0.000000
-3.244600 0.000000
-3.154400 0.000000
-3.064200 0.000000
-2.973900 0.000000
-2.883700 0.000000
-2.793500 0.000000
-2.703300 0.000000
-2.613000 0.000000
-2.522800 0.000000
-2.432600 0.000000
-2.342300 0.000000
-2.252100 0.000000
-2.161900 0.000000
-2.071600 0.000000
-1.981400 0.000000
-1.891200 0.000000
-1.801000 0.000000
-1.710700 0.000000
-1.620500 0.000000
-1.530300 0.000000
-1.440000 0.000000
-1.349800 0.000000
-1.259600 0.000000
-1.169400 0.000000
-1.079100 0.000000
-0.988900 0.000000
-0.898700 0.000300
-0.808400 0.019100
-0.718200 0.025000
-0.628000 0.033900
-0.537700 0.037700
-0.447500 0.043400
-0.357300 0.049500
-0.267100 0.053500
-0.176800 0.057500
-0.086600 0.062100
0.003600 0.067100
0.093900 0.071600
0.184100 0.075300
0.274300 0.079600
0.364500 0.084000
0.454800 0.088700
0.545000 0.093600
0.635200 0.098000
0.725500 0.102600
0.815700 0.107600
0.905900 0.112800
0.996200 0.118200
1.086400 0.123900
1.176600 0.129800
1.266800 0.136100
1.357100 0.142800
1.447300 0.150100
1.537500 0.157900
1.627800 0.166300
1.718000 0.175300
1.808200 0.185800
1.898500 0.197700
1.988700 0.211100
2.078900 0.226600
2.169100 0.244100
2.259400 0.264400
2.349600 0.289600
2.439800 0.328500
2.530100 0.473000
2.620300 0.656700
2.710500 0.966900
2.800700 0.983400
2.891000 0.973300
2.981200 0.990400
3.071400 1.013200
3.161700 1.018000
3.251900 1.028200
3.342100 1.109400
3.432400 1.241600
3.522600 1.321700
3.612800 1.382200
3.703000 1.511500
3.793300 1.480700
3.883500 1.459400
3.973700 1.379500
4.064000 1.423200
4.154200 1.152800
4.244400 1.071100
4.334600 1.130100
4.424900 1.519500
4.515100 1.321900
4.605300 1.244200
4.695600 1.196800
4.785800 1.086700
4.876000 0.995900
4.966300 0.967800
5.056500 1.207500
5.146700 1.264700
5.236900 1.476600
5.327200 1.519100
5.417400 1.568900
5.507600 1.599200
5.597900 1.523600
5.688100 1.549300
5.778300 1.680800
5.868600 1.920800
5.958800 2.054400
6.049000 1.660900
6.139200 1.794000
6.229500 1.753400
6.319700 1.875700
6.409900 1.888800
6.500200 2.432100
6.590400 1.782300
6.680600 1.543700
6.770800 1.383600
6.861100 1.265400
6.951300 1.231700
7.041500 1.292700
7.131800 1.183800
7.222000 1.118900
7.312200 1.354200
7.402500 1.562400
7.492700 1.682500
7.582900 1.717500
7.673100 1.868700
7.763400 1.610900
7.853600 1.406300
7.943800 1.528900
8.034100 1.435900
8.124300 1.411100
8.214500 1.390500
8.304700 1.454400
8.395000 1.434700
8.485200 1.403400
8.575400 1.484200
8.665700 1.647200
8.755900 1.738600
8.846100 2.019500
8.936400 2.499700
9.026600 2.986000
9.116800 2.497300
9.207000 1.761200
9.297300 1.397700
9.387500 7.536800
9.477700 0.365000
9.568000 0.366200
9.658200 0.364500
9.748400 0.351200
9.838600 0.337900
9.928900 0.338400
10.019100 0.338100
10.109300 0.337500
10.199600 0.337000
10.289800 0.336400
10.380000 0.334300
10.470300 0.327600
10.560500 0.323400
10.650700 0.322000
10.740900 0.320900
10.831200 0.320000
10.921400 0.318100
11.011600 0.314000
11.101900 0.310500
11.192100 0.304000
11.282300 0.300100
11.372600 0.297000
11.462800 0.294600
11.553000 0.291300
11.643200 0.288100
11.733500 0.284900
11.823700 0.281900
11.913900 0.277900
12.004200 0.272100
12.094400 0.267200
12.184600 0.262300
12.274800 0.258100
12.365100 0.254200
12.455300 0.251000
12.545500 0.246900
12.635800 0.242800
12.726000 0.238700
12.816200 0.234400
12.906500 0.228400
12.996700 0.222000
13.086900 0.216600
13.177100 0.211800
13.267400 0.206900
13.357600 0.201500
13.447800 0.196400
13.538100 0.191800
13.628300 0.187300
13.718500 0.182300
13.808700 0.177000
13.899000 0.170900
13.989200 0.163300
14.079400 0.157000
14.169700 0.151000
14.259900 0.145000
14.350100 0.139000
14.440400 0.132500
14.530600 0.125400
14.620800 0.116900
14.711000 0.108900
14.801300 0.102000
14.891500 0.092600
14.981700 0.083600
15.072000 0.070300
15.162200 0.053400
15.252400 0.046200
15.342700 0.039800
15.432900 0.034300
15.523100 0.029700
15.613300 0.040800
15.703600 0.052900
15.793800 0.065900
15.884000 0.080900
15.974300 0.902600
16.064500 0.640600
16.154700 0.553000
16.244900 0.467600
16.335200 0.449900
16.425400 0.426700
16.515600 0.383800
16.605900 0.364600
16.696100 0.351100
16.786300 0.339600
16.876600 0.330800
16.966800 0.327400
17.057000 0.312700
17.147200 0.303900
17.237500 0.298300
17.327700 0.290500
17.417900 0.283900
17.508200 0.278300
17.598400 0.273200
17.688600 0.270800
17.778800 0.269000
17.869100 0.266600
17.959300 0.264000
18.049500 0.263300
18.139800 0.262600
18.230000 0.263800
18.320200 0.265100
18.410500 0.266400
18.500700 0.255400
18.590900 0.248900
18.681100 0.253000
18.771400 0.289500
18.861600 0.412200
18.951800 0.376500
19.042100 0.329600
19.132300 0.334100
19.222500 0.398200
19.312800 0.504800
19.403000 0.501100
19.493200 0.512300
19.583400 0.485700
19.673700 0.484300
19.763900 0.489300
19.854100 0.455000
19.944400 0.453900
20.034600 0.447600
20.124800 0.453300
20.215000 0.438100
20.305300 0.447400
20.395500 0.472700
20.485700 0.459500
20.576000 0.469900
20.666200 0.482200
20.756400 0.491100
20.846700 0.478900
20.936900 0.473700
21.027100 0.477900
21.117300 0.484700
21.207600 0.486000
21.297800 0.499300
21.388000 0.499000
21.478300 0.500800
21.568500 0.512000
21.658700 0.507000
21.748900 0.511500
21.839200 0.521000
21.929400 0.531600
22.019600 0.541500
22.109900 0.552300
22.200100 0.546700
22.290300 0.540400
22.380600 0.530000
22.470800 0.527800
22.561000 0.528100
22.651200 0.527600
22.741500 0.532100
22.831700 0.526000
22.921900 0.523900
23.012200 0.521300
23.102400 0.516600
23.192600 0.514400
23.282900 0.512200
23.373100 0.511100
23.463300 0.511400
23.553500 0.511200
23.643800 0.508100
23.734000 0.507200
23.824200 0.506900
23.914500 0.506600
24.004700 0.504000
24.094900 0.503100
24.185100 0.499700
24.275400 0.498200
24.365600 0.498400
24.455800 0.500700
24.546100 0.501700
24.636300 0.501300
24.726500 0.502400
24.816800 0.503100
24.907000 0.503400
24.997200 0.503100
25.087400 0.508500
25.177700 0.511100
25.267900 0.511900
25.358100 0.511800
25.448400 0.518500
25.538600 0.538000
25.628800 0.547300
25.719000 0.571500
25.809300 0.511400
25.899500 0.491300
25.989700 0.467000
26.080000 0.454800
26.170200 0.445800
26.260400 0.435400
26.350700 0.421600
26.440900 0.413700
26.531100 0.409500
26.621300 0.407600
26.711600 0.407600
26.801800 0.414000
26.892000 0.436400
26.982300 0.365500
27.072500 0.319600
27.162700 0.309800
27.253000 0.300700
27.343200 0.293900
27.433400 0.289200
27.523600 0.292000
27.613900 0.315400
27.704100 0.339700
27.794300 0.353100
27.884600 0.352900
27.974800 0.350700
28.065000 0.349500
28.155200 0.357300
28.245500 0.372500
28.335700 0.388200
28.425900 0.415900
28.516200 0.559600
28.606400 0.597000
28.696600 0.613700
28.786900 0.621700
28.877100 0.616200
28.967300 0.606500
29.057500 0.595100
29.147800 0.580900
29.238000 0.567400
29.328200 0.558700
29.418500 0.550200
29.508700 0.543200
29.598900 0.538100
29.689100 0.537500
29.779400 0.539400
29.869600 0.540900
29.959800 0.545600
30.050100 0.552900
30.140300 0.561400
30.230500 0.571100
30.320800 0.602900
30.411000 0.609600
30.501200 0.613100
30.591400 0.613100
30.681700 0.602000
30.771900 0.591300
30.862100 0.599400
30.952400 0.593200
31.042600 0.588300
31.132800 0.591600
31.223100 0.596500
31.313300 0.588900
31.403500 0.575000
31.493700 0.538400
31.584000 0.499200
31.674200 0.473400
31.764400 0.448700
31.854700 0.425500
31.944900 0.423700
32.035100 0.422000
32.125300 0.420600
32.215600 0.420400
32.305800 0.431800
32.396000 0.434200
32.486300 0.436200
32.576500 0.413900
32.666700 0.409800
32.757000 0.402100
32.847200 0.396000
32.937400 0.400100
33.027600 0.331500
33.117900 0.309400
33.208100 0.304000
33.298300 0.273300
33.388600 0.263100
33.478800 0.243600
33.569000 0.205000
33.659200 0.168000
33.749500 0.153200
33.839700 0.155000
33.929900 0.183000
34.020200 0.245700
34.110400 0.293900
34.200600 0.304300
34.290900 0.313600
34.381100 0.333800
34.471300 0.366500
34.561500 0.406600
34.651800 0.436900
34.742000 0.509100
34.832200 0.529300
34.922500 0.551800
35.012700 0.580600
35.102900 0.632900
35.193200 0.678500
35.283400 0.775500
35.373600 0.834000
35.463800 0.834000
35.554100 0.851000
35.644300 0.822200
35.734500 0.758600
35.824800 0.721500
35.915000 0.698000
36.005200 0.681700
36.095400 0.665000
36.185700 0.646200
36.275900 0.630100
36.366100 0.621200
36.456400 0.624800
36.546600 0.623300
36.636800 0.609900
36.727100 0.604300
36.817300 0.637200
36.907500 0.679500
36.997700 0.682900
37.088000 0.679800
37.178200 0.658300
37.268400 0.608500
37.358700 0.537100
37.448900 0.499800
37.539100 0.476500
37.629300 0.473700
37.719600 0.480700
37.809800 0.481400
37.900000 0.497700
37.990300 0.507200
38.080500 0.501000
38.170700 0.537200
38.261000 0.513700
38.351200 0.476300
38.441400 0.454800
38.531600 0.456000
38.621900 0.485900
38.712100 0.547700
38.802300 0.726800
38.892600 0.867500
38.982800 1.245600
39.073000 1.237600
39.163300 1.245600
39.253500 1.293000
39.343700 1.521900
39.433900 2.124900
39.524200 2.641400
39.614400 3.804800
39.704600 1.651900
39.794900 1.030700
39.885100 0.937700
39.975300 0.966600
40.065500 1.116700
40.155800 1.711400
40.246000 1.464400
40.336200 0.943800
40.426500 0.742400
40.516700 0.741000
40.606900 0.752400
40.697200 0.791600
40.787400 0.791300
40.877600 0.887900
40.967800 1.035000
41.058100 0.934700
41.148300 0.901300
41.238500 0.848200
41.328800 0.768100
41.419000 0.727000
41.509200 0.703800
41.599400 0.685200
41.689700 0.672300
41.779900 0.661000
41.870100 0.641300
41.960400 0.624100
42.050600 0.612500
42.140800 0.595900
42.231100 0.584100
42.321300 0.580200
42.411500 0.582800
42.501700 0.571000
42.592000 0.539600
42.682200 0.477800
42.772400 0.462800
42.862700 0.467900
42.952900 0.476400
43.043100 0.482500
43.133400 0.490800
43.223600 0.496300
43.313800 0.501900
43.404000 0.510900
43.494300 0.513300
43.584500 0.515300
43.674700 0.520300
43.765000 0.519900
43.855200 0.512300
43.945400 0.507700
44.035600 0.509300
44.125900 0.515100
44.216100 0.512400
44.306300 0.503600
44.396600 0.488800
44.486800 0.493200
44.577000 0.474400
44.667300 0.472300
44.757500 0.471500
44.847700 0.479000
44.937900 0.482900
45.028200 0.489200
45.118400 0.497000
45.208600 0.498700
45.298900 0.495800
45.389100 0.494000
45.479300 0.494700
45.569500 0.489500
45.659800 0.478100
45.750000 0.472900
45.840200 0.504200
45.930500 0.529800
46.020700 0.544200
46.110900 0.549300
46.201200 0.553600
46.291400 0.536700
46.381600 0.545000
46.471800 0.562400
46.562100 0.612200
46.652300 0.653600
46.742500 0.666500
46.832800 0.690800
46.923000 0.718600
47.013200 0.759600
47.103500 0.784800
47.193700 0.739500
47.283900 0.742700
47.374100 0.715900
47.464400 0.677400
