set title 'mp-971948 - Density of States'
set xlabel 'Energy (eV)'
set ylabel 'DOS (states/eV)'
set grid
set xrange [-10:10]
set yrange [0:18.198]
set xzeroaxis lt -1
set terminal png size 800,600
set output 'mp-971948_dos_gnuplot.png'
plot '-' using 1:2 with lines title 'DOS'
-8.909500 0.000000
-8.884700 0.000000
-8.859800 0.000000
-8.835000 0.000000
-8.810100 0.000000
-8.785200 0.000000
-8.760400 0.000000
-8.735500 0.000000
-8.710700 0.000000
-8.685800 0.000000
-8.661000 0.000000
-8.636100 0.000000
-8.611300 0.000000
-8.586400 0.000000
-8.561500 0.000000
-8.536700 0.000000
-8.511800 0.000000
-8.487000 0.000000
-8.462100 0.000000
-8.437300 0.000000
-8.412400 0.000000
-8.387600 0.000000
-8.362700 0.000000
-8.337800 0.000000
-8.313000 0.000000
-8.288100 0.000000
-8.263300 0.000000
-8.238400 0.000000
-8.213600 0.000000
-8.188700 0.000000
-8.163900 0.000000
-8.139000 0.000000
-8.114100 0.000000
-8.089300 0.000000
-8.064400 0.000000
-8.039600 0.000000
-8.014700 0.000000
-7.989900 0.000000
-7.965000 0.000000
-7.940100 0.000000
-7.915300 0.000000
-7.890400 0.000000
-7.865600 0.000000
-7.840700 0.000000
-7.815900 0.000000
-7.791000 0.000000
-7.766200 0.000000
-7.741300 0.000000
-7.716400 0.000000
-7.691600 0.000000
-7.666700 0.000000
-7.641900 0.000000
-7.617000 0.000000
-7.592200 0.000000
-7.567300 0.000000
-7.542500 0.000000
-7.517600 0.000000
-7.492700 0.000000
-7.467900 0.000000
-7.443000 0.000000
-7.418200 0.000000
-7.393300 0.000000
-7.368500 0.000000
-7.343600 0.000000
-7.318800 0.000000
-7.293900 0.000000
-7.269000 0.000000
-7.244200 0.000000
-7.219300 0.000000
-7.194500 0.000000
-7.169600 0.000000
-7.144800 0.000000
-7.119900 0.000000
-7.095000 0.000000
-7.070200 0.000000
-7.045300 0.000000
-7.020500 0.000000
-6.995600 0.000000
-6.970800 0.000000
-6.945900 0.000000
-6.921100 0.000000
-6.896200 0.000000
-6.871300 0.000000
-6.846500 0.000000
-6.821600 0.000000
-6.796800 0.000000
-6.771900 0.000000
-6.747100 0.000000
-6.722200 0.000000
-6.697400 0.000000
-6.672500 0.000000
-6.647600 0.000000
-6.622800 0.003800
-6.597900 0.016600
-6.573100 0.035100
-6.548200 0.048500
-6.523400 0.052600
-6.498500 0.057500
-6.473700 0.063300
-6.448800 0.070200
-6.423900 0.073400
-6.399100 0.079800
-6.374200 0.086600
-6.349400 0.092800
-6.324500 0.096900
-6.299700 0.098900
-6.274800 0.102800
-6.250000 0.106800
-6.225100 0.110300
-6.200200 0.113600
-6.175400 0.117000
-6.150500 0.120400
-6.125700 0.124300
-6.100800 0.128300
-6.076000 0.132500
-6.051100 0.137000
-6.026200 0.141800
-6.001400 0.146000
-5.976500 0.149300
-5.951700 0.152100
-5.926800 0.154700
-5.902000 0.157500
-5.877100 0.160700
-5.852300 0.164000
-5.827400 0.167300
-5.802500 0.170700
-5.777700 0.174000
-5.752800 0.177700
-5.728000 0.181500
-5.703100 0.185500
-5.678300 0.189600
-5.653400 0.193800
-5.628600 0.198000
-5.603700 0.202400
-5.578800 0.206800
-5.554000 0.211200
-5.529100 0.215200
-5.504300 0.219000
-5.479400 0.223000
-5.454600 0.227300
-5.429700 0.231700
-5.404900 0.236400
-5.380000 0.241300
-5.355100 0.246400
-5.330300 0.251700
-5.305400 0.257100
-5.280600 0.262700
-5.255700 0.269100
-5.230900 0.276100
-5.206000 0.283200
-5.181100 0.290700
-5.156300 0.298500
-5.131400 0.306600
-5.106600 0.315100
-5.081700 0.324400
-5.056900 0.335400
-5.032000 0.347100
-5.007200 0.360600
-4.982300 0.378100
-4.957400 0.392500
-4.932600 0.403900
-4.907700 0.414200
-4.882900 0.433700
-4.858000 0.450900
-4.833200 0.466700
-4.808300 0.481800
-4.783500 0.496200
-4.758600 0.512200
-4.733700 0.530500
-4.708900 0.555800
-4.684000 0.584000
-4.659200 0.615900
-4.634300 0.659300
-4.609500 0.718200
-4.584600 0.794000
-4.559800 1.067300
-4.534900 1.252300
-4.510000 1.499900
-4.485200 1.807600
-4.460300 2.344700
-4.435500 3.669700
-4.410600 4.228100
-4.385800 4.796500
-4.360900 5.765600
-4.336100 4.452000
-4.311200 4.611300
-4.286300 6.543900
-4.261500 7.624300
-4.236600 9.077500
-4.211800 7.882200
-4.186900 8.010400
-4.162100 8.731900
-4.137200 10.322400
-4.112300 10.541700
-4.087500 10.644100
-4.062600 13.032400
-4.037800 11.977600
-4.012900 13.167300
-3.988100 9.483700
-3.963200 9.982300
-3.938400 9.394400
-3.913500 10.347600
-3.888600 8.760500
-3.863800 7.391700
-3.838900 7.930800
-3.814100 5.712100
-3.789200 8.090400
-3.764400 9.218900
-3.739500 9.911000
-3.714700 7.358700
-3.689800 7.649600
-3.664900 8.204100
-3.640100 9.996900
-3.615200 7.909200
-3.590400 13.304100
-3.565500 11.069200
-3.540700 11.659300
-3.515800 10.883400
-3.491000 16.543300
-3.466100 12.022000
-3.441200 11.606700
-3.416400 10.474600
-3.391500 12.553100
-3.366700 14.074800
-3.341800 15.774100
-3.317000 14.315700
-3.292100 8.211200
-3.267300 15.627400
-3.242400 10.808400
-3.217500 8.853200
-3.192700 9.975600
-3.167800 10.017800
-3.143000 10.145900
-3.118100 8.757500
-3.093300 8.623800
-3.068400 8.789000
-3.043500 7.577200
-3.018700 14.328100
-2.993800 9.642100
-2.969000 6.207200
-2.944100 4.366400
-2.919300 4.706800
-2.894400 4.241400
-2.869600 2.516800
-2.844700 2.190400
-2.819800 1.880300
-2.795000 1.553400
-2.770100 1.323200
-2.745300 1.252300
-2.720400 0.677700
-2.695600 0.634700
-2.670700 0.619800
-2.645900 0.604700
-2.621000 0.591800
-2.596100 0.566800
-2.571300 0.553700
-2.546400 0.545100
-2.521600 0.545400
-2.496700 0.547100
-2.471900 0.535300
-2.447000 0.510200
-2.422200 0.487900
-2.397300 0.466200
-2.372400 0.452300
-2.347600 0.441200
-2.322700 0.431500
-2.297900 0.423100
-2.273000 0.415200
-2.248200 0.409300
-2.223300 0.405700
-2.198400 0.384700
-2.173600 0.367400
-2.148700 0.356200
-2.123900 0.346500
-2.099000 0.345100
-2.074200 0.352400
-2.049300 0.362400
-2.024500 0.374000
-1.999600 0.392800
-1.974700 0.401300
-1.949900 0.406700
-1.925000 0.409200
-1.900200 0.414200
-1.875300 0.423300
-1.850500 0.435600
-1.825600 0.448300
-1.800800 0.460700
-1.775900 0.480300
-1.751000 0.510700
-1.726200 0.537600
-1.701300 0.548100
-1.676500 0.547000
-1.651600 0.545500
-1.626800 0.538300
-1.601900 0.532600
-1.577100 0.526000
-1.552200 0.517400
-1.527300 0.509800
-1.502500 0.504400
-1.477600 0.496400
-1.452800 0.487900
-1.427900 0.483200
-1.403100 0.484600
-1.378200 0.487300
-1.353400 0.490800
-1.328500 0.494600
-1.303600 0.507200
-1.278800 0.513400
-1.253900 0.505500
-1.229100 0.497200
-1.204200 0.488100
-1.179400 0.478400
-1.154500 0.467900
-1.129600 0.454600
-1.104800 0.455800
-1.079900 0.424700
-1.055100 0.402000
-1.030200 0.389900
-1.005400 0.390300
-0.980500 0.393700
-0.955700 0.396600
-0.930800 0.399200
-0.905900 0.402500
-0.881100 0.406400
-0.856200 0.410200
-0.831400 0.413900
-0.806500 0.417400
-0.781700 0.420700
-0.756800 0.423800
-0.732000 0.426800
-0.707100 0.428600
-0.682200 0.431600
-0.657400 0.438700
-0.632500 0.454900
-0.607700 0.458100
-0.582800 0.458800
-0.558000 0.459100
-0.533100 0.459700
-0.508300 0.460600
-0.483400 0.462500
-0.458500 0.463900
-0.433700 0.465100
-0.408800 0.465900
-0.384000 0.467900
-0.359100 0.470100
-0.334300 0.472400
-0.309400 0.474100
-0.284500 0.475600
-0.259700 0.477000
-0.234800 0.478300
-0.210000 0.479500
-0.185100 0.480600
-0.160300 0.482000
-0.135400 0.483700
-0.110600 0.486400
-0.085700 0.493000
-0.060800 0.518900
-0.036000 0.497300
-0.011100 0.502100
0.013700 0.508600
0.038600 0.517100
0.063400 0.525900
0.088300 0.534600
0.113100 0.541600
0.138000 0.547900
0.162900 0.557700
0.187700 0.572000
0.212600 0.574000
0.237400 0.575300
0.262300 0.578700
0.287100 0.595800
0.312000 0.616300
0.336800 0.625000
0.361700 0.633800
0.386600 0.644700
0.411400 0.658400
0.436300 0.667500
0.461100 0.659400
0.486000 0.671500
0.510800 0.690100
0.535700 0.706800
0.560500 0.711000
0.585400 0.727300
0.610300 0.742900
0.635100 0.757200
0.660000 0.774700
0.684800 0.800500
0.709700 0.834800
0.734500 0.882500
0.759400 0.932000
0.784300 0.946200
0.809100 0.929300
0.834000 0.935900
0.858800 0.941100
0.883700 0.955000
0.908500 0.979300
0.933400 0.966600
0.958200 0.962000
0.983100 0.966600
1.008000 0.967400
1.032800 0.979700
1.057700 0.999800
1.082500 1.013100
1.107400 1.010200
1.132200 1.007500
1.157100 1.003100
1.181900 0.949800
1.206800 0.945900
1.231700 0.937300
1.256500 0.913800
1.281400 0.874300
1.306200 0.892500
1.331100 0.909300
1.355900 0.977800
1.380800 1.063600
1.405600 1.309300
1.430500 1.649500
1.455400 1.695900
1.480200 1.731100
1.505100 1.674800
1.529900 1.519700
1.554800 1.402000
1.579600 1.375200
1.604500 1.388600
1.629300 1.506700
1.654200 1.481600
1.679100 1.637300
1.703900 1.806600
1.728800 1.528800
1.753600 1.508600
1.778500 1.597500
1.803300 1.787400
1.828200 2.313900
1.853100 2.457700
1.877900 2.170900
1.902800 2.244100
1.927600 2.175400
1.952500 2.160500
1.977300 2.105100
2.002200 2.096500
2.027000 2.389500
2.051900 2.580900
2.076800 2.878300
2.101600 3.707900
2.126500 4.056700
2.151300 4.066500
2.176200 4.074700
2.201000 4.103500
2.225900 4.583500
2.250700 7.100000
2.275600 6.591600
2.300500 5.022500
2.325300 4.477200
2.350200 4.311400
2.375000 3.680000
2.399900 3.728200
2.424700 3.432900
2.449600 2.833000
2.474400 2.310700
2.499300 2.210800
2.524200 2.651700
2.549000 3.125100
2.573900 4.393000
2.598700 5.038500
2.623600 6.286500
2.648400 5.462200
2.673300 2.614700
2.698200 2.367300
2.723000 2.146700
2.747900 1.975800
2.772700 1.898800
2.797600 1.798900
2.822400 1.646700
2.847300 1.543300
2.872100 1.478500
2.897000 1.427600
2.921900 1.392200
2.946700 1.372600
2.971600 1.334300
2.996400 1.273500
3.021300 1.219900
3.046100 1.176300
3.071000 1.132700
3.095800 1.096000
3.120700 1.054300
3.145600 1.009400
3.170400 0.977200
3.195300 0.948500
3.220100 0.917800
3.245000 0.881500
3.269800 0.868500
3.294700 0.870600
3.319500 0.859100
3.344400 0.852900
3.369300 0.856800
3.394100 0.872700
3.419000 0.903400
3.443800 0.925000
3.468700 0.947700
3.493500 0.847600
3.518400 0.816900
3.543200 0.782700
3.568100 0.782100
3.593000 0.782600
3.617800 0.730200
3.642700 0.705400
3.667500 0.687300
3.692400 0.670300
3.717200 0.657300
3.742100 0.632000
3.767000 0.617000
3.791800 0.601400
3.816700 0.589400
3.841500 0.572700
3.866400 0.560200
3.891200 0.549200
3.916100 0.538700
3.940900 0.531400
3.965800 0.522200
3.990700 0.512800
4.015500 0.504700
4.040400 0.495500
4.065200 0.492100
4.090100 0.483200
4.114900 0.470100
4.139800 0.455200
4.164600 0.440400
4.189500 0.436400
4.214400 0.433200
4.239200 0.431700
4.264100 0.430400
4.288900 0.427400
4.313800 0.421900
4.338600 0.416100
4.363500 0.410900
4.388300 0.407100
4.413200 0.403500
4.438100 0.400000
4.462900 0.398000
4.487800 0.396500
4.512600 0.395200
4.537500 0.394000
4.562300 0.394700
4.587200 0.397200
4.612100 0.403000
4.636900 0.401400
4.661800 0.399400
4.686600 0.397200
4.711500 0.393100
4.736300 0.399700
4.761200 0.434500
4.786000 0.500900
4.810900 0.562600
4.835800 0.610200
4.860600 0.643800
4.885500 0.675500
4.910300 0.694300
4.935200 0.695300
4.960000 0.654700
4.984900 0.624600
5.009700 0.604800
5.034600 0.587100
5.059500 0.588100
5.084300 0.554800
5.109200 0.533600
5.134000 0.519400
5.158900 0.512900
5.183700 0.512700
5.208600 0.518400
5.233400 0.535200
5.258300 0.545700
5.283200 0.567700
5.308000 0.568200
5.332900 0.563500
5.357700 0.574000
5.382600 0.615600
5.407400 0.659400
5.432300 0.664000
5.457100 0.688500
5.482000 0.694200
5.506900 0.715600
5.531700 0.724000
5.556600 0.704600
5.581400 0.675300
5.606300 0.657400
5.631100 0.650800
5.656000 0.652600
5.680900 0.657200
5.705700 0.663800
5.730600 0.636600
5.755400 0.620400
5.780300 0.608700
5.805100 0.602000
5.830000 0.596600
5.854800 0.587400
5.879700 0.576000
5.904600 0.573200
5.929400 0.576000
5.954300 0.581900
5.979100 0.591200
6.004000 0.603900
6.028800 0.618500
6.053700 0.622100
6.078500 0.638900
6.103400 0.657500
6.128300 0.703600
6.153100 0.676700
6.178000 0.676100
6.202800 0.676600
6.227700 0.668600
6.252500 0.655300
6.277400 0.643100
6.302200 0.624600
6.327100 0.620300
6.352000 0.617400
6.376800 0.614700
6.401700 0.605900
6.426500 0.599900
6.451400 0.588200
6.476200 0.577700
6.501100 0.574600
6.525900 0.566700
6.550800 0.567300
6.575700 0.562200
6.600500 0.560300
6.625400 0.562500
6.650200 0.568000
6.675100 0.571200
6.699900 0.574300
6.724800 0.576700
6.749700 0.578600
6.774500 0.580300
6.799400 0.585400
6.824200 0.589100
6.849100 0.589300
6.873900 0.596400
6.898800 0.610400
6.923600 0.610900
6.948500 0.613800
6.973400 0.617300
6.998200 0.617100
7.023100 0.621000
7.047900 0.622900
7.072800 0.623700
7.097600 0.625000
7.122500 0.626700
7.147300 0.629400
7.172200 0.629800
7.197100 0.644900
7.221900 0.632000
7.246800 0.630600
7.271600 0.629400
7.296500 0.626800
7.321300 0.621600
7.346200 0.615200
7.371000 0.608700
7.395900 0.605600
7.420800 0.606200
7.445600 0.608500
7.470500 0.618400
7.495300 0.620000
7.520200 0.621300
7.545000 0.622100
7.569900 0.623100
7.594800 0.624600
7.619600 0.626900
7.644500 0.630000
7.669300 0.634500
7.694200 0.623600
7.719000 0.622400
7.743900 0.620800
7.768700 0.620600
7.793600 0.621600
7.818500 0.623100
7.843300 0.625100
7.868200 0.627400
7.893000 0.618100
7.917900 0.613200
7.942700 0.610700
7.967600 0.607300
7.992400 0.603100
8.017300 0.593900
8.042200 0.585400
8.067000 0.578100
8.091900 0.570800
8.116700 0.565100
8.141600 0.561900
8.166400 0.573300
8.191300 0.571700
8.216100 0.570500
8.241000 0.569700
8.265900 0.568300
8.290700 0.568200
8.315600 0.568100
8.340400 0.568400
8.365300 0.568800
8.390100 0.563200
8.415000 0.563600
8.439800 0.564600
8.464700 0.566500
8.489600 0.568300
8.514400 0.570000
8.539300 0.571500
8.564100 0.573600
8.589000 0.576000
8.613800 0.580600
8.638700 0.586900
8.663600 0.594000
8.688400 0.600300
8.713300 0.605800
8.738100 0.613700
8.763000 0.622000
8.787800 0.624300
8.812700 0.632200
8.837500 0.647700
8.862400 0.660500
8.887300 0.672900
8.912100 0.684500
8.937000 0.683400
8.961800 0.688100
8.986700 0.688400
9.011500 0.685500
9.036400 0.685000
9.061200 0.681600
9.086100 0.680600
9.111000 0.678700
9.135800 0.676700
9.160700 0.675300
9.185500 0.675100
9.210400 0.677800
9.235200 0.683400
9.260100 0.689200
9.284900 0.695700
9.309800 0.698700
9.334700 0.701500
9.359500 0.704800
9.384400 0.711500
9.409200 0.719200
9.434100 0.727200
9.458900 0.734800
9.483800 0.742100
9.508700 0.748800
9.533500 0.756900
9.558400 0.769900
9.583200 0.775900
9.608100 0.780700
9.632900 0.787600
9.657800 0.793900
9.682600 0.801200
9.707500 0.807800
9.732400 0.809700
9.757200 0.810300
9.782100 0.810000
9.806900 0.804900
9.831800 0.803800
9.856600 0.801800
9.881500 0.802800
9.906300 0.814400
9.931200 0.807400
9.956100 0.804500
9.980900 0.806100
10.005800 0.803200
10.030600 0.799300
10.055500 0.797300
10.080300 0.789500
10.105200 0.785600
10.130000 0.785300
10.154900 0.784600
10.179800 0.780200
10.204600 0.735500
10.229500 0.725700
10.254300 0.720000
10.279200 0.716500
10.304000 0.717500
10.328900 0.722000
10.353700 0.719700
10.378600 0.717100
10.403500 0.715800
10.428300 0.714300
10.453200 0.713400
10.478000 0.713300
10.502900 0.717800
10.527700 0.727500
10.552600 0.730200
10.577500 0.729100
10.602300 0.720300
10.627200 0.709300
10.652000 0.697600
10.676900 0.685200
10.701700 0.674600
10.726600 0.665000
10.751400 0.661000
10.776300 0.664600
10.801200 0.668700
10.826000 0.671600
10.850900 0.671500
10.875700 0.669300
10.900600 0.666800
10.925400 0.662200
10.950300 0.656000
10.975100 0.649100
11.000000 0.662300
11.024900 0.640300
11.049700 0.632000
11.074600 0.627800
11.099400 0.624000
11.124300 0.637800
11.149100 0.662100
11.174000 0.672000
11.198800 0.686000
11.223700 0.660200
11.248600 0.651700
11.273400 0.651000
11.298300 0.661500
11.323100 0.658200
11.348000 0.646500
11.372800 0.641500
11.397700 0.663900
11.422500 0.674600
11.447400 0.678400
11.472300 0.683700
11.497100 0.687600
11.522000 0.697800
11.546800 0.706700
11.571700 0.713000
11.596500 0.718000
11.621400 0.723700
11.646300 0.729900
11.671100 0.737100
11.696000 0.765700
11.720800 0.777400
11.745700 0.779700
11.770500 0.794000
11.795400 0.766000
11.820200 0.775400
11.845100 0.780200
11.870000 0.781700
11.894800 0.780700
11.919700 0.778200
11.944500 0.775200
11.969400 0.774200
11.994200 0.777600
12.019100 0.790400
12.043900 0.758000
12.068800 0.751600
12.093700 0.747900
12.118500 0.746500
12.143400 0.747300
12.168200 0.745700
12.193100 0.755000
12.217900 0.770800
12.242800 0.791500
12.267600 0.817200
12.292500 0.848600
12.317400 0.888800
12.342200 0.894900
12.367100 0.864100
12.391900 0.848000
12.416800 0.838800
12.441600 0.833100
12.466500 0.827500
12.491400 0.824300
12.516200 0.820800
12.541100 0.824900
12.565900 0.841300
12.590800 0.856200
12.615600 0.846900
12.640500 0.837600
12.665300 0.827600
12.690200 0.817000
12.715100 0.812700
12.739900 0.808400
12.764800 0.802700
12.789600 0.799500
12.814500 0.801700
12.839300 0.807900
12.864200 0.817300
12.889000 0.820500
12.913900 0.815400
12.938800 0.815800
12.963600 0.815900
12.988500 0.812800
13.013300 0.811100
13.038200 0.810900
13.063000 0.814700
13.087900 0.834800
13.112700 0.921300
13.137600 0.927300
13.162500 0.849900
13.187300 0.852700
13.212200 0.857300
13.237000 0.863900
13.261900 0.869300
13.286700 0.872400
13.311600 0.873100
13.336400 0.873000
13.361300 0.872000
13.386200 0.872300
13.411000 0.875100
13.435900 0.880200
13.460700 0.927000
13.485600 0.933200
13.510400 0.909300
13.535300 0.888500
13.560200 0.870900
13.585000 0.855700
13.609900 0.844800
13.634700 0.839700
13.659600 0.842900
13.684400 0.841300
13.709300 0.851700
13.734100 0.862000
13.759000 0.859000
13.783900 0.859500
13.808700 0.857900
13.833600 0.861800
13.858400 0.873800
13.883300 0.887400
13.908100 0.894200
13.933000 0.903200
13.957800 0.902900
13.982700 0.901100
14.007600 0.895200
14.032400 0.884900
14.057300 0.875300
14.082100 0.854200
14.107000 0.845200
14.131800 0.839000
14.156700 0.832900
14.181500 0.826600
14.206400 0.829400
14.231300 0.844500
14.256100 0.855700
14.281000 0.851500
14.305800 0.852700
14.330700 0.857300
14.355500 0.860000
14.380400 0.862400
14.405200 0.866500
14.430100 0.870400
14.455000 0.877400
14.479800 0.890900
14.504700 0.898300
14.529500 0.890800
14.554400 0.869000
14.579200 0.854700
14.604100 0.845300
14.629000 0.840900
14.653800 0.839900
14.678700 0.841600
14.703500 0.855000
14.728400 0.874400
14.753200 0.879600
14.778100 0.886400
14.802900 0.894000
14.827800 0.903700
14.852700 0.914700
14.877500 0.926300
14.902400 0.940700
14.927200 0.964100
14.952100 0.946700
14.976900 0.879100
15.001800 0.818400
15.026600 0.782200
15.051500 0.780500
15.076400 0.795700
15.101200 0.819300
15.126100 0.831900
15.150900 0.816900
15.175800 0.791100
15.200600 0.778900
15.225500 0.784000
15.250300 0.789000
15.275200 0.790700
15.300100 0.794900
15.324900 0.800900
15.349800 0.813900
15.374600 0.820100
15.399500 0.824200
15.424300 0.828600
15.449200 0.831300
15.474100 0.839300
15.498900 0.853300
15.523800 0.869700
15.548600 0.868700
15.573500 0.871500
15.598300 0.883000
15.623200 0.882500
15.648000 0.876200
15.672900 0.868200
15.697800 0.863400
15.722600 0.863500
15.747500 0.862500
15.772300 0.863600
15.797200 0.865500
15.822000 0.870600
15.846900 0.875700
15.871700 0.880100
15.896600 0.882800
15.921500 0.881800
15.946300 0.880300
15.971200 0.877400
15.996000 0.876000
16.020900 0.885900
16.045700 0.920600
16.070600 0.844200
16.095400 0.842000
16.120300 0.839300
16.145200 0.837000
16.170000 0.871100
16.194900 0.872300
16.219700 0.867900
16.244600 0.868500
16.269400 0.869900
16.294300 0.871200
16.319100 0.873200
16.344000 0.868700
16.368900 0.867500
16.393700 0.868200
16.418600 0.883800
16.443400 0.873600
16.468300 0.865900
16.493100 0.856200
16.518000 0.852900
16.542900 0.849900
16.567700 0.845300
16.592600 0.847200
16.617400 0.838000
16.642300 0.827600
16.667100 0.816300
16.692000 0.805400
16.716800 0.795000
16.741700 0.781100
16.766600 0.769600
16.791400 0.759300
16.816300 0.751000
16.841100 0.742100
16.866000 0.734500
16.890800 0.727600
16.915700 0.722700
16.940500 0.718800
16.965400 0.717500
16.990300 0.717100
17.015100 0.718000
17.040000 0.717600
17.064800 0.718000
17.089700 0.717800
17.114500 0.718400
17.139400 0.719600
17.164200 0.720200
17.189100 0.720800
17.214000 0.722100
17.238800 0.723100
17.263700 0.725500
17.288500 0.732700
17.313400 0.738100
17.338200 0.740900
