set title 'mp-1219711 - Density of States'
set xlabel 'Energy (eV)'
set ylabel 'DOS (states/eV)'
set grid
set xrange [-10:10]
set yrange [0:4.255]
set xzeroaxis lt -1
set terminal png size 800,600
set output 'mp-1219711_dos_gnuplot.png'
plot '-' using 1:2 with lines title 'DOS'
-35.626500 0.000000
-35.576800 0.000000
-35.527100 0.000000
-35.477400 0.000000
-35.427800 0.000000
-35.378100 0.000000
-35.328400 0.000000
-35.278700 0.000000
-35.229000 0.000000
-35.179300 0.000000
-35.129600 0.000000
-35.080000 0.000000
-35.030300 0.000000
-34.980600 0.000000
-34.930900 0.000000
-34.881200 0.000000
-34.831500 0.000000
-34.781800 0.000000
-34.732100 0.000000
-34.682500 0.000000
-34.632800 0.000000
-34.583100 0.000000
-34.533400 0.000000
-34.483700 0.000000
-34.434000 0.000000
-34.384300 0.000000
-34.334700 0.000000
-34.285000 0.000000
-34.235300 0.000000
-34.185600 0.000000
-34.135900 0.000000
-34.086200 0.000000
-34.036500 0.000000
-33.986900 0.000000
-33.937200 0.000000
-33.887500 0.000000
-33.837800 0.000000
-33.788100 0.000000
-33.738400 0.000000
-33.688700 0.000000
-33.639000 0.000000
-33.589400 0.000000
-33.539700 0.000000
-33.490000 0.000000
-33.440300 0.000000
-33.390600 0.000000
-33.340900 0.000000
-33.291200 0.000000
-33.241600 0.000000
-33.191900 0.000000
-33.142200 0.000000
-33.092500 0.000000
-33.042800 0.000000
-32.993100 0.000000
-32.943400 0.000000
-32.893800 0.000000
-32.844100 0.000000
-32.794400 0.000000
-32.744700 0.000000
-32.695000 0.000000
-32.645300 0.000000
-32.595600 0.000000
-32.545900 0.000000
-32.496300 0.000000
-32.446600 0.000000
-32.396900 0.000000
-32.347200 0.000000
-32.297500 0.000000
-32.247800 0.000000
-32.198100 0.000000
-32.148500 0.000000
-32.098800 0.000000
-32.049100 0.000000
-31.999400 0.000000
-31.949700 0.000000
-31.900000 0.000000
-31.850300 0.000000
-31.800700 0.000000
-31.751000 0.000000
-31.701300 0.000000
-31.651600 0.000000
-31.601900 0.000000
-31.552200 0.000000
-31.502500 0.000000
-31.452800 0.000000
-31.403200 0.000000
-31.353500 0.000000
-31.303800 0.000000
-31.254100 0.000000
-31.204400 0.000000
-31.154700 0.000000
-31.105000 5.770100
-31.055400 3.912800
-31.005700 4.608100
-30.956000 6.495400
-30.906300 6.534100
-30.856600 10.752300
-30.806900 0.289600
-30.757200 36.229300
-30.707600 3.347500
-30.657900 2.627800
-30.608200 2.802500
-30.558500 3.260400
-30.508800 3.540300
-30.459100 4.455000
-30.409400 5.381100
-30.359700 8.446000
-30.310100 5.712300
-30.260400 4.547200
-30.210700 3.988200
-30.161000 4.423700
-30.111300 0.000000
-30.061600 0.000000
-30.011900 0.000000
-29.962300 0.000000
-29.912600 0.000000
-29.862900 0.000000
-29.813200 0.000000
-29.763500 0.000000
-29.713800 0.000000
-29.664100 0.000000
-29.614500 0.000000
-29.564800 0.000000
-29.515100 0.000000
-29.465400 0.000000
-29.415700 0.000000
-29.366000 0.000000
-29.316300 0.000000
-29.266600 0.000000
-29.217000 0.000000
-29.167300 0.000000
-29.117600 0.000000
-29.067900 0.000000
-29.018200 0.000000
-28.968500 0.000000
-28.918800 0.000000
-28.869200 0.000000
-28.819500 0.000000
-28.769800 0.000000
-28.720100 0.000000
-28.670400 0.000000
-28.620700 0.000000
-28.571000 0.000000
-28.521400 0.000000
-28.471700 0.000000
-28.422000 0.000000
-28.372300 0.000000
-28.322600 0.000000
-28.272900 0.000000
-28.223200 0.000000
-28.173500 0.000000
-28.123900 0.000000
-28.074200 0.000000
-28.024500 0.000000
-27.974800 0.000000
-27.925100 0.000000
-27.875400 0.000000
-27.825700 0.000000
-27.776100 0.000000
-27.726400 0.000000
-27.676700 0.000000
-27.627000 0.000000
-27.577300 0.000000
-27.527600 0.000000
-27.477900 0.000000
-27.428300 0.000000
-27.378600 0.000000
-27.328900 0.000000
-27.279200 0.000000
-27.229500 0.000000
-27.179800 0.000000
-27.130100 0.000000
-27.080400 0.000000
-27.030800 0.000000
-26.981100 0.000000
-26.931400 0.000000
-26.881700 0.000000
-26.832000 0.000000
-26.782300 0.000000
-26.732600 0.000000
-26.683000 0.000000
-26.633300 0.000000
-26.583600 0.000000
-26.533900 0.000000
-26.484200 0.000000
-26.434500 0.000000
-26.384800 0.000000
-26.335200 0.000000
-26.285500 0.000000
-26.235800 0.000000
-26.186100 0.000000
-26.136400 0.000000
-26.086700 0.000000
-26.037000 0.000000
-25.987300 0.000000
-25.937700 0.000000
-25.888000 0.000000
-25.838300 0.000000
-25.788600 0.000000
-25.738900 0.000000
-25.689200 0.000000
-25.639500 0.000000
-25.589900 0.000000
-25.540200 0.000000
-25.490500 0.000000
-25.440800 0.000000
-25.391100 0.000000
-25.341400 0.000000
-25.291700 0.000000
-25.242100 0.000000
-25.192400 0.000000
-25.142700 0.000000
-25.093000 0.000000
-25.043300 0.000000
-24.993600 0.000000
-24.943900 0.000000
-24.894200 0.000000
-24.844600 0.000000
-24.794900 0.000000
-24.745200 0.000000
-24.695500 0.000000
-24.645800 0.000000
-24.596100 0.000000
-24.546400 0.000000
-24.496800 0.000000
-24.447100 0.000000
-24.397400 0.000000
-24.347700 0.000000
-24.298000 0.000000
-24.248300 0.000000
-24.198600 0.000000
-24.149000 0.000000
-24.099300 0.000000
-24.049600 0.000000
-23.999900 0.000000
-23.950200 0.000000
-23.900500 0.000000
-23.850800 0.000000
-23.801100 0.000000
-23.751500 0.000000
-23.701800 0.000000
-23.652100 0.000000
-23.602400 0.000000
-23.552700 0.000000
-23.503000 0.000000
-23.453300 0.000000
-23.403700 0.000000
-23.354000 0.000000
-23.304300 0.000000
-23.254600 0.000000
-23.204900 0.000000
-23.155200 0.000000
-23.105500 0.000000
-23.055900 0.000000
-23.006200 0.000000
-22.956500 0.000000
-22.906800 0.000000
-22.857100 0.000000
-22.807400 0.000000
-22.757700 0.000000
-22.708000 0.000000
-22.658400 0.000000
-22.608700 0.000000
-22.559000 0.000000
-22.509300 0.000000
-22.459600 0.000000
-22.409900 0.000000
-22.360200 0.000000
-22.310600 0.000000
-22.260900 0.000000
-22.211200 0.000000
-22.161500 0.000000
-22.111800 0.000000
-22.062100 0.000000
-22.012400 0.000000
-21.962800 0.000000
-21.913100 0.000000
-21.863400 0.000000
-21.813700 0.000000
-21.764000 0.000000
-21.714300 0.000000
-21.664600 0.000000
-21.614900 0.000000
-21.565300 0.000000
-21.515600 0.000000
-21.465900 0.000000
-21.416200 0.000000
-21.366500 0.000000
-21.316800 0.000000
-21.267100 0.000000
-21.217500 0.000000
-21.167800 0.000000
-21.118100 0.000000
-21.068400 0.000000
-21.018700 0.000000
-20.969000 0.000000
-20.919300 0.000000
-20.869700 0.000000
-20.820000 0.000000
-20.770300 0.000000
-20.720600 0.000000
-20.670900 0.000000
-20.621200 0.000000
-20.571500 0.000000
-20.521800 0.000000
-20.472200 0.000000
-20.422500 0.000000
-20.372800 0.000000
-20.323100 0.000000
-20.273400 0.000000
-20.223700 0.000000
-20.174000 0.000000
-20.124400 0.000000
-20.074700 0.000000
-20.025000 0.000000
-19.975300 0.000000
-19.925600 0.000000
-19.875900 0.000000
-19.826200 0.000000
-19.776600 0.000000
-19.726900 0.000000
-19.677200 0.000000
-19.627500 0.000000
-19.577800 0.000000
-19.528100 0.000000
-19.478400 0.000000
-19.428700 0.000000
-19.379100 0.000000
-19.329400 0.000000
-19.279700 0.000000
-19.230000 0.000000
-19.180300 0.000000
-19.130600 0.000000
-19.080900 0.000000
-19.031300 0.000000
-18.981600 0.000000
-18.931900 0.000000
-18.882200 0.000000
-18.832500 0.000000
-18.782800 0.000000
-18.733100 0.000000
-18.683500 0.000000
-18.633800 0.000000
-18.584100 0.000000
-18.534400 0.000000
-18.484700 0.000000
-18.435000 0.000000
-18.385300 0.000000
-18.335600 0.000000
-18.286000 0.000000
-18.236300 0.000000
-18.186600 0.000000
-18.136900 0.000000
-18.087200 0.000000
-18.037500 0.000000
-17.987800 0.000000
-17.938200 0.000000
-17.888500 0.000000
-17.838800 0.000000
-17.789100 0.000000
-17.739400 0.000000
-17.689700 0.000000
-17.640000 0.000000
-17.590400 0.000000
-17.540700 0.000000
-17.491000 0.000000
-17.441300 0.000000
-17.391600 0.000000
-17.341900 0.000000
-17.292200 0.000000
-17.242500 0.000000
-17.192900 0.000000
-17.143200 0.000000
-17.093500 0.000000
-17.043800 0.000000
-16.994100 0.000000
-16.944400 0.000000
-16.894700 0.000000
-16.845100 0.000000
-16.795400 0.000000
-16.745700 0.000000
-16.696000 0.000000
-16.646300 0.000000
-16.596600 0.000000
-16.546900 0.000000
-16.497200 0.000000
-16.447600 0.000000
-16.397900 0.000000
-16.348200 0.000000
-16.298500 0.000000
-16.248800 0.000000
-16.199100 0.000000
-16.149400 0.000000
-16.099800 0.000000
-16.050100 0.000000
-16.000400 0.000000
-15.950700 0.000000
-15.901000 0.000000
-15.851300 0.000000
-15.801600 0.000000
-15.752000 0.000000
-15.702300 0.000000
-15.652600 0.000000
-15.602900 0.000000
-15.553200 0.000000
-15.503500 0.000000
-15.453800 0.000000
-15.404100 0.000000
-15.354500 0.000000
-15.304800 0.000000
-15.255100 0.000000
-15.205400 0.000000
-15.155700 0.000000
-15.106000 0.000000
-15.056300 0.000000
-15.006700 0.000000
-14.957000 0.000000
-14.907300 0.000000
-14.857600 0.000000
-14.807900 0.000000
-14.758200 0.000000
-14.708500 0.000000
-14.658900 0.000000
-14.609200 0.000000
-14.559500 0.000000
-14.509800 0.000000
-14.460100 0.000000
-14.410400 0.000000
-14.360700 0.000000
-14.311000 0.000000
-14.261400 0.000000
-14.211700 0.000000
-14.162000 0.000000
-14.112300 0.000000
-14.062600 0.000000
-14.012900 0.000000
-13.963200 0.000000
-13.913600 0.000000
-13.863900 0.000000
-13.814200 0.000000
-13.764500 0.000000
-13.714800 0.000000
-13.665100 0.000000
-13.615400 0.000000
-13.565800 0.000000
-13.516100 0.000000
-13.466400 0.000000
-13.416700 0.000000
-13.367000 0.000000
-13.317300 0.000000
-13.267600 0.000000
-13.217900 0.000000
-13.168300 0.000000
-13.118600 0.000000
-13.068900 0.000000
-13.019200 0.000000
-12.969500 0.000000
-12.919800 0.000000
-12.870100 0.000000
-12.820500 0.000000
-12.770800 0.000000
-12.721100 0.000000
-12.671400 0.000000
-12.621700 0.000000
-12.572000 0.000000
-12.522300 0.000000
-12.472700 0.000000
-12.423000 0.000000
-12.373300 0.000000
-12.323600 0.000000
-12.273900 0.000000
-12.224200 0.000000
-12.174500 0.000000
-12.124800 0.000000
-12.075200 0.000000
-12.025500 0.000000
-11.975800 0.000000
-11.926100 0.000000
-11.876400 0.000000
-11.826700 0.000000
-11.777000 0.000000
-11.727400 0.000000
-11.677700 0.000000
-11.628000 0.000000
-11.578300 0.000000
-11.528600 0.000000
-11.478900 0.000000
-11.429200 0.000000
-11.379600 0.000000
-11.329900 0.000000
-11.280200 0.000000
-11.230500 0.000000
-11.180800 0.000000
-11.131100 0.000000
-11.081400 0.000000
-11.031700 0.000000
-10.982100 0.000000
-10.932400 0.000000
-10.882700 0.000000
-10.833000 0.000000
-10.783300 0.000000
-10.733600 0.000000
-10.683900 0.000000
-10.634300 0.000000
-10.584600 0.000000
-10.534900 0.000000
-10.485200 0.000000
-10.435500 0.000000
-10.385800 0.000000
-10.336100 0.000000
-10.286500 0.000000
-10.236800 0.000000
-10.187100 0.000000
-10.137400 0.000000
-10.087700 0.000000
-10.038000 0.000000
-9.988300 0.000000
-9.938600 0.000000
-9.889000 0.000000
-9.839300 0.000000
-9.789600 0.000000
-9.739900 0.000000
-9.690200 0.000000
-9.640500 0.000000
-9.590800 0.000000
-9.541200 0.000000
-9.491500 0.000000
-9.441800 0.000000
-9.392100 0.000000
-9.342400 0.000000
-9.292700 0.000000
-9.243000 0.000000
-9.193400 0.000000
-9.143700 0.000000
-9.094000 0.000000
-9.044300 0.000000
-8.994600 0.000000
-8.944900 0.000000
-8.895200 0.000000
-8.845500 0.000000
-8.795900 0.000000
-8.746200 0.000000
-8.696500 0.000000
-8.646800 0.000000
-8.597100 0.000000
-8.547400 0.000000
-8.497700 0.000000
-8.448100 0.000000
-8.398400 0.000000
-8.348700 0.000000
-8.299000 0.000000
-8.249300 0.000000
-8.199600 0.000000
-8.149900 0.000000
-8.100300 0.000000
-8.050600 0.000000
-8.000900 0.000000
-7.951200 0.000000
-7.901500 0.000000
-7.851800 0.000000
-7.802100 0.000000
-7.752400 0.000000
-7.702800 0.000000
-7.653100 0.000000
-7.603400 0.000000
-7.553700 0.000000
-7.504000 0.000000
-7.454300 0.000000
-7.404600 0.000000
-7.355000 0.000000
-7.305300 0.000000
-7.255600 0.000000
-7.205900 0.000000
-7.156200 0.000000
-7.106500 0.000000
-7.056800 0.000000
-7.007200 0.000000
-6.957500 0.000000
-6.907800 0.000000
-6.858100 0.000000
-6.808400 0.000000
-6.758700 0.000000
-6.709000 0.000000
-6.659300 0.000000
-6.609700 0.000000
-6.560000 0.000000
-6.510300 0.000000
-6.460600 0.000000
-6.410900 0.000000
-6.361200 0.000000
-6.311500 0.000000
-6.261900 0.000000
-6.212200 0.000000
-6.162500 0.000000
-6.112800 0.000000
-6.063100 0.000000
-6.013400 0.000000
-5.963700 0.000000
-5.914100 0.000000
-5.864400 0.000000
-5.814700 0.000000
-5.765000 0.000000
-5.715300 0.000000
-5.665600 0.000000
-5.615900 0.000000
-5.566200 0.000000
-5.516600 0.000000
-5.466900 0.000000
-5.417200 0.000000
-5.367500 0.000000
-5.317800 0.000000
-5.268100 0.000000
-5.218400 0.000000
-5.168800 0.000000
-5.119100 0.000000
-5.069400 0.000000
-5.019700 0.000000
-4.970000 0.000000
-4.920300 0.000000
-4.870600 0.000000
-4.821000 0.000000
-4.771300 0.000000
-4.721600 0.000000
-4.671900 0.000000
-4.622200 0.000000
-4.572500 0.000000
-4.522800 0.000000
-4.473100 0.000000
-4.423500 0.000000
-4.373800 0.000000
-4.324100 0.000000
-4.274400 0.000000
-4.224700 0.000000
-4.175000 0.000000
-4.125300 0.000000
-4.075700 0.000000
-4.026000 0.000000
-3.976300 0.000000
-3.926600 0.000000
-3.876900 0.000000
-3.827200 0.000000
-3.777500 0.000000
-3.727900 0.000000
-3.678200 0.000000
-3.628500 0.000000
-3.578800 0.000000
-3.529100 0.000000
-3.479400 0.000000
-3.429700 0.000000
-3.380000 0.000000
-3.330400 0.000000
-3.280700 0.000000
-3.231000 0.000000
-3.181300 0.000000
-3.131600 0.000000
-3.081900 0.000000
-3.032200 0.000000
-2.982600 0.000000
-2.932900 0.000000
-2.883200 0.000000
-2.833500 0.000000
-2.783800 0.000000
-2.734100 0.000000
-2.684400 0.000000
-2.634800 0.000000
-2.585100 0.000000
-2.535400 0.000000
-2.485700 0.000000
-2.436000 0.000000
-2.386300 0.000000
-2.336600 0.003700
-2.286900 0.018700
-2.237300 0.037500
-2.187600 0.048000
-2.137900 0.053700
-2.088200 0.058700
-2.038500 0.065800
-1.988800 0.073200
-1.939100 0.080200
-1.889500 0.086800
-1.839800 0.092900
-1.790100 0.097800
-1.740400 0.102100
-1.690700 0.106400
-1.641000 0.111000
-1.591300 0.116000
-1.541700 0.121100
-1.492000 0.126400
-1.442300 0.131900
-1.392600 0.137600
-1.342900 0.143300
-1.293200 0.149000
-1.243500 0.153400
-1.193800 0.158300
-1.144200 0.163500
-1.094500 0.168800
-1.044800 0.174100
-0.995100 0.179600
-0.945400 0.185700
-0.895700 0.192200
-0.846000 0.198900
-0.796400 0.205800
-0.746700 0.213000
-0.697000 0.220500
-0.647300 0.230800
-0.597600 0.245700
-0.547900 0.256000
-0.498200 0.259000
-0.448600 0.258400
-0.398900 0.264000
-0.349200 0.269700
-0.299500 0.275400
-0.249800 0.281100
-0.200100 0.286000
-0.150400 0.290500
-0.100700 0.296100
-0.051100 0.303200
-0.001400 0.311100
0.048300 0.319500
0.098000 0.328300
0.147700 0.337500
0.197400 0.347100
0.247100 0.357000
0.296700 0.383700
0.346400 0.418400
0.396100 0.457000
0.445800 0.498400
0.495500 0.547900
0.545200 0.664500
0.594900 0.897900
0.644500 1.029900
0.694200 1.019300
0.743900 1.096400
0.793600 1.172900
0.843300 1.252800
0.893000 1.407100
0.942700 1.534200
0.992400 1.670700
1.042000 1.795500
1.091700 1.842200
1.141400 1.891800
1.191100 1.982900
1.240800 2.183500
1.290500 2.167400
1.340200 2.133100
1.389800 2.215100
1.439500 2.249700
1.489200 2.404100
1.538900 2.294900
1.588600 2.394600
1.638300 2.427200
1.688000 2.476700
1.737600 2.501700
1.787300 2.504600
1.837000 2.510900
1.886700 2.523600
1.936400 2.528900
1.986100 2.546200
2.035800 2.626200
2.085500 2.682700
2.135100 2.739500
2.184800 2.798200
2.234500 2.785000
2.284200 2.849700
2.333900 2.702600
2.383600 2.222900
2.433300 2.069200
2.482900 2.072900
2.532600 2.111400
2.582300 2.008200
2.632000 2.301600
2.681700 2.348500
2.731400 2.280800
2.781100 2.204700
2.830700 1.811500
2.880400 1.755900
2.930100 1.776900
2.979800 1.473100
3.029500 1.942300
3.079200 2.182300
3.128900 2.199000
3.178600 2.329000
3.228200 2.455200
3.277900 2.772600
3.327600 3.076000
3.377300 3.491900
3.427000 3.236200
3.476700 2.840700
3.526400 2.569700
3.576000 2.453300
3.625700 2.293200
3.675400 2.261300
3.725100 2.082900
3.774800 2.145000
3.824500 2.336200
3.874200 2.326600
3.923800 2.406600
3.973500 2.544700
4.023200 2.540900
4.072900 2.543200
4.122600 2.571400
4.172300 2.669900
4.222000 3.125900
4.271700 3.085500
4.321300 2.759200
4.371000 2.507200
4.420700 2.725100
4.470400 3.072700
4.520100 3.442100
4.569800 3.868400
4.619500 2.950200
4.669100 2.698500
4.718800 2.824800
4.768500 2.922800
4.818200 3.093600
4.867900 2.783900
4.917600 2.677100
4.967300 2.616200
5.016900 2.260200
5.066600 2.181300
5.116300 2.259300
5.166000 2.508300
5.215700 2.309200
5.265400 2.207600
5.315100 1.963600
5.364800 1.735100
5.414400 1.732000
5.464100 1.629900
5.513800 1.459100
5.563500 1.405400
5.613200 1.372000
5.662900 1.348100
5.712600 1.331700
5.762200 1.439600
5.811900 1.600100
5.861600 1.750000
5.911300 1.930500
5.961000 2.058400
6.010700 2.147100
6.060400 2.281800
6.110000 2.483000
6.159700 2.710500
6.209400 2.821400
6.259100 2.771800
6.308800 2.886100
6.358500 2.998700
6.408200 2.686200
6.457900 2.274100
6.507500 1.958300
6.557200 1.782800
6.606900 1.675900
6.656600 1.936600
6.706300 1.456900
6.756000 1.229900
6.805700 1.219400
6.855300 1.486200
6.905000 1.574900
6.954700 1.563800
7.004400 1.544900
7.054100 1.539300
7.103800 1.515100
7.153500 1.519300
7.203100 1.696700
7.252800 1.728500
7.302500 1.781500
7.352200 1.891100
7.401900 1.856900
7.451600 1.858500
7.501300 1.861700
7.551000 1.855100
7.600600 1.830100
7.650300 1.833000
7.700000 1.846800
7.749700 1.826000
7.799400 1.797900
7.849100 1.826100
7.898800 1.766200
7.948400 1.564200
7.998100 1.373600
8.047800 1.427300
8.097500 1.567600
8.147200 1.793300
8.196900 1.904400
8.246600 1.857900
8.296200 1.676000
8.345900 1.539000
8.395600 1.469900
8.445300 1.445000
8.495000 1.352800
8.544700 1.277800
8.594400 1.256800
8.644100 1.276600
8.693700 1.346100
8.743400 1.331100
8.793100 1.318900
8.842800 1.341800
8.892500 1.376700
8.942200 1.527500
8.991900 1.575700
9.041500 1.529800
9.091200 1.562800
9.140900 1.606500
9.190600 1.686700
9.240300 1.808300
9.290000 1.979800
9.339700 1.909600
9.389300 1.879500
9.439000 1.891500
9.488700 2.076700
9.538400 1.500400
9.588100 1.330000
9.637800 1.212400
9.687500 1.168200
9.737200 1.343900
9.786800 1.450700
9.836500 1.547800
9.886200 1.801200
9.935900 2.072000
9.985600 1.938100
10.035300 1.752700
10.085000 1.633000
10.134600 1.645200
10.184300 1.648000
10.234000 1.630600
10.283700 1.636600
10.333400 1.682700
10.383100 1.606900
10.432800 1.545900
10.482400 1.454200
10.532100 1.398400
10.581800 1.329200
10.631500 1.029000
10.681200 0.931200
10.730900 0.847000
10.780600 0.778700
10.830300 0.771900
10.879900 0.780600
10.929600 0.762600
10.979300 0.764100
11.029000 0.763700
11.078700 0.758500
11.128400 0.752100
11.178100 0.752200
11.227700 0.760400
11.277400 0.769300
11.327100 0.781500
11.376800 0.795900
11.426500 0.809300
11.476200 0.821300
11.525900 0.828700
11.575500 0.836000
11.625200 0.842000
11.674900 0.850700
11.724600 0.861200
11.774300 0.872500
11.824000 0.879400
11.873700 0.891400
11.923400 0.904000
11.973000 0.918800
12.022700 0.927200
12.072400 0.937600
12.122100 0.950900
12.171800 0.966900
12.221500 0.985000
12.271200 1.022600
12.320800 1.133800
12.370500 1.167200
12.420200 1.161800
12.469900 1.175900
12.519600 1.175200
12.569300 1.209300
12.619000 0.990600
12.668600 1.006500
12.718300 0.981900
12.768000 0.937800
12.817700 0.915300
12.867400 0.909400
12.917100 0.801200
12.966800 0.720200
13.016500 0.674900
13.066100 0.556000
13.115800 0.506000
13.165500 0.485900
13.215200 0.475700
13.264900 0.474700
13.314600 0.478400
13.364300 0.480800
13.413900 0.481700
13.463600 0.487900
13.513300 0.513500
13.563000 0.527600
13.612700 0.531600
13.662400 0.554100
13.712100 0.580100
13.761700 0.597300
13.811400 0.610000
13.861100 0.634800
13.910800 0.685600
13.960500 0.791200
14.010200 0.807600
14.059900 0.817200
14.109600 0.729800
14.159200 0.641700
14.208900 0.583500
14.258600 0.523500
14.308300 0.482200
14.358000 0.448000
14.407700 0.415200
14.457400 0.388100
14.507000 0.364700
14.556700 0.350100
14.606400 0.332000
14.656100 0.318900
14.705800 0.402300
14.755500 0.433100
14.805200 0.472500
14.854800 0.515000
14.904500 0.578400
14.954200 0.660400
15.003900 0.706200
15.053600 0.771700
