set title 'mp-1067880 - Density of States'
set xlabel 'Energy (eV)'
set ylabel 'DOS (states/eV)'
set grid
set xrange [-10:10]
set yrange [0:2.875]
set xzeroaxis lt -1
set terminal png size 800,600
set output 'mp-1067880_dos_gnuplot.png'
plot '-' using 1:2 with lines title 'DOS'
-14.407300 0.000000
-14.387000 0.000000
-14.366600 0.000000
-14.346300 0.000000
-14.325900 0.000000
-14.305600 0.000000
-14.285200 0.000000
-14.264800 0.000000
-14.244500 0.000000
-14.224100 0.000000
-14.203800 0.000000
-14.183400 0.000000
-14.163100 0.000000
-14.142700 0.000000
-14.122400 0.000000
-14.102000 0.000000
-14.081700 0.000000
-14.061300 0.000000
-14.041000 0.000000
-14.020600 0.000000
-14.000300 0.000000
-13.979900 0.000000
-13.959600 0.000000
-13.939200 0.000000
-13.918900 0.000000
-13.898500 0.000000
-13.878200 0.000000
-13.857800 0.000000
-13.837500 0.000000
-13.817100 0.000000
-13.796800 0.000000
-13.776400 0.000000
-13.756100 0.000000
-13.735700 0.000000
-13.715300 0.000000
-13.695000 0.000000
-13.674600 0.000000
-13.654300 0.000000
-13.633900 0.000000
-13.613600 0.000000
-13.593200 0.000000
-13.572900 0.000000
-13.552500 0.000000
-13.532200 0.000000
-13.511800 0.000000
-13.491500 0.000000
-13.471100 0.000000
-13.450800 0.000000
-13.430400 0.000000
-13.410100 0.000000
-13.389700 0.000000
-13.369400 0.000000
-13.349000 0.000000
-13.328700 0.000000
-13.308300 0.000000
-13.288000 0.000000
-13.267600 0.000000
-13.247300 0.000000
-13.226900 0.000000
-13.206600 0.000000
-13.186200 0.000000
-13.165800 0.000000
-13.145500 0.000000
-13.125100 0.000000
-13.104800 0.000000
-13.084400 0.000000
-13.064100 0.000000
-13.043700 0.000000
-13.023400 0.000000
-13.003000 0.000000
-12.982700 0.000000
-12.962300 0.000000
-12.942000 0.000000
-12.921600 0.000000
-12.901300 0.000000
-12.880900 0.000000
-12.860600 0.000000
-12.840200 0.000000
-12.819900 0.000000
-12.799500 0.000000
-12.779200 0.000000
-12.758800 0.000000
-12.738500 0.000000
-12.718100 0.000000
-12.697800 0.000000
-12.677400 0.000000
-12.657100 0.000000
-12.636700 0.000000
-12.616300 0.000000
-12.596000 0.000000
-12.575600 0.000000
-12.555300 3.138800
-12.534900 27.170900
-12.514600 82.322900
-12.494200 78.081600
-12.473900 93.617800
-12.453500 102.043600
-12.433200 93.994400
-12.412800 78.832100
-12.392500 96.922600
-12.372100 95.470800
-12.351800 41.750900
-12.331400 56.337100
-12.311100 56.434000
-12.290700 69.003000
-12.270400 68.669600
-12.250000 40.618600
-12.229700 77.735200
-12.209300 67.390500
-12.189000 93.615500
-12.168600 78.382300
-12.148300 98.249200
-12.127900 92.709000
-12.107600 68.023900
-12.087200 74.382000
-12.066800 76.458300
-12.046500 62.561700
-12.026100 54.294000
-12.005800 0.000000
-11.985400 0.000000
-11.965100 0.000000
-11.944700 0.000000
-11.924400 0.000000
-11.904000 0.000000
-11.883700 0.000000
-11.863300 0.000000
-11.843000 0.000000
-11.822600 0.000000
-11.802300 0.000000
-11.781900 0.000000
-11.761600 0.000000
-11.741200 0.000000
-11.720900 0.000000
-11.700500 0.000000
-11.680200 0.000000
-11.659800 0.000000
-11.639500 0.000000
-11.619100 0.000000
-11.598800 0.000000
-11.578400 0.000000
-11.558100 0.000000
-11.537700 0.000000
-11.517300 0.000000
-11.497000 0.000000
-11.476600 0.000000
-11.456300 0.000000
-11.435900 0.000000
-11.415600 0.000000
-11.395200 0.000000
-11.374900 0.000000
-11.354500 0.000000
-11.334200 0.000000
-11.313800 0.000000
-11.293500 0.000000
-11.273100 0.000000
-11.252800 0.000000
-11.232400 0.000000
-11.212100 0.000000
-11.191700 0.000000
-11.171400 0.000000
-11.151000 0.000000
-11.130700 0.000000
-11.110300 0.000000
-11.090000 0.000000
-11.069600 0.000000
-11.049300 0.000000
-11.028900 0.000000
-11.008600 0.000000
-10.988200 0.000000
-10.967800 0.000000
-10.947500 0.000000
-10.927100 0.000000
-10.906800 0.000000
-10.886400 0.000000
-10.866100 0.000000
-10.845700 0.000000
-10.825400 0.000000
-10.805000 0.000000
-10.784700 0.000000
-10.764300 0.000000
-10.744000 0.000000
-10.723600 0.000000
-10.703300 0.000000
-10.682900 0.000000
-10.662600 0.000000
-10.642200 0.000000
-10.621900 0.000000
-10.601500 0.000000
-10.581200 0.000000
-10.560800 0.000000
-10.540500 0.000000
-10.520100 0.000000
-10.499800 0.000000
-10.479400 0.000000
-10.459100 0.000000
-10.438700 0.000000
-10.418300 0.000000
-10.398000 0.000000
-10.377600 0.000000
-10.357300 0.000000
-10.336900 0.000000
-10.316600 0.000000
-10.296200 0.000000
-10.275900 0.000000
-10.255500 0.000000
-10.235200 0.000000
-10.214800 0.000000
-10.194500 0.000000
-10.174100 0.000000
-10.153800 0.000000
-10.133400 0.000000
-10.113100 0.000000
-10.092700 0.000000
-10.072400 0.000000
-10.052000 0.000000
-10.031700 0.000000
-10.011300 0.000000
-9.991000 0.000000
-9.970600 0.000000
-9.950300 0.000000
-9.929900 0.000000
-9.909600 0.000000
-9.889200 0.000000
-9.868800 0.000000
-9.848500 0.000000
-9.828100 0.000000
-9.807800 0.000000
-9.787400 0.000000
-9.767100 0.000000
-9.746700 0.000000
-9.726400 0.000000
-9.706000 0.000000
-9.685700 0.000000
-9.665300 0.000000
-9.645000 0.000000
-9.624600 0.000000
-9.604300 0.000000
-9.583900 0.000000
-9.563600 0.000000
-9.543200 0.000000
-9.522900 0.000000
-9.502500 0.000000
-9.482200 0.000000
-9.461800 0.000000
-9.441500 0.000000
-9.421100 0.000000
-9.400800 0.000000
-9.380400 0.000000
-9.360000 0.000000
-9.339700 0.000000
-9.319300 0.000000
-9.299000 0.000000
-9.278600 0.000000
-9.258300 0.000000
-9.237900 0.000000
-9.217600 0.000000
-9.197200 0.000000
-9.176900 0.000000
-9.156500 0.000000
-9.136200 0.000000
-9.115800 0.000000
-9.095500 0.000000
-9.075100 0.000000
-9.054800 0.000000
-9.034400 0.000000
-9.014100 0.000000
-8.993700 0.000000
-8.973400 0.000000
-8.953000 0.000000
-8.932700 0.000000
-8.912300 0.000000
-8.892000 0.000000
-8.871600 0.000000
-8.851300 0.000000
-8.830900 0.000000
-8.810500 0.000000
-8.790200 0.000000
-8.769800 0.000000
-8.749500 0.000000
-8.729100 0.000000
-8.708800 0.000000
-8.688400 0.000000
-8.668100 0.000000
-8.647700 0.000000
-8.627400 0.000000
-8.607000 0.000000
-8.586700 0.000000
-8.566300 0.000000
-8.546000 0.000000
-8.525600 0.000000
-8.505300 0.000000
-8.484900 0.000000
-8.464600 0.000000
-8.444200 0.000000
-8.423900 0.000000
-8.403500 0.000000
-8.383200 0.000000
-8.362800 0.000000
-8.342500 0.000000
-8.322100 0.000000
-8.301800 0.000000
-8.281400 0.000000
-8.261000 0.000000
-8.240700 0.000000
-8.220300 0.000000
-8.200000 0.000000
-8.179600 0.000000
-8.159300 0.000000
-8.138900 0.000000
-8.118600 0.000000
-8.098200 0.000000
-8.077900 0.000000
-8.057500 0.000000
-8.037200 0.005700
-8.016800 0.033900
-7.996500 0.085500
-7.976100 0.151800
-7.955800 0.175000
-7.935400 0.184600
-7.915100 0.186300
-7.894700 0.206700
-7.874400 0.227700
-7.854000 0.249400
-7.833700 0.271800
-7.813300 0.293000
-7.793000 0.308700
-7.772600 0.317600
-7.752300 0.321300
-7.731900 0.326600
-7.711500 0.336400
-7.691200 0.348100
-7.670800 0.360000
-7.650500 0.372000
-7.630100 0.384000
-7.609800 0.395900
-7.589400 0.407800
-7.569100 0.420200
-7.548700 0.433100
-7.528400 0.443800
-7.508000 0.452600
-7.487700 0.459500
-7.467300 0.466600
-7.447000 0.472900
-7.426600 0.480800
-7.406300 0.488400
-7.385900 0.496000
-7.365600 0.503700
-7.345200 0.511700
-7.324900 0.519900
-7.304500 0.528100
-7.284200 0.536800
-7.263800 0.545800
-7.243500 0.555100
-7.223100 0.564700
-7.202800 0.574400
-7.182400 0.584200
-7.162000 0.593300
-7.141700 0.601500
-7.121300 0.609000
-7.101000 0.616300
-7.080600 0.623500
-7.060300 0.630500
-7.039900 0.637100
-7.019600 0.644000
-6.999200 0.651400
-6.978900 0.658900
-6.958500 0.666400
-6.938200 0.674100
-6.917800 0.681900
-6.897500 0.690000
-6.877100 0.698200
-6.856800 0.706800
-6.836400 0.715700
-6.816100 0.724800
-6.795700 0.734100
-6.775400 0.743400
-6.755000 0.752900
-6.734700 0.762500
-6.714300 0.772500
-6.694000 0.782800
-6.673600 0.793800
-6.653300 0.805800
-6.632900 0.819000
-6.612500 0.833200
-6.592200 0.848100
-6.571800 0.867300
-6.551500 0.928700
-6.531100 0.982300
-6.510800 1.026900
-6.490400 0.984100
-6.470100 0.986400
-6.449700 0.987100
-6.429400 0.987900
-6.409000 0.992800
-6.388700 1.002100
-6.368300 1.014100
-6.348000 1.024800
-6.327600 1.030000
-6.307300 1.035500
-6.286900 1.036600
-6.266600 1.036400
-6.246200 1.033800
-6.225900 1.029700
-6.205500 1.024000
-6.185200 1.016300
-6.164800 1.006800
-6.144500 1.010400
-6.124100 1.058300
-6.103800 1.058700
-6.083400 1.026100
-6.063000 0.965900
-6.042700 0.943300
-6.022300 0.928400
-6.002000 0.913300
-5.981600 0.898500
-5.961300 0.884100
-5.940900 0.870500
-5.920600 0.862600
-5.900200 0.879100
-5.879900 0.899900
-5.859500 0.927200
-5.839200 0.875800
-5.818800 0.869900
-5.798500 0.863200
-5.778100 0.856900
-5.757800 0.850800
-5.737400 0.844900
-5.717100 0.829800
-5.696700 0.807900
-5.676400 0.783200
-5.656000 0.766700
-5.635700 0.752800
-5.615300 0.741500
-5.595000 0.730000
-5.574600 0.721600
-5.554300 0.713800
-5.533900 0.706500
-5.513500 0.699500
-5.493200 0.693200
-5.472800 0.688800
-5.452500 0.684500
-5.432100 0.680300
-5.411800 0.669900
-5.391400 0.663800
-5.371100 0.662400
-5.350700 0.670700
-5.330400 0.682100
-5.310000 0.696400
-5.289700 0.717700
-5.269300 0.749800
-5.249000 0.789400
-5.228600 0.833600
-5.208300 0.879900
-5.187900 0.933500
-5.167600 0.985400
-5.147200 1.007500
-5.126900 1.005400
-5.106500 0.993500
-5.086200 0.992300
-5.065800 1.007300
-5.045500 0.996900
-5.025100 0.989100
-5.004800 0.981900
-4.984400 0.975300
-4.964000 0.967500
-4.943700 0.960300
-4.923300 0.961700
-4.903000 0.991500
-4.882600 0.986600
-4.862300 0.983300
-4.841900 0.957600
-4.821600 0.955200
-4.801200 0.953700
-4.780900 0.952900
-4.760500 0.951600
-4.740200 0.950500
-4.719800 1.029800
-4.699500 0.988400
-4.679100 0.941100
-4.658800 0.945200
-4.638400 0.950800
-4.618100 0.956700
-4.597700 0.964500
-4.577400 0.974300
-4.557000 0.985300
-4.536700 0.998200
-4.516300 1.014600
-4.496000 1.038600
-4.475600 1.068900
-4.455300 1.148900
-4.434900 1.208000
-4.414500 1.293400
-4.394200 1.402600
-4.373800 1.419700
-4.353500 1.425000
-4.333100 1.409500
-4.312800 1.372300
-4.292400 1.347200
-4.272100 1.346600
-4.251700 1.369200
-4.231400 1.366500
-4.211000 1.355000
-4.190700 1.318700
-4.170300 1.295900
-4.150000 1.279300
-4.129600 1.254700
-4.109300 1.231000
-4.088900 1.191000
-4.068600 1.146900
-4.048200 1.106700
-4.027900 1.070800
-4.007500 1.039200
-3.987200 1.005000
-3.966800 0.982700
-3.946500 0.963400
-3.926100 0.920600
-3.905800 0.904300
-3.885400 0.887900
-3.865000 0.865300
-3.844700 0.840200
-3.824300 0.823300
-3.804000 0.809600
-3.783600 0.791100
-3.763300 0.773200
-3.742900 0.759400
-3.722600 0.745900
-3.702200 0.730400
-3.681900 0.712900
-3.661500 0.692700
-3.641200 0.675300
-3.620800 0.809800
-3.600500 0.709600
-3.580100 0.705600
-3.559800 0.719700
-3.539400 0.698000
-3.519100 0.727800
-3.498700 0.742100
-3.478400 0.771300
-3.458000 0.818200
-3.437700 0.878300
-3.417300 0.865000
-3.397000 0.896400
-3.376600 0.919800
-3.356300 0.940800
-3.335900 0.959300
-3.315500 0.999600
-3.295200 1.019600
-3.274800 1.040000
-3.254500 1.055200
-3.234100 1.065900
-3.213800 1.070600
-3.193400 1.068800
-3.173100 1.057500
-3.152700 1.089500
-3.132400 1.031700
-3.112000 1.037500
-3.091700 1.047000
-3.071300 1.057200
-3.051000 1.092400
-3.030600 1.129800
-3.010300 1.170000
-2.989900 1.213500
-2.969600 1.137900
-2.949200 1.152000
-2.928900 1.166700
-2.908500 1.185200
-2.888200 1.166500
-2.867800 1.185600
-2.847500 1.209300
-2.827100 1.246000
-2.806800 1.289400
-2.786400 1.345500
-2.766000 1.416900
-2.745700 1.503500
-2.725300 1.576800
-2.705000 1.587400
-2.684600 1.535200
-2.664300 1.494200
-2.643900 1.467100
-2.623600 1.455400
-2.603200 1.453200
-2.582900 1.436800
-2.562500 1.427200
-2.542200 1.425800
-2.521800 1.422100
-2.501500 1.422400
-2.481100 1.402800
-2.460800 1.397500
-2.440400 1.393600
-2.420100 1.391800
-2.399700 1.394400
-2.379400 1.401300
-2.359000 1.405100
-2.338700 1.403700
-2.318300 1.399600
-2.298000 1.400000
-2.277600 1.402400
-2.257300 1.409800
-2.236900 1.400600
-2.216500 1.381400
-2.196200 1.369300
-2.175800 1.359900
-2.155500 1.348100
-2.135100 1.333800
-2.114800 1.325400
-2.094400 1.319700
-2.074100 1.315100
-2.053700 1.313700
-2.033400 1.315100
-2.013000 1.316500
-1.992700 1.310500
-1.972300 1.303500
-1.952000 1.298000
-1.931600 1.294200
-1.911300 1.293000
-1.890900 1.295500
-1.870600 1.295500
-1.850200 1.292500
-1.829900 1.285300
-1.809500 1.272800
-1.789200 1.262200
-1.768800 1.253200
-1.748500 1.239500
-1.728100 1.227200
-1.707800 1.215000
-1.687400 1.195100
-1.667000 1.170600
-1.646700 1.128600
-1.626300 1.103900
-1.606000 1.086000
-1.585600 1.067000
-1.565300 1.054000
-1.544900 1.051100
-1.524600 1.048000
-1.504200 1.042700
-1.483900 1.035200
-1.463500 1.025000
-1.443200 1.006700
-1.422800 0.992000
-1.402500 0.984800
-1.382100 0.978600
-1.361800 0.972900
-1.341400 0.966600
-1.321100 0.988200
-1.300700 0.982400
-1.280400 0.962100
-1.260000 0.952600
-1.239700 0.945100
-1.219300 0.937000
-1.199000 0.928700
-1.178600 0.920000
-1.158200 0.910900
-1.137900 0.898400
-1.117500 0.886200
-1.097200 0.873900
-1.076800 0.860900
-1.056500 0.846700
-1.036100 0.831300
-1.015800 0.814700
-0.995400 0.800800
-0.975100 0.794300
-0.954700 0.790200
-0.934400 0.787400
-0.914000 0.786300
-0.893700 0.786200
-0.873300 0.787200
-0.853000 0.789300
-0.832600 0.792500
-0.812300 0.807900
-0.791900 0.850700
-0.771600 0.898700
-0.751200 0.936400
-0.730900 0.963800
-0.710500 0.983500
-0.690200 0.995300
-0.669800 1.011500
-0.649500 1.032600
-0.629100 1.074300
-0.608700 1.121000
-0.588400 1.166600
-0.568000 1.158300
-0.547700 1.175100
-0.527300 1.187900
-0.507000 1.201100
-0.486600 1.214200
-0.466300 1.228200
-0.445900 1.239000
-0.425600 1.242600
-0.405200 1.249200
-0.384900 1.260700
-0.364500 1.275500
-0.344200 1.291800
-0.323800 1.309000
-0.303500 1.325700
-0.283100 1.348300
-0.262800 1.370700
-0.242400 1.379800
-0.222100 1.379500
-0.201700 1.393700
-0.181400 1.414600
-0.161000 1.424700
-0.140700 1.423000
-0.120300 1.428400
-0.100000 1.427800
-0.079600 1.428500
-0.059200 1.435000
-0.038900 1.446500
-0.018500 1.461900
0.001800 1.478000
0.022200 1.493300
0.042500 1.510700
0.062900 1.524700
0.083200 1.559000
0.103600 1.571200
0.123900 1.573300
0.144300 1.573300
0.164600 1.568300
0.185000 1.559500
0.205300 1.551100
0.225700 1.552600
0.246000 1.560800
0.266400 1.572700
0.286700 1.587600
0.307100 1.597400
0.327400 1.613400
0.347800 1.633700
0.368100 1.656500
0.388500 1.677100
0.408800 1.705500
0.429200 1.722300
0.449500 1.722200
0.469900 1.736400
0.490300 1.742400
0.510600 1.742900
0.531000 1.742600
0.551300 1.752100
0.571700 1.765600
0.592000 1.779300
0.612400 1.791900
0.632700 1.801200
0.653100 1.818800
0.673400 1.848300
0.693800 1.874500
0.714100 1.898800
0.734500 1.912000
0.754800 1.916800
0.775200 1.907400
0.795500 1.913200
0.815900 1.915900
0.836200 1.915700
0.856600 1.913900
0.876900 1.925800
0.897300 1.926900
0.917600 1.905600
0.938000 1.890500
0.958300 1.881600
0.978700 1.881200
0.999000 1.889500
1.019400 1.902700
1.039800 1.913600
1.060100 1.907100
1.080500 1.918900
1.100800 1.925600
1.121200 1.931500
1.141500 1.939600
1.161900 1.952100
1.182200 1.971200
1.202600 1.998500
1.222900 2.028700
1.243300 2.057100
1.263600 2.079200
1.284000 2.093700
1.304300 2.082500
1.324700 2.111100
1.345000 2.133400
1.365400 2.109900
1.385700 2.078400
1.406100 2.039600
1.426400 1.993700
1.446800 1.949000
1.467100 1.906300
1.487500 1.870200
1.507800 1.847500
1.528200 1.807500
1.548500 1.767800
1.568900 1.736100
1.589300 1.713300
1.609600 1.729900
1.630000 1.765000
1.650300 1.710100
1.670700 1.655100
1.691000 1.631800
1.711400 1.623800
1.731700 1.628700
1.752100 1.613800
1.772400 1.598300
1.792800 1.585100
1.813100 1.601100
1.833500 1.608600
1.853800 1.576200
1.874200 1.561100
1.894500 1.563500
1.914900 1.590600
1.935200 1.628600
1.955600 1.642000
1.975900 1.646100
1.996300 1.656600
2.016600 1.678700
2.037000 1.683000
2.057300 1.669000
2.077700 1.641100
2.098000 1.623200
2.118400 1.606900
2.138800 1.592100
2.159100 1.569700
2.179500 1.556000
2.199800 1.538700
2.220200 1.493100
2.240500 1.467000
2.260900 1.414000
2.281200 1.354100
2.301600 1.303700
2.321900 1.260100
2.342300 1.242900
2.362600 1.234100
2.383000 1.203700
2.403300 1.071600
2.423700 0.883300
2.444000 0.715900
2.464400 0.614500
2.484700 0.538400
2.505100 0.493900
2.525400 0.462200
2.545800 0.440200
2.566100 0.424500
2.586500 0.408800
2.606800 0.393700
2.627200 0.381700
2.647500 0.372600
2.667900 0.366400
2.688300 0.363700
2.708600 0.365000
2.729000 0.369000
2.749300 0.376600
2.769700 0.399200
2.790000 0.424100
2.810400 0.477800
2.830700 0.535700
2.851100 0.575500
2.871400 0.616600
2.891800 0.663500
2.912100 0.735700
2.932500 0.810500
2.952800 0.907200
2.973200 0.984400
2.993500 1.042700
3.013900 1.093600
3.034200 1.128500
3.054600 1.186700
3.074900 1.241000
3.095300 1.282500
3.115600 1.336800
3.136000 1.394700
3.156300 1.450600
3.176700 1.508400
3.197000 1.566900
3.217400 1.627400
3.237800 1.698900
3.258100 1.756100
3.278500 1.760700
3.298800 1.752700
3.319200 1.728900
3.339500 1.727000
3.359900 1.697200
3.380200 1.650900
3.400600 1.641600
3.420900 1.661300
3.441300 1.698900
3.461600 1.732800
3.482000 1.758200
3.502300 1.776700
3.522700 1.831200
3.543000 1.863200
3.563400 1.903500
3.583700 1.913900
3.604100 1.961700
3.624400 1.956700
3.644800 1.989300
3.665100 1.983100
3.685500 2.003300
3.705800 2.041500
3.726200 2.133800
3.746500 2.141300
3.766900 2.189400
3.787300 2.282900
3.807600 2.395800
3.828000 2.276900
3.848300 2.177100
3.868700 2.108300
3.889000 2.067800
3.909400 2.056700
3.929700 2.045200
3.950100 2.044200
3.970400 2.056000
3.990800 2.071700
4.011100 2.087500
4.031500 2.092800
4.051800 2.097000
4.072200 2.107200
4.092500 2.207400
4.112900 2.147100
4.133200 2.116100
4.153600 2.094800
4.173900 2.080900
4.194300 2.054900
4.214600 2.035500
4.235000 2.029700
4.255300 2.016500
4.275700 1.993900
4.296000 1.955300
4.316400 1.915800
4.336800 1.881200
4.357100 1.850000
4.377500 1.811700
4.397800 1.750800
4.418200 1.687800
4.438500 1.630000
4.458900 1.580000
4.479200 1.552900
4.499600 1.573800
4.519900 1.612800
4.540300 1.628000
4.560600 1.621100
4.581000 1.597900
4.601300 1.570100
4.621700 1.552500
4.642000 1.549700
4.662400 1.558900
4.682700 1.573400
4.703100 1.600200
4.723400 1.647000
4.743800 1.683200
4.764100 1.718000
4.784500 1.749600
4.804800 1.754900
4.825200 1.740100
4.845500 1.738300
4.865900 1.746600
4.886300 1.756600
4.906600 1.776200
4.927000 1.794000
4.947300 1.805900
4.967700 1.812800
4.988000 1.815200
5.008400 1.818100
5.028700 1.831500
5.049100 1.846300
5.069400 1.863400
5.089800 1.882400
5.110100 1.885100
5.130500 1.899200
5.150800 1.918700
5.171200 1.940900
5.191500 1.961500
5.211900 1.992600
5.232200 2.031900
5.252600 2.064000
5.272900 2.096500
5.293300 2.128600
5.313600 2.161300
5.334000 2.196600
5.354300 2.344700
5.374700 2.282000
5.395000 2.195900
5.415400 2.152600
5.435800 2.135300
5.456100 2.100300
5.476500 2.065400
5.496800 2.029400
5.517200 1.969600
5.537500 1.905000
5.557900 1.822500
5.578200 1.772100
5.598600 1.733500
5.618900 1.726000
5.639300 1.736600
5.659600 1.710200
5.680000 1.725400
5.700300 1.726500
5.720700 1.733800
5.741000 1.747100
5.761400 1.759700
5.781700 1.767700
5.802100 1.774000
5.822400 1.784300
5.842800 1.796800
5.863100 1.816200
5.883500 1.852800
5.903800 1.924700
5.924200 1.908200
5.944500 1.945700
5.964900 1.977500
5.985300 2.006000
6.005600 2.042200
6.026000 2.086200
6.046300 2.126200
6.066700 2.169800
6.087000 2.206400
6.107400 2.240600
6.127700 2.260400
6.148100 2.268400
6.168400 2.272300
6.188800 2.304800
6.209100 2.303800
6.229500 2.299700
6.249800 2.265300
6.270200 2.276700
6.290500 2.271800
6.310900 2.253900
6.331200 2.267200
6.351600 2.279000
6.371900 2.372600
6.392300 2.285300
6.412600 2.298200
6.433000 2.311200
6.453300 2.245000
6.473700 2.161100
6.494000 2.081600
6.514400 2.003000
6.534800 1.957200
6.555100 1.957300
6.575500 1.956900
6.595800 1.952700
6.616200 1.950400
6.636500 1.955400
6.656900 1.960500
6.677200 1.979800
6.697600 1.999300
6.717900 2.016700
6.738300 2.029000
6.758600 2.042000
6.779000 2.194400
