set title 'mp-1182029 - Density of States'
set xlabel 'Energy (eV)'
set ylabel 'DOS (states/eV)'
set grid
set xrange [-10:10]
set yrange [0:1.557]
set xzeroaxis lt -1
set terminal png size 800,600
set output 'mp-1182029_dos_gnuplot.png'
plot '-' using 1:2 with lines title 'DOS'
-23.186200 0.000000
-23.109100 0.000000
-23.031900 0.000000
-22.954700 0.000000
-22.877600 0.000000
-22.800400 0.000000
-22.723300 0.000000
-22.646100 0.000000
-22.569000 0.000000
-22.491800 0.000000
-22.414600 0.000000
-22.337500 0.000000
-22.260300 0.000000
-22.183200 0.000000
-22.106000 0.000000
-22.028900 0.000000
-21.951700 0.000000
-21.874500 0.000000
-21.797400 0.000000
-21.720200 0.000000
-21.643100 0.000000
-21.565900 0.000000
-21.488800 0.000000
-21.411600 0.000000
-21.334400 0.000000
-21.257300 0.000000
-21.180100 0.000000
-21.103000 0.000000
-21.025800 0.000000
-20.948700 0.000000
-20.871500 0.000000
-20.794300 0.000000
-20.717200 0.000000
-20.640000 0.000000
-20.562900 0.000000
-20.485700 0.000000
-20.408600 0.000000
-20.331400 0.000000
-20.254200 0.000000
-20.177100 0.000000
-20.099900 0.000000
-20.022800 0.000000
-19.945600 0.000000
-19.868500 0.000000
-19.791300 0.000000
-19.714100 0.000000
-19.637000 0.000000
-19.559800 0.000000
-19.482700 0.000000
-19.405500 0.000000
-19.328400 0.000000
-19.251200 0.000000
-19.174100 0.000000
-19.096900 0.000000
-19.019700 0.000000
-18.942600 0.000000
-18.865400 0.000000
-18.788300 0.000000
-18.711100 0.000000
-18.634000 0.000000
-18.556800 0.000000
-18.479600 0.000000
-18.402500 0.000000
-18.325300 0.000000
-18.248200 0.000000
-18.171000 0.000000
-18.093900 0.000000
-18.016700 0.000000
-17.939500 0.000000
-17.862400 0.000000
-17.785200 0.000000
-17.708100 0.000000
-17.630900 0.000000
-17.553800 0.000000
-17.476600 0.000000
-17.399400 0.000000
-17.322300 0.000000
-17.245100 0.000000
-17.168000 0.000000
-17.090800 0.000000
-17.013700 0.000000
-16.936500 0.000000
-16.859300 0.000000
-16.782200 0.000000
-16.705000 0.000000
-16.627900 0.000000
-16.550700 0.000000
-16.473600 0.000000
-16.396400 0.000000
-16.319200 0.000000
-16.242100 0.000000
-16.164900 0.066600
-16.087800 0.220600
-16.010600 0.335300
-15.933500 0.508700
-15.856300 0.741100
-15.779100 0.719200
-15.702000 0.713900
-15.624800 0.621600
-15.547700 0.506100
-15.470500 0.453400
-15.393400 0.406000
-15.316200 0.380700
-15.239000 0.356300
-15.161900 0.335200
-15.084700 0.321400
-15.007600 0.307100
-14.930400 0.294600
-14.853300 0.285100
-14.776100 0.273700
-14.698900 0.266500
-14.621800 0.258900
-14.544600 0.254200
-14.467500 0.248500
-14.390300 0.239600
-14.313200 0.234100
-14.236000 0.229900
-14.158800 0.228100
-14.081700 0.225100
-14.004500 0.220800
-13.927400 0.214200
-13.850200 0.210200
-13.773100 0.207400
-13.695900 0.207400
-13.618800 0.206100
-13.541600 0.203700
-13.464400 0.199400
-13.387300 0.195300
-13.310100 0.192800
-13.233000 0.192100
-13.155800 0.192100
-13.078700 0.191700
-13.001500 0.190100
-12.924300 0.187200
-12.847200 0.184100
-12.770000 0.182200
-12.692900 0.182000
-12.615700 0.182000
-12.538600 0.182000
-12.461400 0.181500
-12.384200 0.180300
-12.307100 0.178200
-12.229900 0.176800
-12.152800 0.176400
-12.075600 0.176400
-11.998500 0.176400
-11.921300 0.176400
-11.844100 0.176300
-11.767000 0.176100
-11.689800 0.175600
-11.612700 0.175300
-11.535500 0.175300
-11.458400 0.175300
-11.381200 0.175300
-11.304000 0.175300
-11.226900 0.175900
-11.149700 0.177500
-11.072600 0.179200
-10.995400 0.179600
-10.918300 0.179600
-10.841100 0.179600
-10.763900 0.179600
-10.686800 0.179600
-10.609600 0.182000
-10.532500 0.188300
-10.455300 0.191300
-10.378200 0.191300
-10.301000 0.191300
-10.223800 0.191300
-10.146700 0.191300
-10.069500 0.193600
-9.992400 0.208300
-9.915200 0.215000
-9.838100 0.215000
-9.760900 0.215000
-9.683700 0.215000
-9.606600 0.215000
-9.529400 0.235700
-9.452300 0.262000
-9.375100 0.262000
-9.298000 0.262000
-9.220800 0.262000
-9.143600 0.282900
-9.066500 0.366700
-8.989300 0.366700
-8.912200 0.366700
-8.835000 0.542000
-8.757900 0.702400
-8.680700 1.415300
-8.603600 0.000000
-8.526400 0.000000
-8.449200 0.000000
-8.372100 0.000000
-8.294900 0.000000
-8.217800 0.000000
-8.140600 0.000000
-8.063500 0.000000
-7.986300 0.000000
-7.909100 0.000000
-7.832000 0.000000
-7.754800 0.000000
-7.677700 0.000000
-7.600500 0.000000
-7.523400 0.000000
-7.446200 0.000000
-7.369000 0.000000
-7.291900 0.000000
-7.214700 0.000000
-7.137600 0.000000
-7.060400 0.000000
-6.983300 0.000000
-6.906100 0.000000
-6.828900 0.000000
-6.751800 0.000000
-6.674600 0.000000
-6.597500 0.000000
-6.520300 0.000000
-6.443200 0.000000
-6.366000 0.000000
-6.288800 0.000000
-6.211700 0.000000
-6.134500 0.000000
-6.057400 0.000000
-5.980200 0.000000
-5.903100 0.000000
-5.825900 0.044100
-5.748700 0.140900
-5.671600 0.196000
-5.594400 0.249700
-5.517300 0.341500
-5.440100 0.383900
-5.363000 0.385400
-5.285800 0.394400
-5.208600 0.394900
-5.131500 0.403100
-5.054300 0.403600
-4.977200 0.412100
-4.900000 0.440900
-4.822900 0.430300
-4.745700 0.437200
-4.668500 0.451500
-4.591400 0.470600
-4.514200 0.483000
-4.437100 0.505500
-4.359900 0.540700
-4.282800 0.581800
-4.205600 0.647200
-4.128400 0.686400
-4.051300 0.638200
-3.974100 0.552700
-3.897000 0.500200
-3.819800 0.470400
-3.742700 0.439800
-3.665500 0.418300
-3.588300 0.405000
-3.511200 0.390600
-3.434000 0.374800
-3.356900 0.362600
-3.279700 0.353900
-3.202600 0.347000
-3.125400 0.339000
-3.048300 0.329600
-2.971100 0.318500
-2.893900 0.309700
-2.816800 0.304300
-2.739600 0.300600
-2.662500 0.296900
-2.585300 0.293000
-2.508200 0.288200
-2.431000 0.282100
-2.353800 0.275300
-2.276700 0.270400
-2.199500 0.266700
-2.122400 0.263400
-2.045200 0.260400
-1.968100 0.257500
-1.890900 0.254500
-1.813700 0.251200
-1.736600 0.247400
-1.659400 0.243300
-1.582300 0.240600
-1.505100 0.238600
-1.428000 0.236700
-1.350800 0.234600
-1.273600 0.232300
-1.196500 0.229600
-1.119300 0.227000
-1.042200 0.224500
-0.965000 0.221700
-0.887900 0.218500
-0.810700 0.215800
-0.733500 0.214200
-0.656400 0.213500
-0.579200 0.212700
-0.502100 0.211800
-0.424900 0.210400
-0.347800 0.208800
-0.270600 0.207100
-0.193400 0.205000
-0.116300 0.202600
-0.039100 0.200300
0.038000 0.197700
0.115200 0.195500
0.192300 0.194300
0.269500 0.193700
0.346700 0.193100
0.423800 0.192500
0.501000 0.191900
0.578100 0.191200
0.655300 0.190500
0.732400 0.189400
0.809600 0.188100
0.886800 0.186500
0.963900 0.184500
1.041100 0.182300
1.118200 0.180200
1.195400 0.178900
1.272500 0.178300
1.349700 0.177800
1.426900 0.177300
1.504000 0.176800
1.581200 0.176300
1.658300 0.175900
1.735500 0.175300
1.812600 0.174800
1.889800 0.174300
1.967000 0.173500
2.044100 0.172300
2.121300 0.170800
2.198400 0.169000
2.275600 0.167400
2.352700 0.166500
2.429900 0.166000
2.507000 0.165500
2.584200 0.165100
2.661400 0.164700
2.738500 0.164300
2.815700 0.164000
2.892800 0.163600
2.970000 0.163200
3.047100 0.162800
3.124300 0.162300
3.201500 0.161900
3.278600 0.161200
3.355800 0.160200
3.432900 0.159000
3.510100 0.158000
3.587200 0.157200
3.664400 0.156700
3.741600 0.156300
3.818700 0.156000
3.895900 0.155700
3.973000 0.155400
4.050200 0.155100
4.127300 0.154800
4.204500 0.154500
4.281700 0.154300
4.358800 0.154000
4.436000 0.153700
4.513100 0.153300
4.590300 0.152900
4.667400 0.152300
4.744600 0.151600
4.821800 0.151100
4.898900 0.150800
4.976100 0.150500
5.053200 0.150100
5.130400 0.149900
5.207500 0.149700
5.284700 0.166600
5.361900 0.172900
5.439000 0.180600
5.516200 0.184400
5.593300 0.188000
5.670500 0.191600
5.747600 0.195700
5.824800 0.199900
5.902000 0.204200
5.979100 0.207300
6.056300 0.210400
6.133400 0.213500
6.210600 0.217200
6.287700 0.220900
6.364900 0.224800
6.442100 0.228800
6.519200 0.232800
6.596400 0.236500
6.673500 0.258300
6.750700 0.271900
6.827800 0.282900
6.905000 0.292300
6.982200 0.301600
7.059300 0.312100
7.136500 0.324800
7.213600 0.336900
7.290800 0.347900
7.367900 0.363500
7.445100 0.386000
7.522200 0.413200
7.599400 0.430100
7.676600 0.424300
7.753700 0.419900
7.830900 0.418500
7.908000 0.415400
7.985200 0.412300
8.062300 0.413000
8.139500 0.412100
8.216700 0.410100
8.293800 0.407400
8.371000 0.407500
8.448100 0.408200
8.525300 0.408800
8.602400 0.411800
8.679600 0.560700
8.756800 0.622100
8.833900 0.727200
8.911100 0.754100
8.988200 0.817600
9.065400 0.975700
9.142500 0.913300
9.219700 0.737500
9.296900 0.530000
9.374000 0.390800
9.451200 0.331600
9.528300 0.316000
9.605500 0.325900
9.682600 0.343500
9.759800 0.366900
9.837000 0.396200
9.914100 0.440000
9.991300 0.543800
10.068400 0.894200
10.145600 0.952200
10.222700 0.800900
10.299900 0.771200
10.377100 0.759200
10.454200 0.762800
10.531400 0.781300
10.608500 0.804500
10.685700 0.826700
10.762800 0.842900
10.840000 0.838800
10.917200 0.836100
10.994300 0.837600
11.071500 0.929400
11.148600 0.911300
11.225800 0.925100
11.302900 0.942300
11.380100 0.882800
11.457300 0.829200
11.534400 0.816100
11.611600 0.661500
11.688700 0.588400
11.765900 0.708500
11.843000 0.461800
11.920200 0.451400
11.997400 0.442100
12.074500 0.433400
12.151700 0.424700
12.228800 0.418700
12.306000 0.414000
12.383100 0.406300
12.460300 0.395600
12.537500 0.380500
12.614600 0.365600
12.691800 0.362400
12.768900 0.354900
12.846100 0.352000
12.923200 0.350600
13.000400 0.350000
13.077500 0.349200
13.154700 0.349900
13.231900 0.352000
13.309000 0.354600
13.386200 0.359800
13.463300 0.367600
13.540500 0.380800
13.617600 0.402200
13.694800 0.466800
13.772000 0.515600
13.849100 0.513900
13.926300 0.504500
14.003400 0.484200
14.080600 0.453200
14.157700 0.425600
14.234900 0.406400
14.312100 0.389600
14.389200 0.377500
14.466400 0.366900
14.543500 0.358300
14.620700 0.352300
14.697800 0.347800
14.775000 0.346200
14.852200 0.343900
14.929300 0.344100
15.006500 0.346400
15.083600 0.354100
15.160800 0.366700
15.237900 0.371100
15.315100 0.356000
15.392300 0.343200
15.469400 0.328900
15.546600 0.315400
15.623700 0.304500
15.700900 0.296300
15.778000 0.289800
15.855200 0.284700
15.932400 0.280100
16.009500 0.275500
16.086700 0.271000
16.163800 0.266800
16.241000 0.262500
16.318100 0.258300
16.395300 0.253700
16.472500 0.250700
16.549600 0.248200
16.626800 0.245600
16.703900 0.243300
16.781100 0.241100
16.858200 0.239100
16.935400 0.237100
17.012600 0.235000
17.089700 0.240600
17.166900 0.262600
17.244000 0.257100
17.321200 0.259200
17.398300 0.262900
17.475500 0.266600
17.552700 0.271100
17.629800 0.273900
17.707000 0.277300
17.784100 0.280700
17.861300 0.284600
17.938400 0.291200
18.015600 0.297700
18.092700 0.297000
18.169900 0.301200
18.247100 0.305800
18.324200 0.313000
18.401400 0.322400
18.478500 0.332800
18.555700 0.346800
18.632800 0.362200
18.710000 0.377600
18.787200 0.381800
18.864300 0.430500
18.941500 0.394100
19.018600 0.409100
19.095800 0.436500
19.172900 0.450600
19.250100 0.463000
19.327300 0.455000
19.404400 0.453200
19.481600 0.435300
19.558700 0.424500
19.635900 0.414700
19.713000 0.414300
19.790200 0.414000
19.867400 0.412100
19.944500 0.413900
20.021700 0.415700
20.098800 0.420400
20.176000 0.436500
20.253100 0.446700
20.330300 0.460900
20.407500 0.480000
20.484600 0.485300
20.561800 0.480900
20.638900 0.512900
20.716100 0.536000
20.793200 0.559700
20.870400 0.567200
20.947600 0.567800
21.024700 0.562300
21.101900 0.564000
21.179000 0.575000
21.256200 0.580800
21.333300 0.587600
21.410500 0.591300
21.487700 0.598400
21.564800 0.597700
21.642000 0.632900
21.719100 0.668500
21.796300 0.690000
21.873400 0.717000
21.950600 0.754500
22.027800 0.794700
22.104900 0.765000
22.182100 0.755900
22.259200 0.759900
22.336400 0.770100
22.413500 0.810400
22.490700 0.828900
22.567900 0.877300
22.645000 0.808100
22.722200 0.739400
22.799300 0.669200
22.876500 0.607000
22.953600 0.570700
23.030800 0.534200
23.108000 0.531500
23.185100 0.494000
23.262300 0.473000
23.339400 0.468800
23.416600 0.477200
23.493700 0.488200
23.570900 0.547600
23.648000 0.576100
23.725200 0.570500
23.802400 0.589400
23.879500 0.618300
23.956700 0.646500
24.033800 0.654200
24.111000 0.669600
24.188100 0.687500
24.265300 0.712900
24.342500 0.751100
24.419600 0.768800
24.496800 0.776000
24.573900 0.729400
24.651100 0.722500
24.728200 0.731700
24.805400 0.736600
24.882600 0.739000
24.959700 0.708000
25.036900 0.687600
25.114000 0.661400
25.191200 0.645900
25.268300 0.630200
25.345500 0.587800
25.422700 0.548900
25.499800 0.525400
25.577000 0.498300
25.654100 0.466400
25.731300 0.444800
25.808400 0.423000
25.885600 0.425800
25.962800 0.429800
26.039900 0.433200
26.117100 0.448300
26.194200 0.455800
26.271400 0.468800
26.348500 0.488800
26.425700 0.518500
26.502900 0.529200
26.580000 0.524300
26.657200 0.518900
26.734300 0.526200
26.811500 0.532700
26.888600 0.542600
26.965800 0.549800
27.043000 0.552600
27.120100 0.562500
27.197300 0.556600
27.274400 0.566200
27.351600 0.582000
27.428700 0.594600
27.505900 0.588600
27.583100 0.594400
27.660200 0.593800
27.737400 0.591400
27.814500 0.586900
27.891700 0.585100
27.968800 0.566400
28.046000 0.536600
28.123200 0.516600
28.200300 0.490600
28.277500 0.470400
28.354600 0.452900
28.431800 0.442700
28.508900 0.437300
28.586100 0.422800
28.663200 0.426300
28.740400 0.446300
28.817600 0.458600
28.894700 0.462800
28.971900 0.473500
29.049000 0.493800
29.126200 0.506000
29.203300 0.508300
29.280500 0.518700
29.357700 0.512700
29.434800 0.519700
29.512000 0.566300
29.589100 0.596200
29.666300 0.593600
29.743400 0.574900
29.820600 0.562300
29.897800 0.563400
29.974900 0.569400
30.052100 0.579900
30.129200 0.582200
30.206400 0.585300
30.283500 0.594300
30.360700 0.605500
30.437900 0.628500
30.515000 0.664600
30.592200 0.689800
30.669300 0.694900
30.746500 0.694400
30.823600 0.702000
30.900800 0.712500
30.978000 0.728800
31.055100 0.737700
31.132300 0.752700
31.209400 0.769700
31.286600 0.799800
31.363700 0.807300
31.440900 0.816300
31.518100 0.815300
31.595200 0.825800
31.672400 0.834900
31.749500 0.839300
31.826700 0.875200
31.903800 0.910600
31.981000 0.945700
32.058200 1.089100
32.135300 1.069100
32.212500 0.999200
32.289600 0.957600
32.366800 0.902000
32.443900 0.863600
32.521100 0.833800
32.598300 0.805200
32.675400 0.799600
32.752600 0.809500
32.829700 0.790600
32.906900 0.756100
32.984000 0.742500
33.061200 0.731000
33.138400 0.723000
33.215500 0.719600
33.292700 0.750000
33.369800 0.801600
33.447000 0.777400
33.524100 0.764000
33.601300 0.739600
33.678500 0.695500
33.755600 0.664000
33.832800 0.648300
33.909900 0.622300
33.987100 0.587400
34.064200 0.562100
34.141400 0.555900
34.218500 0.557800
34.295700 0.564300
34.372900 0.581100
34.450000 0.587000
34.527200 0.600900
34.604300 0.612800
34.681500 0.609000
34.758600 0.570700
34.835800 0.567700
34.913000 0.571900
34.990100 0.565400
35.067300 0.569200
35.144400 0.564000
35.221600 0.561400
35.298700 0.560000
35.375900 0.558300
35.453100 0.554700
35.530200 0.549900
35.607400 0.547500
35.684500 0.555700
35.761700 0.575500
35.838800 0.575700
35.916000 0.551700
35.993200 0.541400
36.070300 0.608000
36.147500 0.507400
36.224600 0.522600
36.301800 0.546900
36.378900 0.571600
36.456100 0.581700
36.533300 0.610300
36.610400 0.664300
36.687600 0.723500
36.764700 0.755500
36.841900 0.786100
36.919000 0.799300
36.996200 0.801300
37.073400 0.823100
37.150500 0.866400
37.227700 0.968600
37.304800 1.138600
37.382000 0.850600
37.459100 0.779700
37.536300 0.738900
37.613500 0.712400
37.690600 0.697100
37.767800 0.678600
37.844900 0.660600
37.922100 0.651900
37.999200 0.674200
38.076400 0.676100
38.153600 0.686400
38.230700 0.699300
38.307900 0.699500
38.385000 0.705300
38.462200 0.708100
38.539300 0.691600
38.616500 0.679200
38.693700 0.670500
38.770800 0.663000
38.848000 0.661600
38.925100 0.664900
39.002300 0.676000
39.079400 0.685600
39.156600 0.662100
39.233700 0.666100
39.310900 0.675100
39.388100 0.679700
39.465200 0.695700
39.542400 0.694800
39.619500 0.688800
39.696700 0.685400
39.773800 0.683600
39.851000 0.691900
39.928200 0.674000
40.005300 0.656600
40.082500 0.654000
40.159600 0.632900
40.236800 0.618300
40.313900 0.619600
40.391100 0.605900
40.468300 0.596600
40.545400 0.593800
40.622600 0.581400
40.699700 0.579300
40.776900 0.598800
40.854000 0.583100
40.931200 0.577400
41.008400 0.581500
41.085500 0.593100
41.162700 0.623900
41.239800 0.623000
41.317000 0.613500
41.394100 0.615100
41.471300 0.615400
41.548500 0.623000
41.625600 0.616800
41.702800 0.617000
41.779900 0.623000
41.857100 0.616300
41.934200 0.609600
42.011400 0.599400
42.088600 0.598300
42.165700 0.596300
42.242900 0.601200
42.320000 0.611300
42.397200 0.622900
42.474300 0.630600
42.551500 0.629900
42.628700 0.626500
42.705800 0.619800
42.783000 0.610200
42.860100 0.605400
42.937300 0.593200
43.014400 0.596900
43.091600 0.608600
43.168800 0.608100
43.245900 0.614300
43.323100 0.625900
43.400200 0.635000
43.477400 0.623200
43.554500 0.629600
43.631700 0.640600
43.708900 0.651300
43.786000 0.668800
43.863200 0.673200
43.940300 0.671800
44.017500 0.680500
44.094600 0.696800
44.171800 0.721500
44.249000 0.724900
44.326100 0.733200
44.403300 0.734300
44.480400 0.741800
44.557600 0.749700
44.634700 0.761900
44.711900 0.769100
44.789000 0.786000
44.866200 0.788700
44.943400 0.781400
45.020500 0.773600
45.097700 0.765600
45.174800 0.774700
45.252000 0.777800
45.329100 0.792500
45.406300 0.793400
45.483500 0.804100
45.560600 0.809200
45.637800 0.812100
45.714900 0.813400
45.792100 0.808800
45.869200 0.824200
45.946400 0.806900
46.023600 0.822200
46.100700 0.835300
46.177900 0.830000
46.255000 0.817800
46.332200 0.808800
46.409300 0.802400
46.486500 0.784600
46.563700 0.764100
46.640800 0.762700
46.718000 0.770300
46.795100 0.781600
46.872300 0.784800
46.949400 0.785000
47.026600 0.826100
47.103800 0.803500
47.180900 0.809400
47.258100 0.827800
47.335200 0.836900
47.412400 0.842600
47.489500 0.840200
47.566700 0.836100
47.643900 0.828000
47.721000 0.849800
47.798200 0.836800
47.875300 0.808700
47.952500 0.786800
48.029600 0.766700
48.106800 0.756900
48.184000 0.746400
48.261100 0.741600
48.338300 0.741900
48.415400 0.736900
48.492600 0.728700
48.569700 0.717000
48.646900 0.711800
48.724100 0.724600
48.801200 0.736500
48.878400 0.752000
48.955500 0.783100
49.032700 0.780500
49.109800 0.765300
49.187000 0.761000
49.264200 0.749000
49.341300 0.722200
49.418500 0.693800
49.495600 0.680900
49.572800 0.663800
49.649900 0.632900
49.727100 0.617000
49.804200 0.610800
49.881400 0.601300
49.958600 0.603700
50.035700 0.609700
50.112900 0.602900
50.190000 0.599700
50.267200 0.603900
50.344300 0.618000
50.421500 0.631200
50.498700 0.630900
50.575800 0.633600
50.653000 0.649800
50.730100 0.651800
50.807300 0.659900
50.884400 0.677900
50.961600 0.687300
51.038800 0.690700
51.115900 0.688100
51.193100 0.687400
51.270200 0.704200
51.347400 0.709700
51.424500 0.713900
51.501700 0.730800
51.578900 0.725100
51.656000 0.722500
51.733200 0.720200
51.810300 0.718300
51.887500 0.723300
51.964600 0.735200
52.041800 0.746100
52.119000 0.751200
52.196100 0.750200
52.273300 0.743400
52.350400 0.733700
52.427600 0.724400
52.504700 0.713600
52.581900 0.723600
52.659100 0.719800
52.736200 0.718200
52.813400 0.720300
52.890500 0.724900
52.967700 0.726600
53.044800 0.729800
53.122000 0.741600
53.199200 0.736200
53.276300 0.738300
53.353500 0.741900
53.430600 0.743700
53.507800 0.745600
53.584900 0.744500
53.662100 0.741800
53.739300 0.741300
53.816400 0.748500
53.893600 0.751400
53.970700 0.750600
54.047900 0.757400
54.125000 0.769900
54.202200 0.784200
54.279400 0.792200
54.356500 0.794000
54.433700 0.805000
54.510800 0.802500
54.588000 0.800000
54.665100 0.801700
54.742300 0.798900
54.819500 0.798000
54.896600 0.797200
54.973800 0.803600
55.050900 0.808000
55.128100 0.816200
55.205200 0.822300
55.282400 0.825200
55.359500 0.829800
55.436700 0.839200
55.513900 0.829700
55.591000 0.816000
55.668200 0.811000
55.745300 0.805000
55.822500 0.799100
55.899600 0.792200
55.976800 0.785000
56.054000 0.779000
56.131100 0.783800
56.208300 0.776500
56.285400 0.785600
56.362600 0.805800
56.439700 0.817600
56.516900 0.826300
56.594100 0.844600
