set title 'mp-568806 - Density of States'
set xlabel 'Energy (eV)'
set ylabel 'DOS (states/eV)'
set grid
set xrange [-10:10]
set yrange [0:1.266]
set xzeroaxis lt -1
set terminal png size 800,600
set output 'mp-568806_dos_gnuplot.png'
plot '-' using 1:2 with lines title 'DOS'
-21.645200 0.000000
-21.582600 0.000000
-21.519900 0.000000
-21.457300 0.000000
-21.394700 0.000000
-21.332100 0.000000
-21.269400 0.000000
-21.206800 0.000000
-21.144200 0.000000
-21.081600 0.000000
-21.018900 0.000000
-20.956300 0.000000
-20.893700 0.000000
-20.831100 0.000000
-20.768400 0.000000
-20.705800 0.000000
-20.643200 0.000000
-20.580600 0.000000
-20.517900 0.000000
-20.455300 0.000000
-20.392700 0.000000
-20.330100 0.000000
-20.267400 0.000000
-20.204800 0.000000
-20.142200 0.000000
-20.079600 0.000000
-20.016900 0.000000
-19.954300 0.000000
-19.891700 0.000000
-19.829100 0.000000
-19.766400 0.000000
-19.703800 0.000000
-19.641200 0.000000
-19.578600 0.000000
-19.515900 0.000000
-19.453300 0.000000
-19.390700 0.000000
-19.328100 0.000000
-19.265400 0.000000
-19.202800 0.000000
-19.140200 0.000000
-19.077600 0.000000
-19.014900 0.000000
-18.952300 0.000000
-18.889700 0.000000
-18.827100 0.000000
-18.764400 0.000000
-18.701800 0.000000
-18.639200 0.000000
-18.576600 0.000000
-18.513900 0.000000
-18.451300 0.000000
-18.388700 0.000000
-18.326100 0.000000
-18.263400 0.000000
-18.200800 0.000000
-18.138200 0.000000
-18.075600 0.000000
-18.012900 0.000000
-17.950300 0.000000
-17.887700 0.000000
-17.825100 0.000000
-17.762400 0.000000
-17.699800 0.000000
-17.637200 0.000000
-17.574600 0.000000
-17.511900 0.000000
-17.449300 0.000000
-17.386700 0.000000
-17.324100 0.000000
-17.261400 0.000000
-17.198800 0.000000
-17.136200 0.000000
-17.073600 0.000000
-17.010900 0.000000
-16.948300 0.000000
-16.885700 0.000000
-16.823100 0.000000
-16.760400 0.000000
-16.697800 0.000000
-16.635200 0.000000
-16.572600 0.000000
-16.509900 0.000000
-16.447300 0.000000
-16.384700 0.000000
-16.322100 0.000000
-16.259400 0.000000
-16.196800 0.000000
-16.134200 0.000000
-16.071600 0.000000
-16.008900 0.000000
-15.946300 0.004200
-15.883700 0.166000
-15.821100 0.316200
-15.758400 0.311700
-15.695800 0.308500
-15.633200 0.301900
-15.570600 0.315300
-15.507900 0.311800
-15.445300 0.302200
-15.382700 0.305500
-15.320100 0.314200
-15.257400 0.314500
-15.194800 0.307000
-15.132200 0.305300
-15.069600 0.307400
-15.006900 0.311300
-14.944300 0.316800
-14.881700 0.314400
-14.819000 0.308300
-14.756400 0.307300
-14.693800 0.309200
-14.631200 0.311400
-14.568500 0.314100
-14.505900 0.317400
-14.443300 0.315300
-14.380700 0.311100
-14.318000 0.310600
-14.255400 0.310800
-14.192800 0.312400
-14.130200 0.314400
-14.067500 0.316500
-14.004900 0.318600
-13.942300 0.317900
-13.879700 0.314700
-13.817000 0.313700
-13.754400 0.314200
-13.691800 0.314900
-13.629200 0.315800
-13.566500 0.317400
-13.503900 0.319200
-13.441300 0.321000
-13.378700 0.321500
-13.316000 0.319200
-13.253400 0.318100
-13.190800 0.318100
-13.128200 0.318600
-13.065500 0.319600
-13.002900 0.320700
-12.940300 0.321700
-12.877700 0.323000
-12.815000 0.324600
-12.752400 0.326300
-12.689800 0.325600
-12.627200 0.324100
-12.564500 0.324000
-12.501900 0.324700
-12.439300 0.325400
-12.376700 0.326400
-12.314000 0.327700
-12.251400 0.329100
-12.188800 0.330400
-12.126200 0.331800
-12.063500 0.333400
-12.000900 0.334500
-11.938300 0.334300
-11.875700 0.334900
-11.813000 0.335900
-11.750400 0.337300
-11.687800 0.339100
-11.625200 0.341200
-11.562500 0.343600
-11.499900 0.346600
-11.437300 0.349900
-11.374700 0.353100
-11.312000 0.356300
-11.249400 0.360200
-11.186800 0.367700
-11.124200 0.377500
-11.061500 0.388300
-10.998900 0.399400
-10.936300 0.413300
-10.873700 0.479700
-10.811000 0.506400
-10.748400 0.574700
-10.685800 0.569900
-10.623200 0.346600
-10.560500 0.297100
-10.497900 0.275000
-10.435300 0.253500
-10.372700 0.300500
-10.310000 0.383200
-10.247400 0.208400
-10.184800 0.195200
-10.122200 0.181900
-10.059500 0.168600
-9.996900 0.155400
-9.934300 0.142100
-9.871700 0.128900
-9.809000 0.122000
-9.746400 0.145800
-9.683800 0.177000
-9.621200 0.110100
-9.558500 0.118600
-9.495900 0.213200
-9.433300 0.307800
-9.370700 0.263400
-9.308000 0.413500
-9.245400 0.425500
-9.182800 0.294200
-9.120200 0.297600
-9.057500 0.301000
-8.994900 0.306700
-8.932300 0.331000
-8.869700 0.826800
-8.807000 0.423100
-8.744400 0.461700
-8.681800 0.500200
-8.619200 0.543200
-8.556500 0.489100
-8.493900 0.406500
-8.431300 0.395800
-8.368700 0.385300
-8.306000 0.374900
-8.243400 0.365400
-8.180800 0.356700
-8.118200 0.348000
-8.055500 0.339300
-7.992900 0.330500
-7.930300 0.321500
-7.867700 0.315800
-7.805000 0.313200
-7.742400 0.310800
-7.679800 0.308300
-7.617100 0.305800
-7.554500 0.303200
-7.491900 0.300600
-7.429300 0.297900
-7.366600 0.284700
-7.304000 0.276300
-7.241400 0.275100
-7.178800 0.273900
-7.116100 0.272600
-7.053500 0.271400
-6.990900 0.270100
-6.928300 0.274600
-6.865600 0.299900
-6.803000 0.325900
-6.740400 0.351800
-6.677800 0.377800
-6.615100 0.387500
-6.552500 0.360200
-6.489900 0.360800
-6.427300 0.361000
-6.364600 0.360800
-6.302000 0.360700
-6.239400 0.361900
-6.176800 0.367400
-6.114100 0.372900
-6.051500 0.378400
-5.988900 0.383900
-5.926300 0.386700
-5.863600 0.377500
-5.801000 0.377400
-5.738400 0.377700
-5.675800 0.378100
-5.613100 0.378500
-5.550500 0.384100
-5.487900 0.392400
-5.425300 0.394500
-5.362600 0.396700
-5.300000 0.397500
-5.237400 0.397100
-5.174800 0.396800
-5.112100 0.396400
-5.049500 0.396400
-4.986900 0.400200
-4.924300 0.406800
-4.861600 0.412100
-4.799000 0.417000
-4.736400 0.421700
-4.673800 0.425900
-4.611100 0.428900
-4.548500 0.430400
-4.485900 0.432000
-4.423300 0.448100
-4.360600 0.481600
-4.298000 0.503000
-4.235400 0.516100
-4.172800 0.544600
-4.110100 0.567000
-4.047500 0.588200
-3.984900 0.607700
-3.922300 0.623800
-3.859600 0.639900
-3.797000 0.657000
-3.734400 0.674800
-3.671800 0.695800
-3.609100 0.713500
-3.546500 0.736300
-3.483900 0.797000
-3.421300 0.871300
-3.358600 0.919000
-3.296000 0.939500
-3.233400 1.000100
-3.170800 0.914600
-3.108100 0.864900
-3.045500 0.835200
-2.982900 0.835400
-2.920300 1.051600
-2.857600 1.131500
-2.795000 1.151200
-2.732400 1.008000
-2.669800 1.000300
-2.607100 0.941100
-2.544500 0.903700
-2.481900 0.833300
-2.419300 0.797500
-2.356600 0.798100
-2.294000 0.801800
-2.231400 0.776600
-2.168800 0.969500
-2.106100 0.618200
-2.043500 0.634100
-1.980900 0.629300
-1.918300 0.635500
-1.855600 0.648600
-1.793000 0.658300
-1.730400 0.819500
-1.667800 0.710300
-1.605100 0.704200
-1.542500 0.700300
-1.479900 0.700000
-1.417300 0.695300
-1.354600 0.680500
-1.292000 0.646300
-1.229400 0.634600
-1.166800 0.626500
-1.104100 0.619400
-1.041500 0.612700
-0.978900 0.606300
-0.916300 0.600100
-0.853600 0.594000
-0.791000 0.589500
-0.728400 0.588900
-0.665700 0.597200
-0.603100 0.590000
-0.540500 0.583300
-0.477900 0.576900
-0.415200 0.570700
-0.352600 0.564600
-0.290000 0.561800
-0.227400 0.565400
-0.164700 0.579700
-0.102100 0.575200
-0.039500 0.569600
0.023100 0.561300
0.085800 0.553000
0.148400 0.552000
0.211000 0.572400
0.273600 0.562300
0.336300 0.549100
0.398900 0.565200
0.461500 0.616800
0.524100 0.461400
0.586800 0.363400
0.649400 0.372100
0.712000 0.384600
0.774600 0.400800
0.837300 0.419400
0.899900 0.459100
0.962500 0.460500
1.025100 0.475400
1.087800 0.474900
1.150400 0.463000
1.213000 0.457800
1.275600 0.448800
1.338300 0.440800
1.400900 0.432000
1.463500 0.424900
1.526100 0.395000
1.588800 0.354200
1.651400 0.340400
1.714000 0.295000
1.776600 0.276000
1.839300 0.257400
1.901900 0.240100
1.964500 0.224600
2.027100 0.213400
2.089800 0.202900
2.152400 0.190500
2.215000 0.176900
2.277600 0.163900
2.340300 0.157900
2.402900 0.150600
2.465500 0.142300
2.528100 0.134700
2.590800 0.119800
2.653400 0.108900
2.716000 0.099300
2.778600 0.091700
2.841300 0.084900
2.903900 0.077900
2.966500 0.070600
3.029100 0.062700
3.091800 0.053900
3.154400 0.041500
3.217000 0.035800
3.279600 0.030100
3.342300 0.024600
3.404900 0.021100
3.467500 0.018800
3.530100 0.017600
3.592800 0.017200
3.655400 0.017600
3.718000 0.018800
3.780600 0.021000
3.843300 0.024200
3.905900 0.029000
3.968500 0.035000
4.031100 0.041100
4.093800 0.053900
4.156400 0.067500
4.219000 0.076700
4.281600 0.084500
4.344300 0.091200
4.406900 0.100400
4.469500 0.112500
4.532100 0.126500
4.594800 0.142700
4.657400 0.163500
4.720000 0.176200
4.782600 0.219200
4.845300 0.227100
4.907900 0.294700
4.970500 0.373800
5.033100 0.375500
5.095800 0.387600
5.158400 0.398500
5.221000 0.401100
5.283600 0.407700
5.346300 0.413100
5.408900 0.427100
5.471500 0.417100
5.534100 0.422800
5.596800 0.436300
5.659400 0.442100
5.722000 0.478000
5.784600 0.427700
5.847300 0.382600
5.909900 0.362000
5.972500 0.345300
6.035100 0.330800
6.097800 0.319600
6.160400 0.310900
6.223000 0.303000
6.285600 0.296300
6.348300 0.290000
6.410900 0.284300
6.473500 0.279100
6.536200 0.274200
6.598800 0.269100
6.661400 0.263900
6.724000 0.259200
6.786700 0.254900
6.849300 0.250900
6.911900 0.247100
6.974500 0.243400
7.037200 0.240000
7.099800 0.238500
7.162400 0.249200
7.225000 0.258600
7.287700 0.268200
7.350300 0.269800
7.412900 0.271700
7.475500 0.273200
7.538200 0.275800
7.600800 0.278200
7.663400 0.279200
7.726000 0.280400
7.788700 0.282400
7.851300 0.283700
7.913900 0.285100
7.976500 0.285800
8.039200 0.286200
8.101800 0.286700
8.164400 0.288300
8.227000 0.289900
8.289700 0.291700
8.352300 0.293700
8.414900 0.295400
8.477500 0.296700
8.540200 0.297700
8.602800 0.298800
8.665400 0.299500
8.728000 0.300400
8.790700 0.301600
8.853300 0.303400
8.915900 0.305400
8.978500 0.307800
9.041200 0.312200
9.103800 0.317100
9.166400 0.320200
9.229000 0.325000
9.291700 0.336700
9.354300 0.362300
9.416900 0.379500
9.479500 0.364700
9.542200 0.349700
9.604800 0.336700
9.667400 0.326800
9.730000 0.319800
9.792700 0.274000
9.855300 0.245700
9.917900 0.237600
9.980500 0.241200
10.043200 0.249700
10.105800 0.277800
10.168400 0.320200
10.231000 0.329900
10.293700 0.334500
10.356300 0.333200
10.418900 0.332800
10.481500 0.333300
10.544200 0.337300
10.606800 0.346700
10.669400 0.340900
10.732000 0.348800
10.794700 0.372900
10.857300 0.372400
10.919900 0.418900
10.982500 0.605500
11.045200 0.817500
11.107800 0.912900
11.170400 0.927600
11.233000 0.877700
11.295700 0.817500
11.358300 0.814800
11.420900 0.869500
11.483500 0.955600
11.546200 0.975400
11.608800 0.990900
11.671400 1.013100
11.734000 1.026800
11.796700 1.042400
11.859300 1.097300
11.921900 1.586300
11.984500 2.159400
12.047200 1.952900
12.109800 1.592300
12.172400 1.214100
12.235000 1.112600
12.297700 1.021400
12.360300 0.915200
12.422900 0.859200
12.485500 0.840200
12.548200 0.881400
12.610800 0.964700
12.673400 1.070600
12.736000 1.019500
12.798700 0.983200
12.861300 0.953700
12.923900 0.934900
12.986500 0.936000
13.049200 0.945200
13.111800 0.959600
13.174400 0.992800
13.237000 1.034200
13.299700 0.872200
13.362300 0.765200
13.424900 0.701100
13.487500 0.671600
13.550200 0.662800
13.612800 0.668500
13.675400 0.675900
13.738100 0.806700
13.800700 0.967500
13.863300 1.120200
13.925900 1.161500
13.988600 1.177900
14.051200 1.139700
14.113800 1.185800
14.176400 1.083400
14.239100 0.916000
14.301700 0.845900
14.364300 0.832800
14.426900 0.926200
14.489600 0.865700
14.552200 0.870300
14.614800 0.827800
14.677400 0.781400
14.740100 0.746400
14.802700 0.752100
14.865300 0.728700
14.927900 0.693900
14.990600 0.638900
15.053200 0.611800
15.115800 0.603600
15.178400 0.601300
15.241100 0.591600
15.303700 0.642300
15.366300 0.685900
15.428900 0.648100
15.491600 0.662300
15.554200 0.575100
15.616800 0.577300
15.679400 0.958400
15.742100 0.594900
15.804700 0.638600
15.867300 0.632200
15.929900 0.646900
15.992600 0.646400
16.055200 0.713900
16.117800 0.818400
16.180400 0.912100
16.243100 0.931700
16.305700 0.949000
16.368300 0.815200
16.430900 0.795500
16.493600 0.763500
16.556200 0.741600
16.618800 0.731300
16.681400 0.724200
16.744100 0.720400
16.806700 0.713800
16.869300 0.706100
16.931900 0.693400
16.994600 0.699700
17.057200 0.687000
17.119800 0.699400
17.182400 0.695200
17.245100 0.709700
17.307700 0.725500
17.370300 0.698800
17.432900 0.702300
17.495600 0.704900
17.558200 0.701900
17.620800 0.730300
17.683400 0.759600
17.746100 0.770900
17.808700 0.780300
17.871300 0.784700
17.933900 0.789000
17.996600 0.796000
18.059200 0.805200
18.121800 0.817700
18.184400 0.829600
18.247100 0.832300
18.309700 0.810000
18.372300 0.803000
18.434900 0.799200
18.497600 0.797100
18.560200 0.811700
18.622800 0.820800
18.685400 0.830800
18.748100 0.872700
18.810700 0.902100
18.873300 0.846100
18.935900 0.817300
18.998600 0.818900
19.061200 0.784600
19.123800 0.805600
19.186400 0.817000
19.249100 0.823600
19.311700 0.828200
19.374300 0.815100
19.436900 0.796900
19.499600 0.783100
19.562200 0.771500
19.624800 0.774900
19.687400 0.757800
19.750100 0.719900
19.812700 0.708000
19.875300 0.733200
19.937900 0.719600
20.000600 0.691700
20.063200 0.691200
20.125800 0.601900
20.188400 0.579600
20.251100 0.586800
20.313700 0.600200
20.376300 0.591100
20.438900 0.572700
20.501600 0.560500
20.564200 0.559800
20.626800 0.556400
20.689400 0.636600
20.752100 0.736800
20.814700 0.822300
20.877300 0.993600
20.940000 0.982100
21.002600 1.009600
21.065200 1.105500
21.127800 1.220100
21.190500 1.467600
21.253100 1.559000
21.315700 1.535500
21.378300 1.509300
21.441000 1.425100
21.503600 1.386200
21.566200 1.363400
21.628800 1.307200
21.691500 1.276900
21.754100 1.239800
21.816700 1.187700
21.879300 1.113000
21.942000 1.036900
22.004600 0.904800
22.067200 0.826900
22.129800 0.768000
22.192500 0.722800
22.255100 0.692800
22.317700 0.667100
22.380300 0.646200
22.443000 0.628100
22.505600 0.614500
22.568200 0.601200
22.630800 0.586700
22.693500 0.584300
22.756100 0.589400
22.818700 0.589100
22.881300 0.584900
22.944000 0.580100
23.006600 0.596400
23.069200 0.606100
23.131800 0.612000
23.194500 0.633000
23.257100 0.656100
23.319700 0.691000
23.382300 0.642000
23.445000 0.722000
23.507600 0.753600
23.570200 0.711700
23.632800 0.660900
23.695500 0.582900
23.758100 0.547400
23.820700 0.525100
23.883300 0.514400
23.946000 0.503400
24.008600 0.500600
24.071200 0.525300
24.133800 0.576800
24.196500 0.612400
24.259100 0.769800
24.321700 0.769100
24.384300 0.796500
24.447000 0.816500
24.509600 0.815700
24.572200 0.796300
24.634800 0.758400
24.697500 0.724300
24.760100 0.709200
24.822700 0.687500
24.885300 0.682800
24.948000 0.694900
25.010600 0.709400
25.073200 0.734700
25.135800 0.731200
25.198500 0.724400
25.261100 0.718800
25.323700 0.720900
25.386300 0.723800
25.449000 0.736100
25.511600 0.735500
25.574200 0.735400
25.636800 0.739800
25.699500 0.753600
25.762100 0.769800
25.824700 0.828000
25.887300 0.819100
25.950000 0.810700
26.012600 0.837800
26.075200 0.871900
26.137800 0.896100
26.200500 0.932300
26.263100 0.909900
26.325700 0.925300
26.388300 0.964200
26.451000 1.000900
26.513600 1.052100
26.576200 1.112500
26.638800 1.070700
26.701500 0.991700
26.764100 0.934000
26.826700 0.919800
26.889300 0.904800
26.952000 0.856100
27.014600 0.598300
27.077200 0.542200
27.139800 0.510500
27.202500 0.449600
27.265100 0.534300
27.327700 0.679700
27.390300 0.638100
27.453000 0.639100
27.515600 0.634500
27.578200 0.636200
27.640800 0.641400
27.703500 0.682200
27.766100 0.738500
27.828700 0.788400
27.891300 0.823100
27.954000 0.866500
28.016600 0.913200
28.079200 0.999400
28.141900 0.988200
28.204500 0.882600
28.267100 0.822200
28.329700 0.871900
28.392400 0.947200
28.455000 1.018300
28.517600 1.102300
28.580200 1.613000
28.642900 1.428100
28.705500 1.539600
28.768100 1.648300
28.830700 1.684100
28.893400 1.659000
28.956000 1.557700
29.018600 1.484700
29.081200 1.349900
29.143900 1.332400
29.206500 1.357900
29.269100 1.319300
29.331700 1.245600
29.394400 1.197000
29.457000 1.184100
29.519600 1.190900
29.582200 1.216900
29.644900 1.220700
29.707500 1.246100
29.770100 1.181600
29.832700 1.038500
29.895400 0.884700
29.958000 0.886100
30.020600 0.933000
30.083200 1.069800
30.145900 1.159900
30.208500 1.177200
30.271100 1.204200
30.333700 1.265700
30.396400 1.266100
30.459000 1.178200
30.521600 1.025300
30.584200 0.941100
30.646900 0.901000
30.709500 0.823200
30.772100 0.817600
30.834700 0.803600
30.897400 0.796600
30.960000 0.803200
31.022600 0.845300
31.085200 0.913700
31.147900 0.994600
31.210500 1.086700
31.273100 1.042400
31.335700 1.034000
31.398400 1.022200
31.461000 1.003900
31.523600 0.995300
31.586200 0.986900
31.648900 0.986900
31.711500 0.984300
31.774100 0.982400
31.836700 0.927200
31.899400 0.898700
31.962000 0.878300
32.024600 0.860700
32.087200 0.841500
32.149900 0.821500
32.212500 0.814500
32.275100 0.922300
32.337700 0.797600
32.400400 0.757800
32.463000 0.751400
32.525600 0.744700
32.588200 0.768800
32.650900 0.796700
32.713500 0.794400
32.776100 0.738200
32.838700 0.682000
32.901400 0.663500
32.964000 0.665300
33.026600 0.660300
33.089200 0.638500
33.151900 0.639200
33.214500 0.635200
33.277100 0.627700
33.339700 0.604800
33.402400 0.590600
33.465000 0.585600
33.527600 0.576600
33.590200 0.565600
33.652900 0.557600
33.715500 0.549000
33.778100 0.543100
33.840700 0.543200
33.903400 0.548900
33.966000 0.539600
34.028600 0.549800
34.091200 0.583900
34.153900 0.515800
34.216500 0.510800
34.279100 0.517500
34.341700 0.519600
34.404400 0.529100
34.467000 0.564300
34.529600 0.578000
34.592200 0.593800
34.654900 0.611500
34.717500 0.626400
34.780100 0.644600
34.842700 0.664000
34.905400 0.679900
34.968000 0.691900
35.030600 0.700800
35.093200 0.706600
35.155900 0.710000
35.218500 0.720700
35.281100 0.735700
35.343800 0.747500
35.406400 0.751700
35.469000 0.749100
35.531600 0.743700
35.594300 0.744800
35.656900 0.747100
35.719500 0.751300
35.782100 0.748800
35.844800 0.751900
35.907400 0.757700
35.970000 0.760100
36.032600 0.762200
36.095300 0.755200
36.157900 0.739600
36.220500 0.746300
36.283100 0.751600
36.345800 0.757800
36.408400 0.763400
36.471000 0.776900
36.533600 0.793200
36.596300 0.819000
36.658900 0.834300
36.721500 0.805900
36.784100 0.790100
36.846800 0.766800
36.909400 0.761900
36.972000 0.759900
37.034600 0.728100
37.097300 0.719800
37.159900 0.714400
37.222500 0.708300
37.285100 0.704200
37.347800 0.696200
37.410400 0.694000
37.473000 0.703100
37.535600 0.716100
37.598300 0.728700
37.660900 0.750400
37.723500 0.766300
37.786100 0.790800
37.848800 0.807400
37.911400 0.805200
37.974000 0.804800
38.036600 0.809100
38.099300 0.806200
38.161900 0.808600
38.224500 0.811300
38.287100 0.814100
38.349800 0.816900
38.412400 0.811600
38.475000 0.810200
38.537600 0.812200
38.600300 0.810000
38.662900 0.808900
38.725500 0.808900
38.788100 0.816000
38.850800 0.834300
38.913400 0.835100
38.976000 0.854900
39.038600 0.825000
39.101300 0.810800
39.163900 0.796100
39.226500 0.782100
39.289100 0.748400
39.351800 0.791100
39.414400 0.726300
39.477000 0.708000
39.539600 0.703900
39.602300 0.679200
39.664900 0.646300
39.727500 0.648800
39.790100 0.651000
39.852800 0.659600
39.915400 0.695000
39.978000 0.746600
40.040600 0.784400
40.103300 0.814000
40.165900 0.815600
40.228500 0.828900
40.291100 0.865000
40.353800 0.883900
40.416400 0.900500
40.479000 0.904700
40.541600 0.915200
40.604300 0.940200
40.666900 0.895700
40.729500 0.858700
40.792100 0.835300
40.854800 0.824100
40.917400 0.825400
40.980000 0.813000
41.042600 0.816300
41.105300 0.820900
41.167900 0.823000
41.230500 0.825800
41.293100 0.836000
41.355800 0.848800
41.418400 0.857000
41.481000 0.865800
41.543600 0.885700
41.606300 0.907800
41.668900 0.925700
41.731500 0.938100
41.794100 0.957400
41.856800 0.984800
41.919400 1.004800
41.982000 1.055800
42.044600 1.091900
42.107300 1.094900
42.169900 1.089300
42.232500 1.065400
42.295100 0.997400
42.357800 0.951400
42.420400 0.929700
42.483000 0.902600
42.545700 0.891300
42.608300 0.887700
42.670900 0.890700
42.733500 0.891100
42.796200 0.928500
42.858800 0.981100
42.921400 0.981500
42.984000 1.003900
43.046700 1.030700
43.109300 1.080000
43.171900 1.103800
