set title 'mp-1187551 - Density of States'
set xlabel 'Energy (eV)'
set ylabel 'DOS (states/eV)'
set grid
set xrange [-10:10]
set yrange [0:84.644]
set xzeroaxis lt -1
set terminal png size 800,600
set output 'mp-1187551_dos_gnuplot.png'
plot '-' using 1:2 with lines title 'DOS'
-8.406700 0.000000
-8.389200 0.000000
-8.371600 0.000000
-8.354100 0.000000
-8.336500 0.000000
-8.319000 0.000000
-8.301500 0.000000
-8.283900 0.000000
-8.266400 0.000000
-8.248900 0.000000
-8.231300 0.000000
-8.213800 0.000000
-8.196200 0.000000
-8.178700 0.000000
-8.161200 0.000000
-8.143600 0.000000
-8.126100 0.000000
-8.108600 0.000000
-8.091000 0.000000
-8.073500 0.000000
-8.055900 0.000000
-8.038400 0.000000
-8.020900 0.000000
-8.003300 0.000000
-7.985800 0.000000
-7.968200 0.000000
-7.950700 0.000000
-7.933200 0.000000
-7.915600 0.000000
-7.898100 0.000000
-7.880600 0.000000
-7.863000 0.000000
-7.845500 0.000000
-7.827900 0.000000
-7.810400 0.000000
-7.792900 0.000000
-7.775300 0.000000
-7.757800 0.000000
-7.740300 0.000000
-7.722700 0.000000
-7.705200 0.000000
-7.687600 0.000000
-7.670100 0.000000
-7.652600 0.000000
-7.635000 0.000000
-7.617500 0.000000
-7.599900 0.000000
-7.582400 0.000000
-7.564900 0.000000
-7.547300 0.000000
-7.529800 0.000000
-7.512300 0.000000
-7.494700 0.000000
-7.477200 0.000000
-7.459600 0.000000
-7.442100 0.000000
-7.424600 0.000000
-7.407000 0.000000
-7.389500 0.000000
-7.372000 0.000000
-7.354400 0.000000
-7.336900 0.000000
-7.319300 0.000000
-7.301800 0.000000
-7.284300 0.000000
-7.266700 0.000000
-7.249200 0.000000
-7.231600 0.000000
-7.214100 0.000000
-7.196600 0.000000
-7.179000 0.000000
-7.161500 0.000000
-7.144000 0.000000
-7.126400 0.000000
-7.108900 0.000000
-7.091300 0.000000
-7.073800 0.000000
-7.056300 0.000000
-7.038700 0.000000
-7.021200 0.000000
-7.003700 0.000000
-6.986100 0.000000
-6.968600 0.000000
-6.951000 0.000000
-6.933500 0.000200
-6.916000 0.001300
-6.898400 0.006500
-6.880900 0.027400
-6.863300 0.094500
-6.845800 0.268300
-6.828300 0.633600
-6.810700 1.267200
-6.793200 2.204800
-6.775700 3.453300
-6.758100 5.040700
-6.740600 7.050700
-6.723000 9.634800
-6.705500 13.006100
-6.688000 17.341300
-6.670400 22.589700
-6.652900 28.351400
-6.635400 33.912100
-6.617800 38.388300
-6.600300 41.008700
-6.582700 41.540800
-6.565200 40.567000
-6.547700 39.246500
-6.530100 38.650200
-6.512600 39.180300
-6.495000 40.498600
-6.477500 41.965900
-6.460000 43.174900
-6.442400 44.072100
-6.424900 44.623000
-6.407400 44.534700
-6.389800 43.469900
-6.372300 41.543800
-6.354700 39.534700
-6.337200 38.570600
-6.319700 39.548600
-6.302100 42.636700
-6.284600 47.086800
-6.267100 51.556500
-6.249500 54.844300
-6.232000 56.396900
-6.214400 56.087400
-6.196900 53.809300
-6.179400 49.742400
-6.161800 44.892400
-6.144300 40.769600
-6.126700 38.343700
-6.109200 37.523600
-6.091700 37.577800
-6.074100 37.705400
-6.056600 37.143700
-6.039100 35.082500
-6.021500 30.934300
-6.004000 24.894400
-5.986400 18.092100
-5.968900 11.973500
-5.951400 7.454200
-5.933800 4.584400
-5.916300 2.862900
-5.898700 1.761500
-5.881200 1.000400
-5.863700 0.495700
-5.846100 0.207300
-5.828600 0.071900
-5.811100 0.020500
-5.793500 0.004800
-5.776000 0.000900
-5.758400 0.000100
-5.740900 0.000000
-5.723400 0.000000
-5.705800 0.000000
-5.688300 0.000000
-5.670800 0.000000
-5.653200 0.000000
-5.635700 0.000000
-5.618100 0.000000
-5.600600 0.000000
-5.583100 0.000000
-5.565500 0.000000
-5.548000 0.000000
-5.530400 0.000000
-5.512900 0.000000
-5.495400 0.000000
-5.477800 0.000000
-5.460300 0.000000
-5.442800 0.000000
-5.425200 0.000000
-5.407700 0.000000
-5.390100 0.000000
-5.372600 0.000000
-5.355100 0.000000
-5.337500 0.000000
-5.320000 0.000000
-5.302500 0.000000
-5.284900 0.000000
-5.267400 0.000000
-5.249800 0.000000
-5.232300 0.000000
-5.214800 0.000000
-5.197200 0.000000
-5.179700 0.000000
-5.162100 0.000000
-5.144600 0.000000
-5.127100 0.000000
-5.109500 0.000000
-5.092000 0.000000
-5.074500 0.000000
-5.056900 0.000000
-5.039400 0.000000
-5.021800 0.000000
-5.004300 0.000000
-4.986800 0.000000
-4.969200 0.000000
-4.951700 0.000000
-4.934200 0.000000
-4.916600 0.000000
-4.899100 0.000000
-4.881500 0.000000
-4.864000 0.000000
-4.846500 0.000000
-4.828900 0.000000
-4.811400 0.000000
-4.793800 0.000000
-4.776300 0.000000
-4.758800 0.000000
-4.741200 0.000000
-4.723700 0.000000
-4.706200 0.000000
-4.688600 0.000000
-4.671100 0.000000
-4.653500 0.000000
-4.636000 0.000000
-4.618500 0.000000
-4.600900 0.000000
-4.583400 0.000000
-4.565900 0.000000
-4.548300 0.000000
-4.530800 0.000000
-4.513200 0.000000
-4.495700 0.000000
-4.478200 0.000000
-4.460600 0.000100
-4.443100 0.000600
-4.425500 0.002300
-4.408000 0.006800
-4.390500 0.016300
-4.372900 0.031800
-4.355400 0.051900
-4.337900 0.073800
-4.320300 0.096200
-4.302800 0.119600
-4.285200 0.148500
-4.267700 0.193200
-4.250200 0.261800
-4.232600 0.341300
-4.215100 0.391900
-4.197600 0.375900
-4.180000 0.294900
-4.162500 0.191300
-4.144900 0.116800
-4.127400 0.103900
-4.109900 0.161800
-4.092300 0.276500
-4.074800 0.410800
-4.057200 0.516800
-4.039700 0.563000
-4.022200 0.551800
-4.004600 0.514800
-3.987100 0.496900
-3.969600 0.527900
-3.952000 0.588300
-3.934500 0.611600
-3.916900 0.542800
-3.899400 0.397000
-3.881900 0.246600
-3.864300 0.157800
-3.846800 0.151700
-3.829300 0.210500
-3.811700 0.305300
-3.794200 0.416400
-3.776600 0.535200
-3.759100 0.647000
-3.741600 0.725100
-3.724000 0.752400
-3.706500 0.749200
-3.688900 0.764000
-3.671400 0.821900
-3.653900 0.884900
-3.636300 0.875100
-3.618800 0.749700
-3.601300 0.545600
-3.583700 0.347600
-3.566200 0.225900
-3.548600 0.205900
-3.531100 0.276100
-3.513600 0.401800
-3.496000 0.544300
-3.478500 0.686000
-3.461000 0.827900
-3.443400 0.955600
-3.425900 1.028200
-3.408300 1.017900
-3.390800 0.938700
-3.373300 0.821300
-3.355700 0.688900
-3.338200 0.570800
-3.320600 0.507400
-3.303100 0.515800
-3.285600 0.570200
-3.268000 0.629200
-3.250500 0.669400
-3.233000 0.691900
-3.215400 0.716200
-3.197900 0.764000
-3.180300 0.830600
-3.162800 0.878100
-3.145300 0.876300
-3.127700 0.844600
-3.110200 0.829400
-3.092700 0.843700
-3.075100 0.862100
-3.057600 0.873800
-3.040000 0.897400
-3.022500 0.930800
-3.005000 0.932300
-2.987400 0.884500
-2.969900 0.846200
-2.952300 0.901800
-2.934800 1.070800
-2.917300 1.288100
-2.899700 1.456900
-2.882200 1.504700
-2.864700 1.410700
-2.847100 1.213900
-2.829600 0.987300
-2.812000 0.787900
-2.794500 0.632700
-2.777000 0.523000
-2.759400 0.465000
-2.741900 0.456900
-2.724400 0.473200
-2.706800 0.479800
-2.689300 0.470800
-2.671700 0.488900
-2.654200 0.596600
-2.636700 0.813100
-2.619100 1.084100
-2.601600 1.330100
-2.584000 1.507500
-2.566500 1.610200
-2.549000 1.641600
-2.531400 1.614400
-2.513900 1.552400
-2.496400 1.468300
-2.478800 1.359300
-2.461300 1.233700
-2.443700 1.120100
-2.426200 1.048400
-2.408700 1.030000
-2.391100 1.049800
-2.373600 1.079500
-2.356100 1.105700
-2.338500 1.138700
-2.321000 1.189200
-2.303400 1.245900
-2.285900 1.286000
-2.268400 1.304800
-2.250800 1.319100
-2.233300 1.336500
-2.215700 1.341700
-2.198200 1.332300
-2.180700 1.349600
-2.163100 1.451600
-2.145600 1.651800
-2.128100 1.900100
-2.110500 2.138000
-2.093000 2.374800
-2.075400 2.699300
-2.057900 3.197700
-2.040400 3.853300
-2.022800 4.549700
-2.005300 5.204300
-1.987800 5.902400
-1.970200 6.881700
-1.952700 8.370800
-1.935100 10.457500
-1.917600 13.221400
-1.900100 17.209700
-1.882500 23.878100
-1.865000 35.064100
-1.847400 50.865500
-1.829900 67.285800
-1.812400 76.949000
-1.794800 74.095300
-1.777300 59.573700
-1.759800 40.249500
-1.742200 23.442000
-1.724700 12.425500
-1.707100 6.517900
-1.689600 3.705300
-1.672100 2.480000
-1.654500 2.063000
-1.637000 2.004300
-1.619500 1.986100
-1.601900 1.867100
-1.584400 1.686900
-1.566800 1.542600
-1.549300 1.472700
-1.531800 1.444200
-1.514200 1.401900
-1.496700 1.322400
-1.479100 1.241000
-1.461600 1.228900
-1.444100 1.332500
-1.426500 1.523400
-1.409000 1.704100
-1.391500 1.786500
-1.373900 1.783100
-1.356400 1.789900
-1.338800 1.864400
-1.321300 1.954700
-1.303800 1.961300
-1.286200 1.838100
-1.268700 1.620700
-1.251100 1.386600
-1.233600 1.208300
-1.216100 1.133600
-1.198500 1.182600
-1.181000 1.330000
-1.163500 1.489200
-1.145900 1.559300
-1.128400 1.516400
-1.110800 1.432000
-1.093300 1.377200
-1.075800 1.335900
-1.058200 1.237300
-1.040700 1.059700
-1.023200 0.883900
-1.005600 0.843900
-0.988100 1.018800
-0.970500 1.361500
-0.953000 1.723100
-0.935500 1.942600
-0.917900 1.931100
-0.900400 1.716500
-0.882800 1.435500
-0.865300 1.249100
-0.847800 1.216300
-0.830200 1.252400
-0.812700 1.230300
-0.795200 1.107100
-0.777600 0.938800
-0.760100 0.804500
-0.742500 0.746700
-0.725000 0.756400
-0.707500 0.784200
-0.689900 0.785500
-0.672400 0.782100
-0.654900 0.866300
-0.637300 1.109100
-0.619800 1.457200
-0.602200 1.739000
-0.584700 1.799800
-0.567200 1.635000
-0.549600 1.385400
-0.532100 1.213000
-0.514500 1.196400
-0.497000 1.321800
-0.479500 1.527500
-0.461900 1.733500
-0.444400 1.860400
-0.426900 1.863300
-0.409300 1.759200
-0.391800 1.608500
-0.374200 1.470200
-0.356700 1.385600
-0.339200 1.397500
-0.321600 1.547900
-0.304100 1.823700
-0.286600 2.105200
-0.269000 2.222800
-0.251500 2.114200
-0.233900 1.904500
-0.216400 1.770000
-0.198900 1.735200
-0.181300 1.665300
-0.163800 1.459900
-0.146200 1.200300
-0.128700 1.077200
-0.111200 1.207700
-0.093600 1.546700
-0.076100 1.945900
-0.058600 2.257300
-0.041000 2.384900
-0.023500 2.292000
-0.005900 2.010500
0.011600 1.652100
0.029100 1.378800
0.046700 1.317500
0.064200 1.476800
0.081700 1.738700
0.099300 1.938900
0.116800 1.972400
0.134400 1.843500
0.151900 1.628500
0.169400 1.402600
0.187000 1.207100
0.204500 1.072800
0.222100 1.037000
0.239600 1.121000
0.257100 1.297900
0.274700 1.497500
0.292200 1.645900
0.309700 1.702300
0.327300 1.669400
0.344800 1.582400
0.362400 1.493400
0.379900 1.449000
0.397400 1.464700
0.415000 1.518000
0.432500 1.566700
0.450000 1.584800
0.467600 1.598500
0.485100 1.687800
0.502700 1.922500
0.520200 2.278300
0.537700 2.625000
0.555300 2.812700
0.572800 2.763900
0.590400 2.494800
0.607900 2.101300
0.625400 1.738300
0.643000 1.535600
0.660500 1.492800
0.678000 1.498200
0.695600 1.468500
0.713100 1.413700
0.730700 1.355500
0.748200 1.260800
0.765700 1.095000
0.783300 0.892600
0.800800 0.739500
0.818300 0.710700
0.835900 0.836700
0.853400 1.088100
0.871000 1.360500
0.888500 1.506600
0.906000 1.431600
0.923600 1.171200
0.941100 0.869700
0.958700 0.682000
0.976200 0.684300
0.993700 0.839200
1.011300 1.028400
1.028800 1.134400
1.046300 1.111500
1.063900 0.992300
1.081400 0.843300
1.099000 0.726600
1.116500 0.679800
1.134000 0.695100
1.151600 0.719600
1.169100 0.700000
1.186600 0.627100
1.204200 0.529700
1.221700 0.443600
1.239300 0.399100
1.256800 0.417500
1.274300 0.501700
1.291900 0.633800
1.309400 0.790100
1.327000 0.946700
1.344500 1.069300
1.362000 1.122200
1.379600 1.099800
1.397100 1.033000
1.414600 0.954800
1.432200 0.872400
1.449700 0.785100
1.467300 0.711300
1.484800 0.676800
1.502300 0.683800
1.519900 0.709000
1.537400 0.733300
1.554900 0.761900
1.572500 0.819000
1.590000 0.919000
1.607600 1.036500
1.625100 1.109500
1.642600 1.083500
1.660200 0.955400
1.677700 0.779500
1.695300 0.643200
1.712800 0.629000
1.730300 0.774900
1.747900 1.045400
1.765400 1.340700
1.782900 1.555900
1.800500 1.652500
1.818000 1.666400
1.835600 1.635300
1.853100 1.540400
1.870600 1.345800
1.888200 1.077400
1.905700 0.823700
1.923200 0.662000
1.940800 0.608400
1.958300 0.627300
1.975900 0.665700
1.993400 0.681100
2.010900 0.652700
2.028500 0.579600
2.046000 0.482800
2.063600 0.404600
2.081100 0.385400
2.098600 0.439600
2.116200 0.563400
2.133700 0.757000
2.151200 1.023600
2.168800 1.347100
2.186300 1.686500
2.203900 1.993900
2.221400 2.222100
2.238900 2.311400
2.256500 2.205300
2.274000 1.917600
2.291500 1.571700
2.309100 1.332400
2.326600 1.280600
2.344200 1.372100
2.361700 1.520400
2.379200 1.690500
2.396800 1.890600
2.414300 2.090700
2.431900 2.207400
2.449400 2.191900
2.466900 2.098000
2.484500 2.019200
2.502000 1.971600
2.519500 1.883200
2.537100 1.712300
2.554600 1.537100
2.572200 1.483700
2.589700 1.570700
2.607200 1.662800
2.624800 1.602100
2.642300 1.367200
2.659800 1.089000
2.677400 0.923800
2.694900 0.934800
2.712500 1.084100
2.730000 1.286600
2.747500 1.443300
2.765100 1.468700
2.782600 1.348600
2.800200 1.175900
2.817700 1.087100
2.835200 1.139100
2.852800 1.252600
2.870300 1.292400
2.887800 1.208800
2.905400 1.083800
2.922900 1.028400
2.940500 1.058700
2.958000 1.103600
2.975500 1.108600
2.993100 1.081400
3.010600 1.040800
3.028100 0.982900
3.045700 0.915200
3.063200 0.877200
3.080800 0.893700
3.098300 0.926400
3.115800 0.909100
3.133400 0.831200
3.150900 0.763000
3.168500 0.793700
3.186000 0.951100
3.203500 1.174300
3.221100 1.352000
3.238600 1.399400
3.256100 1.311600
3.273700 1.153400
3.291200 1.001000
3.308800 0.890000
3.326300 0.804400
3.343800 0.715900
3.361400 0.633100
3.378900 0.602500
3.396400 0.658100
3.414000 0.782300
3.431500 0.921900
3.449100 1.034100
3.466600 1.111600
3.484100 1.164100
3.501700 1.182700
3.519200 1.138400
3.536800 1.024700
3.554300 0.893600
3.571800 0.827300
3.589400 0.862000
3.606900 0.951200
3.624400 1.009000
3.642000 0.980400
3.659500 0.870600
3.677100 0.735600
3.694600 0.656200
3.712100 0.690800
3.729700 0.821700
3.747200 0.955900
3.764800 1.004000
3.782300 0.956200
3.799800 0.865500
3.817400 0.773900
3.834900 0.691100
3.852400 0.643800
3.870000 0.701500
3.887500 0.921200
3.905100 1.271400
3.922600 1.627600
3.940100 1.856400
3.957700 1.900500
3.975200 1.781600
3.992700 1.551500
4.010300 1.274600
4.027800 1.040200
4.045400 0.942500
4.062900 1.019300
4.080400 1.216000
4.098000 1.417500
4.115500 1.521500
4.133100 1.485400
4.150600 1.324700
4.168100 1.101900
4.185700 0.930100
4.203200 0.938000
4.220700 1.171100
4.238300 1.519300
4.255800 1.773600
4.273400 1.780400
4.290900 1.549100
4.308400 1.227300
4.326000 0.988100
4.343500 0.928400
4.361000 1.034800
4.378600 1.230300
4.396100 1.459400
4.413700 1.735500
4.431200 2.090800
4.448700 2.469600
4.466300 2.706500
4.483800 2.669300
4.501400 2.411900
4.518900 2.115500
4.536400 1.876600
4.554000 1.633700
4.571500 1.316100
4.589000 0.987000
4.606600 0.795600
4.624100 0.836100
4.641700 1.082700
4.659200 1.436800
4.676700 1.814000
4.694300 2.195700
4.711800 2.596100
4.729300 2.968800
4.746900 3.176600
4.764400 3.105300
4.782000 2.807700
4.799500 2.482700
4.817000 2.299700
4.834600 2.277300
4.852100 2.330900
4.869700 2.387900
4.887200 2.441400
4.904700 2.527800
4.922300 2.671800
4.939800 2.842200
4.957300 2.966300
4.974900 2.994000
4.992400 2.918800
5.010000 2.737000
5.027500 2.453500
5.045000 2.147700
5.062600 1.962100
5.080100 1.982900
5.097600 2.164300
5.115200 2.382900
5.132700 2.533200
5.150300 2.575400
5.167800 2.540600
5.185300 2.501100
5.202900 2.489900
5.220400 2.446800
5.238000 2.293300
5.255500 2.058700
5.273000 1.873000
5.290600 1.836900
5.308100 1.949000
5.325600 2.147500
5.343200 2.360200
5.360700 2.510700
5.378300 2.536800
5.395800 2.447500
5.413300 2.349800
5.430900 2.380500
5.448400 2.567600
5.465900 2.763600
5.483500 2.759000
5.501000 2.471300
5.518600 1.999100
5.536100 1.511300
5.553600 1.137800
5.571200 0.957400
5.588700 1.015200
5.606300 1.298800
5.623800 1.703100
5.641300 2.056300
5.658900 2.218300
5.676400 2.176500
5.693900 2.041100
5.711500 1.927600
5.729000 1.847900
5.746600 1.731500
5.764100 1.540000
5.781600 1.323100
5.799200 1.161900
5.816700 1.095100
5.834200 1.114200
5.851800 1.198300
5.869300 1.324600
5.886900 1.462200
5.904400 1.582500
5.921900 1.682500
5.939500 1.787100
5.957000 1.922000
5.974600 2.082300
5.992100 2.235800
6.009600 2.358400
6.027200 2.460300
6.044700 2.569000
6.062200 2.683200
6.079800 2.742200
6.097300 2.660500
6.114900 2.420000
6.132400 2.117000
6.149900 1.889000
6.167500 1.800600
6.185000 1.821900
6.202500 1.895400
6.220100 1.990100
6.237600 2.090100
6.255200 2.153100
6.272700 2.101200
6.290200 1.881300
6.307800 1.544800
6.325300 1.243000
6.342900 1.114400
6.360400 1.184100
6.377900 1.374400
6.395500 1.578000
6.413000 1.708700
6.430500 1.734600
6.448100 1.702800
6.465600 1.691500
6.483200 1.700500
6.500700 1.631900
6.518200 1.417600
6.535800 1.126400
6.553300 0.908400
6.570800 0.857700
6.588400 0.949100
6.605900 1.084700
6.623500 1.192500
6.641000 1.298200
6.658500 1.498500
6.676100 1.850800
6.693600 2.295400
6.711200 2.698300
6.728700 2.956400
6.746200 3.048500
6.763800 3.017900
6.781300 2.942000
6.798800 2.894200
6.816400 2.891300
6.833900 2.889200
6.851500 2.847900
6.869000 2.780300
6.886500 2.709900
6.904100 2.607100
6.921600 2.420100
6.939100 2.172500
6.956700 1.978300
6.974200 1.930400
6.991800 1.996000
7.009300 2.044000
7.026800 1.977200
7.044400 1.826900
7.061900 1.702600
7.079500 1.664600
7.097000 1.684000
7.114500 1.716500
7.132100 1.764100
7.149600 1.851800
7.167100 1.971300
7.184700 2.067600
7.202200 2.078800
7.219800 1.987400
7.237300 1.825000
7.254800 1.628400
7.272400 1.414300
7.289900 1.210500
7.307400 1.083400
7.325000 1.103500
7.342500 1.290000
7.360100 1.601300
7.377600 1.964200
7.395100 2.290600
7.412700 2.486400
7.430200 2.478500
7.447800 2.248600
7.465300 1.859100
7.482800 1.455400
7.500400 1.209400
7.517900 1.214800
7.535400 1.425100
7.553000 1.701900
7.570500 1.927300
7.588100 2.066300
7.605600 2.131100
7.623100 2.116100
7.640700 2.001800
7.658200 1.806800
7.675700 1.597100
7.693300 1.438500
7.710800 1.363200
7.728400 1.374600
7.745900 1.459100
7.763400 1.581900
7.781000 1.682800
7.798500 1.713000
7.816100 1.696900
7.833600 1.731600
7.851100 1.890600
7.868700 2.141300
7.886200 2.386200
7.903700 2.564900
7.921300 2.677900
7.938800 2.726800
7.956400 2.688800
7.973900 2.559500
7.991400 2.380200
8.009000 2.211200
8.026500 2.105900
8.044000 2.108400
8.061600 2.231900
8.079100 2.428000
8.096700 2.607600
8.114200 2.708800
8.131700 2.728100
8.149300 2.690300
8.166800 2.631900
8.184400 2.617800
8.201900 2.706000
8.219400 2.864600
8.237000 2.967800
8.254500 2.910700
8.272000 2.709800
8.289600 2.462300
8.307100 2.235300
8.324700 2.042600
8.342200 1.908000
8.359700 1.888900
8.377300 2.025000
8.394800 2.291500
8.412400 2.601500
8.429900 2.838800
8.447400 2.905600
8.465000 2.761800
8.482500 2.441100
8.500000 2.043700
8.517600 1.704200
8.535100 1.533300
8.552700 1.556100
8.570200 1.696700
8.587700 1.834100
8.605300 1.894200
8.622800 1.892700
8.640300 1.881700
8.657900 1.876700
8.675400 1.873100
8.693000 1.916400
8.710500 2.087600
8.728000 2.397500
8.745600 2.732900
8.763100 2.929700
8.780700 2.881400
8.798200 2.595300
8.815700 2.196800
8.833300 1.880600
8.850800 1.788200
8.868300 1.897700
8.885900 2.046800
8.903400 2.070100
8.921000 1.919500
8.938500 1.674200
8.956000 1.462500
8.973600 1.386500
8.991100 1.502600
9.008600 1.818400
9.026200 2.273600
9.043700 2.747900
9.061300 3.113200
9.078800 3.274600
9.096300 3.195700
9.113900 2.942400
9.131400 2.686600
9.149000 2.594000
9.166500 2.680800
9.184000 2.801100
9.201600 2.786000
9.219100 2.584900
9.236600 2.279300
9.254200 1.996200
9.271700 1.833400
9.289300 1.843300
9.306800 2.032600
9.324300 2.356300
9.341900 2.731700
9.359400 3.081600
9.376900 3.361300
9.394500 3.535800
9.412000 3.550200
9.429600 3.372500
9.447100 3.074400
9.464600 2.830500
9.482200 2.807300
9.499700 3.060600
9.517300 3.521600
9.534800 4.029600
9.552300 4.390500
9.569900 4.489900
9.587400 4.373200
9.604900 4.165900
9.622500 3.927900
9.640000 3.632500
9.657600 3.271800
9.675100 2.918600
9.692600 2.679300
9.710200 2.606500
9.727700 2.655500
9.745200 2.719200
9.762800 2.719000
9.780300 2.651300
9.797900 2.539200
9.815400 2.383100
9.832900 2.184100
9.850500 1.967800
9.868000 1.767700
9.885600 1.631500
9.903100 1.640100
9.920600 1.863500
9.938200 2.279800
9.955700 2.746500
9.973200 3.056100
9.990800 3.058400
10.008300 2.773100
10.025900 2.375200
10.043400 2.051300
10.060900 1.885000
10.078500 1.858700
10.096000 1.905300
10.113500 1.953700
10.131100 1.976900
10.148600 2.012700
10.166200 2.127400
10.183700 2.363900
10.201200 2.711600
10.218800 3.099300
10.236300 3.424200
