set title 'mp-18388 - Density of States'
set xlabel 'Energy (eV)'
set ylabel 'DOS (states/eV)'
set grid
set xrange [-10:10]
set yrange [0:65.672]
set xzeroaxis lt -1
set terminal png size 800,600
set output 'mp-18388_dos_gnuplot.png'
plot '-' using 1:2 with lines title 'DOS'
-13.139300 0.000000
-13.126200 0.000000
-13.113200 0.000000
-13.100100 0.000000
-13.087000 0.000000
-13.073900 0.000000
-13.060900 0.000000
-13.047800 0.000000
-13.034700 0.000000
-13.021600 0.000000
-13.008500 0.000000
-12.995500 0.000000
-12.982400 0.000000
-12.969300 0.000000
-12.956200 0.000000
-12.943100 0.000000
-12.930100 0.000000
-12.917000 0.000000
-12.903900 0.000000
-12.890800 0.000000
-12.877800 0.000000
-12.864700 0.000000
-12.851600 0.000000
-12.838500 0.000000
-12.825400 0.000000
-12.812400 0.000000
-12.799300 0.000000
-12.786200 0.000000
-12.773100 0.000000
-12.760000 0.000000
-12.747000 0.000000
-12.733900 0.000000
-12.720800 0.000000
-12.707700 0.000000
-12.694700 0.000000
-12.681600 0.000000
-12.668500 0.000000
-12.655400 0.000000
-12.642300 0.000000
-12.629300 0.000000
-12.616200 0.000000
-12.603100 0.000000
-12.590000 0.000000
-12.576900 0.000000
-12.563900 0.000000
-12.550800 0.000000
-12.537700 0.000000
-12.524600 0.000000
-12.511600 0.000000
-12.498500 0.000000
-12.485400 0.000000
-12.472300 0.000000
-12.459200 0.000000
-12.446200 0.000000
-12.433100 0.000000
-12.420000 0.000000
-12.406900 0.000000
-12.393800 0.000000
-12.380800 0.000000
-12.367700 0.000000
-12.354600 0.000000
-12.341500 0.000000
-12.328500 0.000000
-12.315400 0.000000
-12.302300 0.000000
-12.289200 0.000000
-12.276100 0.000000
-12.263100 0.000000
-12.250000 0.000000
-12.236900 0.000000
-12.223800 0.000000
-12.210700 0.000000
-12.197700 0.000000
-12.184600 0.000000
-12.171500 0.000000
-12.158400 0.000000
-12.145400 0.000000
-12.132300 0.000000
-12.119200 0.000300
-12.106100 0.001700
-12.093000 0.008700
-12.080000 0.039100
-12.066900 0.154100
-12.053800 0.534100
-12.040700 1.631700
-12.027600 4.409600
-12.014600 10.594500
-12.001500 22.780200
-11.988400 44.204500
-11.975300 78.199800
-11.962300 127.553900
-11.949200 194.051600
-11.936100 278.188700
-11.923000 378.769900
-11.909900 492.183600
-11.896900 611.568200
-11.883800 726.483700
-11.870700 823.709700
-11.857600 889.278100
-11.844500 911.165200
-11.831500 882.001600
-11.818400 801.686000
-11.805300 679.606000
-11.792200 534.776600
-11.779200 391.751200
-11.766100 272.730700
-11.753000 189.987400
-11.739900 143.236900
-11.726800 122.936900
-11.713800 116.405500
-11.700700 112.869200
-11.687600 105.769900
-11.674500 92.932700
-11.661400 75.730000
-11.648400 57.769800
-11.635300 43.233400
-11.622200 35.153200
-11.609100 34.169000
-11.596100 38.258400
-11.583000 43.641400
-11.569900 46.576000
-11.556800 45.187200
-11.543700 40.221700
-11.530700 34.196600
-11.517600 29.542600
-11.504500 27.087600
-11.491400 25.872200
-11.478300 24.204100
-11.465300 20.981400
-11.452200 16.316900
-11.439100 11.210400
-11.426000 6.759100
-11.413000 3.566400
-11.399900 1.644900
-11.386800 0.662800
-11.373700 0.233300
-11.360600 0.071700
-11.347600 0.019300
-11.334500 0.004500
-11.321400 0.000900
-11.308300 0.000200
-11.295200 0.000000
-11.282200 0.000000
-11.269100 0.000000
-11.256000 0.000000
-11.242900 0.000000
-11.229900 0.000000
-11.216800 0.000000
-11.203700 0.000000
-11.190600 0.000000
-11.177500 0.000000
-11.164500 0.000000
-11.151400 0.000000
-11.138300 0.000000
-11.125200 0.000000
-11.112100 0.000000
-11.099100 0.000000
-11.086000 0.000000
-11.072900 0.000000
-11.059800 0.000000
-11.046800 0.000000
-11.033700 0.000000
-11.020600 0.000000
-11.007500 0.000000
-10.994400 0.000000
-10.981400 0.000000
-10.968300 0.000000
-10.955200 0.000000
-10.942100 0.000000
-10.929000 0.000000
-10.916000 0.000000
-10.902900 0.000000
-10.889800 0.000000
-10.876700 0.000000
-10.863600 0.000000
-10.850600 0.000000
-10.837500 0.000000
-10.824400 0.000000
-10.811300 0.000000
-10.798300 0.000000
-10.785200 0.000000
-10.772100 0.000000
-10.759000 0.000000
-10.745900 0.000000
-10.732900 0.000000
-10.719800 0.000000
-10.706700 0.000000
-10.693600 0.000000
-10.680500 0.000000
-10.667500 0.000000
-10.654400 0.000000
-10.641300 0.000000
-10.628200 0.000000
-10.615200 0.000000
-10.602100 0.000000
-10.589000 0.000000
-10.575900 0.000000
-10.562800 0.000000
-10.549800 0.000000
-10.536700 0.000000
-10.523600 0.000000
-10.510500 0.000000
-10.497400 0.000000
-10.484400 0.000000
-10.471300 0.000000
-10.458200 0.000000
-10.445100 0.000000
-10.432100 0.000000
-10.419000 0.000000
-10.405900 0.000000
-10.392800 0.000000
-10.379700 0.000000
-10.366700 0.000000
-10.353600 0.000000
-10.340500 0.000000
-10.327400 0.000000
-10.314300 0.000000
-10.301300 0.000000
-10.288200 0.000000
-10.275100 0.000000
-10.262000 0.000000
-10.249000 0.000000
-10.235900 0.000000
-10.222800 0.000000
-10.209700 0.000000
-10.196600 0.000000
-10.183600 0.000000
-10.170500 0.000000
-10.157400 0.000000
-10.144300 0.000000
-10.131200 0.000000
-10.118200 0.000000
-10.105100 0.000000
-10.092000 0.000000
-10.078900 0.000000
-10.065900 0.000000
-10.052800 0.000000
-10.039700 0.000000
-10.026600 0.000000
-10.013500 0.000000
-10.000500 0.000000
-9.987400 0.000000
-9.974300 0.000000
-9.961200 0.000000
-9.948100 0.000000
-9.935100 0.000000
-9.922000 0.000000
-9.908900 0.000000
-9.895800 0.000000
-9.882800 0.000000
-9.869700 0.000000
-9.856600 0.000000
-9.843500 0.000000
-9.830400 0.000000
-9.817400 0.000000
-9.804300 0.000000
-9.791200 0.000000
-9.778100 0.000000
-9.765000 0.000000
-9.752000 0.000000
-9.738900 0.000000
-9.725800 0.000000
-9.712700 0.000000
-9.699700 0.000000
-9.686600 0.000000
-9.673500 0.000000
-9.660400 0.000000
-9.647300 0.000000
-9.634300 0.000000
-9.621200 0.000000
-9.608100 0.000000
-9.595000 0.000000
-9.581900 0.000000
-9.568900 0.000000
-9.555800 0.000000
-9.542700 0.000000
-9.529600 0.000000
-9.516600 0.000000
-9.503500 0.000000
-9.490400 0.000000
-9.477300 0.000000
-9.464200 0.000000
-9.451200 0.000000
-9.438100 0.000000
-9.425000 0.000000
-9.411900 0.000000
-9.398800 0.000000
-9.385800 0.000000
-9.372700 0.000000
-9.359600 0.000000
-9.346500 0.000000
-9.333500 0.000000
-9.320400 0.000000
-9.307300 0.000000
-9.294200 0.000000
-9.281100 0.000000
-9.268100 0.000000
-9.255000 0.000000
-9.241900 0.000000
-9.228800 0.000000
-9.215700 0.000000
-9.202700 0.000000
-9.189600 0.000000
-9.176500 0.000000
-9.163400 0.000000
-9.150400 0.000000
-9.137300 0.000000
-9.124200 0.000000
-9.111100 0.000000
-9.098000 0.000000
-9.085000 0.000000
-9.071900 0.000100
-9.058800 0.000600
-9.045700 0.002900
-9.032600 0.012700
-9.019600 0.048300
-9.006500 0.161500
-8.993400 0.472300
-8.980300 1.208900
-8.967300 2.709800
-8.954200 5.321600
-8.941100 9.160200
-8.928000 13.827900
-8.914900 18.316800
-8.901900 21.302800
-8.888800 21.766200
-8.875700 19.550300
-8.862600 15.445600
-8.849500 10.740800
-8.836500 6.584200
-8.823400 3.583100
-8.810300 1.802200
-8.797200 1.016300
-8.784200 0.973900
-8.771100 1.521900
-8.758000 2.586700
-8.744900 4.097100
-8.731800 5.951600
-8.718800 8.067000
-8.705700 10.429600
-8.692600 13.019600
-8.679500 15.601900
-8.666400 17.589700
-8.653400 18.222400
-8.640300 17.031100
-8.627200 14.236100
-8.614100 10.738500
-8.601100 7.718400
-8.588000 6.153000
-8.574900 6.516300
-8.561800 8.675100
-8.548700 11.900700
-8.535700 15.029800
-8.522600 16.867600
-8.509500 16.738600
-8.496400 14.847600
-8.483300 12.151000
-8.470300 9.797700
-8.457200 8.528700
-8.444100 8.411700
-8.431000 8.984900
-8.418000 9.610900
-8.404900 9.798600
-8.391800 9.382200
-8.378700 8.567300
-8.365600 7.873300
-8.352600 7.947500
-8.339500 9.248500
-8.326400 11.708700
-8.313300 14.611000
-8.300200 16.871300
-8.287200 17.656200
-8.274100 16.945800
-8.261000 15.592200
-8.247900 14.761000
-8.234900 15.122600
-8.221800 16.374900
-8.208700 17.445000
-8.195600 17.217500
-8.182500 15.258900
-8.169500 12.044500
-8.156400 8.604900
-8.143300 5.928900
-8.130200 4.534400
-8.117100 4.380100
-8.104100 5.035200
-8.091000 5.956200
-8.077900 6.760700
-8.064800 7.403000
-8.051800 8.166900
-8.038700 9.470100
-8.025600 11.588300
-8.012500 14.451200
-7.999400 17.616100
-7.986400 20.464500
-7.973300 22.594200
-7.960200 24.218900
-7.947100 26.229100
-7.934000 29.679100
-7.921000 34.912500
-7.907900 40.963200
-7.894800 45.783100
-7.881700 47.258500
-7.868700 44.377200
-7.855600 37.809600
-7.842500 29.599000
-7.829400 22.220500
-7.816300 17.563700
-7.803300 16.319900
-7.790200 17.964000
-7.777100 21.241500
-7.764000 24.868400
-7.750900 28.079900
-7.737900 30.785600
-7.724800 33.356800
-7.711700 36.265500
-7.698600 39.754800
-7.685600 43.599000
-7.672500 47.026200
-7.659400 48.941300
-7.646300 48.466900
-7.633200 45.530700
-7.620200 41.049900
-7.607100 36.457000
-7.594000 32.809800
-7.580900 30.142900
-7.567800 27.607800
-7.554800 24.314700
-7.541700 20.184100
-7.528600 16.143800
-7.515500 13.573400
-7.502500 13.443200
-7.489400 15.684500
-7.476300 19.105700
-7.463200 21.897200
-7.450100 22.500300
-7.437100 20.369400
-7.424000 16.152700
-7.410900 11.199800
-7.397800 6.790000
-7.384700 3.615300
-7.371700 1.750300
-7.358600 0.956600
-7.345500 1.033000
-7.332400 2.025700
-7.319400 4.251500
-7.306300 8.138200
-7.293200 13.931200
-7.280100 21.394100
-7.267000 29.704600
-7.254000 37.665500
-7.240900 44.132400
-7.227800 48.393100
-7.214700 50.303200
-7.201600 50.196200
-7.188600 48.712400
-7.175500 46.620200
-7.162400 44.625100
-7.149300 43.195900
-7.136300 42.513400
-7.123200 42.566900
-7.110100 43.239400
-7.097000 44.230800
-7.083900 44.909200
-7.070900 44.355100
-7.057800 41.714100
-7.044700 36.665400
-7.031600 29.679100
-7.018500 21.873700
-7.005500 14.548300
-6.992400 8.671400
-6.979300 4.606300
-6.966200 2.171600
-6.953200 0.905600
-6.940100 0.333300
-6.927000 0.108000
-6.913900 0.030800
-6.900800 0.007700
-6.887800 0.001700
-6.874700 0.000300
-6.861600 0.000100
-6.848500 0.000000
-6.835400 0.000000
-6.822400 0.000000
-6.809300 0.000000
-6.796200 0.000000
-6.783100 0.000000
-6.770100 0.000000
-6.757000 0.000000
-6.743900 0.000000
-6.730800 0.000000
-6.717700 0.000000
-6.704700 0.000000
-6.691600 0.000000
-6.678500 0.000000
-6.665400 0.000000
-6.652300 0.000000
-6.639300 0.000000
-6.626200 0.000000
-6.613100 0.000000
-6.600000 0.000000
-6.587000 0.000000
-6.573900 0.000000
-6.560800 0.000000
-6.547700 0.000000
-6.534600 0.000000
-6.521600 0.000000
-6.508500 0.000000
-6.495400 0.000000
-6.482300 0.000000
-6.469200 0.000000
-6.456200 0.000000
-6.443100 0.000000
-6.430000 0.000000
-6.416900 0.000000
-6.403900 0.000000
-6.390800 0.000000
-6.377700 0.000000
-6.364600 0.000000
-6.351500 0.000000
-6.338500 0.000000
-6.325400 0.000000
-6.312300 0.000000
-6.299200 0.000000
-6.286100 0.000000
-6.273100 0.000000
-6.260000 0.000000
-6.246900 0.000000
-6.233800 0.000000
-6.220700 0.000000
-6.207700 0.000000
-6.194600 0.000000
-6.181500 0.000000
-6.168400 0.000000
-6.155400 0.000000
-6.142300 0.000000
-6.129200 0.000000
-6.116100 0.000000
-6.103000 0.000000
-6.090000 0.000000
-6.076900 0.000000
-6.063800 0.000000
-6.050700 0.000000
-6.037600 0.000000
-6.024600 0.000000
-6.011500 0.000000
-5.998400 0.000000
-5.985300 0.000000
-5.972300 0.000000
-5.959200 0.000000
-5.946100 0.000000
-5.933000 0.000000
-5.919900 0.000000
-5.906900 0.000000
-5.893800 0.000000
-5.880700 0.000000
-5.867600 0.000000
-5.854500 0.000000
-5.841500 0.000000
-5.828400 0.000000
-5.815300 0.000000
-5.802200 0.000000
-5.789200 0.000000
-5.776100 0.000000
-5.763000 0.000000
-5.749900 0.000000
-5.736800 0.000000
-5.723800 0.000000
-5.710700 0.000000
-5.697600 0.000000
-5.684500 0.000000
-5.671400 0.000000
-5.658400 0.000000
-5.645300 0.000000
-5.632200 0.000000
-5.619100 0.000000
-5.606100 0.000000
-5.593000 0.000000
-5.579900 0.000000
-5.566800 0.000000
-5.553700 0.000000
-5.540700 0.000000
-5.527600 0.000000
-5.514500 0.000000
-5.501400 0.000000
-5.488300 0.000000
-5.475300 0.000000
-5.462200 0.000000
-5.449100 0.000000
-5.436000 0.000000
-5.423000 0.000000
-5.409900 0.000000
-5.396800 0.000000
-5.383700 0.000000
-5.370600 0.000000
-5.357600 0.000000
-5.344500 0.000000
-5.331400 0.000000
-5.318300 0.000000
-5.305200 0.000000
-5.292200 0.000000
-5.279100 0.000000
-5.266000 0.000000
-5.252900 0.000000
-5.239900 0.000000
-5.226800 0.000000
-5.213700 0.000000
-5.200600 0.000000
-5.187500 0.000000
-5.174500 0.000000
-5.161400 0.000000
-5.148300 0.000000
-5.135200 0.000000
-5.122100 0.000000
-5.109100 0.000000
-5.096000 0.000000
-5.082900 0.000000
-5.069800 0.000000
-5.056800 0.000000
-5.043700 0.000000
-5.030600 0.000000
-5.017500 0.000000
-5.004400 0.000000
-4.991400 0.000000
-4.978300 0.000000
-4.965200 0.000000
-4.952100 0.000000
-4.939000 0.000000
-4.926000 0.000000
-4.912900 0.000000
-4.899800 0.000000
-4.886700 0.000000
-4.873700 0.000000
-4.860600 0.000000
-4.847500 0.000000
-4.834400 0.000000
-4.821300 0.000000
-4.808300 0.000000
-4.795200 0.000000
-4.782100 0.000000
-4.769000 0.000000
-4.755900 0.000000
-4.742900 0.000000
-4.729800 0.000000
-4.716700 0.000000
-4.703600 0.000000
-4.690600 0.000000
-4.677500 0.000000
-4.664400 0.000000
-4.651300 0.000000
-4.638200 0.000000
-4.625200 0.000000
-4.612100 0.000000
-4.599000 0.000000
-4.585900 0.000000
-4.572800 0.000000
-4.559800 0.000000
-4.546700 0.000000
-4.533600 0.000000
-4.520500 0.000000
-4.507500 0.000000
-4.494400 0.000000
-4.481300 0.000000
-4.468200 0.000000
-4.455100 0.000000
-4.442100 0.000000
-4.429000 0.000000
-4.415900 0.000000
-4.402800 0.000000
-4.389700 0.000000
-4.376700 0.000000
-4.363600 0.000000
-4.350500 0.000000
-4.337400 0.000000
-4.324400 0.000000
-4.311300 0.000000
-4.298200 0.000000
-4.285100 0.000000
-4.272000 0.000000
-4.259000 0.000000
-4.245900 0.000000
-4.232800 0.000000
-4.219700 0.000000
-4.206600 0.000000
-4.193600 0.000000
-4.180500 0.000000
-4.167400 0.000000
-4.154300 0.000000
-4.141300 0.000000
-4.128200 0.000000
-4.115100 0.000000
-4.102000 0.000000
-4.088900 0.000000
-4.075900 0.000000
-4.062800 0.000000
-4.049700 0.000000
-4.036600 0.000000
-4.023500 0.000000
-4.010500 0.000000
-3.997400 0.000000
-3.984300 0.000000
-3.971200 0.000000
-3.958200 0.000000
-3.945100 0.000000
-3.932000 0.000000
-3.918900 0.000000
-3.905800 0.000000
-3.892800 0.000000
-3.879700 0.000000
-3.866600 0.000000
-3.853500 0.000000
-3.840400 0.000000
-3.827400 0.000000
-3.814300 0.000000
-3.801200 0.000000
-3.788100 0.000200
-3.775100 0.001200
-3.762000 0.005500
-3.748900 0.022900
-3.735800 0.083100
-3.722700 0.263600
-3.709700 0.732100
-3.696600 1.779200
-3.683500 3.784400
-3.670400 7.044500
-3.657300 11.475600
-3.644300 16.358600
-3.631200 20.404900
-3.618100 22.269400
-3.605000 21.263700
-3.592000 17.761900
-3.578900 12.978600
-3.565800 8.294900
-3.552700 4.636700
-3.539600 2.266600
-3.526600 0.968900
-3.513500 0.362100
-3.500400 0.118300
-3.487300 0.033800
-3.474200 0.008400
-3.461200 0.001800
-3.448100 0.000400
-3.435000 0.000100
-3.421900 0.000000
-3.408900 0.000100
-3.395800 0.000500
-3.382700 0.002700
-3.369600 0.012200
-3.356500 0.047700
-3.343500 0.163500
-3.330400 0.489800
-3.317300 1.284500
-3.304200 2.949700
-3.291100 5.933800
-3.278100 10.461500
-3.265000 16.173800
-3.251900 21.940200
-3.238800 26.133400
-3.225800 27.359700
-3.212700 25.227300
-3.199600 20.609300
-3.186500 15.230200
-3.173400 10.914900
-3.160400 8.993300
-3.147300 10.065200
-3.134200 13.994500
-3.121100 19.976600
-3.108000 26.715100
-3.095000 32.797200
-3.081900 37.156900
-3.068800 39.334700
-3.055700 39.365500
-3.042700 37.462100
-3.029600 33.828400
-3.016500 28.760800
-3.003400 22.883100
-2.990300 17.239700
-2.977300 13.119500
-2.964200 11.715700
-2.951100 13.788300
-2.938000 19.384200
-2.924900 27.610800
-2.911900 36.580800
-2.898800 43.773200
-2.885700 46.904000
-2.872600 44.965400
-2.859600 38.795100
-2.846500 30.735600
-2.833400 23.545600
-2.820300 19.212400
-2.807200 18.309100
-2.794200 20.137500
-2.781100 23.421500
-2.768000 27.025600
-2.754900 30.230900
-2.741800 32.508500
-2.728800 33.210400
-2.715700 31.657200
-2.702600 27.624600
-2.689500 21.722000
-2.676500 15.221700
-2.663400 9.438300
-2.650300 5.155800
-2.637200 2.474700
-2.624100 1.042000
-2.611100 0.384700
-2.598000 0.125200
-2.584900 0.039700
-2.571800 0.027500
-2.558700 0.070000
-2.545700 0.216300
-2.532600 0.597700
-2.519500 1.445000
-2.506400 3.051100
-2.493400 5.627300
-2.480300 9.065200
-2.467200 12.755400
-2.454100 15.676700
-2.441000 16.829000
-2.428000 15.780100
-2.414900 12.924200
-2.401800 9.245800
-2.388700 5.777300
-2.375600 3.153100
-2.362600 1.503100
-2.349500 0.626100
-2.336400 0.229100
-2.323300 0.078800
-2.310300 0.044500
-2.297200 0.085000
-2.284100 0.231500
-2.271000 0.583800
-2.257900 1.304700
-2.244900 2.583400
-2.231800 4.555200
-2.218700 7.209200
-2.205600 10.352200
-2.192500 13.672200
-2.179500 16.842000
-2.166400 19.554000
-2.153300 21.471100
-2.140200 22.246900
-2.127200 21.752300
-2.114100 20.384200
-2.101000 19.091100
-2.087900 18.894000
-2.074800 20.147600
-2.061800 22.132100
-2.048700 23.388900
-2.035600 22.623500
-2.022500 19.513600
-2.009400 14.839600
-1.996400 9.926100
-1.983300 5.903300
-1.970200 3.306600
-1.957100 2.131200
-1.944100 2.097000
-1.931000 2.847300
-1.917900 4.002000
-1.904800 5.174300
-1.891700 6.072700
-1.878700 6.674900
-1.865600 7.314700
-1.852500 8.520100
-1.839400 10.619700
-1.826300 13.362300
-1.813300 15.870300
-1.800200 17.052800
-1.787100 16.241600
-1.774000 13.591900
-1.761000 9.958500
-1.747900 6.379000
-1.734800 3.570300
-1.721700 1.745700
-1.708600 0.745700
-1.695600 0.279000
-1.682500 0.094600
-1.669400 0.041000
-1.656300 0.056900
-1.643200 0.147400
-1.630200 0.369000
-1.617100 0.813000
-1.604000 1.565700
-1.590900 2.634100
-1.577800 3.872700
-1.564800 4.980900
-1.551700 5.624200
-1.538600 5.638600
-1.525500 5.193600
-1.512500 4.792200
-1.499400 5.084800
-1.486300 6.567100
-1.473200 9.274900
-1.460100 12.619100
-1.447100 15.514800
-1.434000 16.842000
-1.420900 16.022500
-1.407800 13.327600
-1.394700 9.686100
-1.381700 6.149400
-1.368600 3.410000
-1.355500 1.651700
-1.342400 0.698700
-1.329400 0.258200
-1.316300 0.083300
-1.303200 0.023500
-1.290100 0.005800
-1.277000 0.001200
-1.264000 0.000200
-1.250900 0.000000
-1.237800 0.000000
-1.224700 0.000000
-1.211600 0.000000
-1.198600 0.000000
-1.185500 0.000000
-1.172400 0.000000
-1.159300 0.000000
-1.146300 0.000000
-1.133200 0.000000
-1.120100 0.000000
-1.107000 0.000000
-1.093900 0.000000
-1.080900 0.000000
-1.067800 0.000000
-1.054700 0.000000
-1.041600 0.000000
-1.028500 0.000000
-1.015500 0.000000
-1.002400 0.000000
-0.989300 0.000000
-0.976200 0.000000
-0.963200 0.000200
-0.950100 0.001100
-0.937000 0.004600
-0.923900 0.017400
-0.910800 0.056700
-0.897800 0.162200
-0.884700 0.406300
-0.871600 0.893000
-0.858500 1.730100
-0.845400 2.976600
-0.832400 4.605800
-0.819300 6.532800
-0.806200 8.700100
-0.793100 11.114700
-0.780100 13.727600
-0.767000 16.213200
-0.753900 17.900200
-0.740800 18.047400
-0.727700 16.329700
-0.714700 13.136100
-0.701600 9.422800
-0.688500 6.264700
-0.675400 4.478100
-0.662300 4.521800
-0.649300 6.568300
-0.636200 10.520000
-0.623100 15.910300
-0.610000 21.849800
-0.597000 27.186100
-0.583900 30.841700
-0.570800 32.116800
-0.557700 30.813900
-0.544600 27.235800
-0.531600 22.151600
-0.518500 16.712500
-0.505400 12.237700
-0.492300 9.893000
-0.479200 10.373600
-0.466200 13.664900
-0.453100 18.921900
-0.440000 24.574900
-0.426900 28.785200
-0.413900 30.161500
-0.400800 28.347100
-0.387700 24.090600
-0.374600 18.794200
-0.361500 13.915600
-0.348500 10.591000
-0.335400 9.521300
-0.322300 10.915800
-0.309200 14.371300
-0.296100 18.831300
-0.283100 22.879300
-0.270000 25.373300
-0.256900 26.018600
-0.243800 25.378000
-0.230800 24.277500
-0.217700 23.153400
-0.204600 21.944300
-0.191500 20.540200
-0.178400 19.204100
-0.165400 18.448300
-0.152300 18.484300
-0.139200 18.849600
-0.126100 18.651200
-0.113000 17.240500
-0.100000 14.718100
-0.086900 11.844800
-0.073800 9.484500
-0.060700 8.082600
-0.047700 7.571800
-0.034600 7.690900
-0.021500 8.369400
-0.008400 9.828100
0.004700 12.320100
0.017700 15.767600
0.030800 19.647200
0.043900 23.244100
