set title 'mp-9897 - Density of States'
set xlabel 'Energy (eV)'
set ylabel 'DOS (states/eV)'
set grid
set xrange [-10:10]
set yrange [0:7.223]
set xzeroaxis lt -1
set terminal png size 800,600
set output 'mp-9897_dos_gnuplot.png'
plot '-' using 1:2 with lines title 'DOS'
-9.396100 0.000000
-9.383700 0.000000
-9.371400 0.000000
-9.359000 0.000000
-9.346600 0.000000
-9.334200 0.000000
-9.321800 0.000000
-9.309400 0.000000
-9.297100 0.000000
-9.284700 0.000000
-9.272300 0.000000
-9.259900 0.000000
-9.247500 0.000000
-9.235100 0.000000
-9.222800 0.000000
-9.210400 0.000000
-9.198000 0.000000
-9.185600 0.000000
-9.173200 0.000000
-9.160800 0.000000
-9.148500 0.000000
-9.136100 0.000000
-9.123700 0.000000
-9.111300 0.000000
-9.098900 0.000000
-9.086500 0.000000
-9.074200 0.000000
-9.061800 0.000000
-9.049400 0.000000
-9.037000 0.000000
-9.024600 0.000000
-9.012200 0.000000
-8.999900 0.000000
-8.987500 0.000000
-8.975100 0.000000
-8.962700 0.000000
-8.950300 0.000000
-8.937900 0.000000
-8.925600 0.000000
-8.913200 0.000000
-8.900800 0.000000
-8.888400 0.000000
-8.876000 0.000000
-8.863600 0.000000
-8.851300 0.000000
-8.838900 0.000000
-8.826500 0.000000
-8.814100 0.000000
-8.801700 0.000000
-8.789300 0.000000
-8.777000 0.000000
-8.764600 0.000000
-8.752200 0.000000
-8.739800 0.000000
-8.727400 0.000000
-8.715000 0.000000
-8.702700 0.000000
-8.690300 0.000000
-8.677900 0.000000
-8.665500 0.000000
-8.653100 0.000000
-8.640700 0.000000
-8.628400 0.000000
-8.616000 0.000000
-8.603600 0.000000
-8.591200 0.000000
-8.578800 0.000000
-8.566400 0.000000
-8.554100 0.000000
-8.541700 0.000000
-8.529300 0.000000
-8.516900 0.000000
-8.504500 0.000000
-8.492100 0.000000
-8.479800 0.000000
-8.467400 0.000000
-8.455000 0.000000
-8.442600 0.000000
-8.430200 0.000000
-8.417800 0.000000
-8.405500 0.000000
-8.393100 0.000000
-8.380700 0.000000
-8.368300 0.000000
-8.355900 0.000000
-8.343500 0.000000
-8.331200 0.000000
-8.318800 0.000000
-8.306400 0.000000
-8.294000 0.000000
-8.281600 0.000000
-8.269200 0.067100
-8.256900 0.230500
-8.244500 0.321900
-8.232100 0.414700
-8.219700 0.510800
-8.207300 0.626400
-8.194900 0.728800
-8.182600 0.715600
-8.170200 0.730200
-8.157800 0.740800
-8.145400 0.732000
-8.133000 0.718900
-8.120600 0.722400
-8.108300 0.731800
-8.095900 0.740500
-8.083500 0.737100
-8.071100 0.736900
-8.058700 0.738800
-8.046300 0.740200
-8.034000 0.738100
-8.021600 0.732500
-8.009200 0.730700
-7.996800 0.732300
-7.984400 0.733000
-7.972000 0.734400
-7.959700 0.737700
-7.947300 0.740100
-7.934900 0.742800
-7.922500 0.746600
-7.910100 0.748900
-7.897700 0.748600
-7.885400 0.748900
-7.873000 0.748500
-7.860600 0.746200
-7.848200 0.742200
-7.835800 0.741100
-7.823400 0.742600
-7.811100 0.744800
-7.798700 0.744900
-7.786300 0.746500
-7.773900 0.748000
-7.761500 0.749400
-7.749100 0.750500
-7.736700 0.750700
-7.724400 0.876200
-7.712000 0.937600
-7.699600 0.983600
-7.687200 1.032200
-7.674800 1.082800
-7.662400 1.126100
-7.650100 1.168400
-7.637700 1.210500
-7.625300 1.255600
-7.612900 1.295800
-7.600500 1.344100
-7.588100 1.402500
-7.575800 1.553500
-7.563400 1.541700
-7.551000 1.556700
-7.538600 1.563200
-7.526200 1.556500
-7.513800 1.549200
-7.501500 1.553200
-7.489100 1.560700
-7.476700 1.562900
-7.464300 1.565800
-7.451900 1.574000
-7.439500 1.579700
-7.427200 1.582500
-7.414800 1.583000
-7.402400 1.582300
-7.390000 1.583800
-7.377600 1.585600
-7.365200 1.588000
-7.352900 1.590100
-7.340500 1.589900
-7.328100 1.591700
-7.315700 1.595400
-7.303300 1.600800
-7.290900 1.604200
-7.278600 1.607700
-7.266200 1.609600
-7.253800 1.609500
-7.241400 1.610000
-7.229000 1.613000
-7.216600 1.616900
-7.204300 1.621400
-7.191900 1.625700
-7.179500 1.629000
-7.167100 1.632700
-7.154700 1.635400
-7.142300 1.640000
-7.130000 1.644800
-7.117600 1.649600
-7.105200 1.654700
-7.092800 1.659800
-7.080400 1.664500
-7.068000 1.667600
-7.055700 1.668200
-7.043300 1.668300
-7.030900 1.669900
-7.018500 1.671700
-7.006100 1.675200
-6.993700 1.679500
-6.981400 1.684100
-6.969000 1.689300
-6.956600 1.694700
-6.944200 1.700200
-6.931800 1.704900
-6.919400 1.709700
-6.907100 1.715200
-6.894700 1.720700
-6.882300 1.726100
-6.869900 1.731400
-6.857500 1.736600
-6.845100 1.741400
-6.832800 1.746400
-6.820400 1.751800
-6.808000 1.756000
-6.795600 1.760800
-6.783200 1.766500
-6.770800 1.772700
-6.758500 1.779500
-6.746100 1.786400
-6.733700 1.793600
-6.721300 1.801200
-6.708900 1.808500
-6.696500 1.815600
-6.684200 1.822800
-6.671800 1.829200
-6.659400 1.836200
-6.647000 1.844000
-6.634600 1.852300
-6.622200 1.861100
-6.609900 1.870700
-6.597500 1.880700
-6.585100 1.891200
-6.572700 1.902000
-6.560300 1.913000
-6.547900 1.924200
-6.535600 1.934900
-6.523200 1.946300
-6.510800 1.958500
-6.498400 1.971600
-6.486000 1.985400
-6.473600 1.999800
-6.461300 2.015500
-6.448900 2.032400
-6.436500 2.050000
-6.424100 2.068400
-6.411700 2.091100
-6.399300 2.117200
-6.387000 2.147100
-6.374600 2.180300
-6.362200 2.216900
-6.349800 2.258200
-6.337400 2.306000
-6.325000 2.395600
-6.312700 2.480700
-6.300300 2.532900
-6.287900 2.577700
-6.275500 2.626600
-6.263100 2.680300
-6.250700 2.744400
-6.238400 2.702000
-6.226000 2.650900
-6.213600 2.807000
-6.201200 2.958000
-6.188800 2.966500
-6.176400 3.062200
-6.164100 3.578300
-6.151700 4.104500
-6.139300 3.024500
-6.126900 2.712700
-6.114500 2.558200
-6.102100 2.356200
-6.089800 2.154800
-6.077400 2.054400
-6.065000 2.030600
-6.052600 1.967700
-6.040200 1.917100
-6.027800 1.890200
-6.015500 1.956700
-6.003100 2.003100
-5.990700 1.932900
-5.978300 1.865600
-5.965900 1.840900
-5.953500 1.816000
-5.941200 1.801600
-5.928800 1.834100
-5.916400 1.899700
-5.904000 1.943300
-5.891600 1.805700
-5.879200 1.795800
-5.866900 1.799400
-5.854500 1.800700
-5.842100 1.794800
-5.829700 1.781200
-5.817300 1.769800
-5.804900 1.780700
-5.792600 1.802200
-5.780200 1.854000
-5.767800 2.104100
-5.755400 1.986100
-5.743000 1.975800
-5.730600 1.955600
-5.718300 1.952000
-5.705900 1.978600
-5.693500 1.986200
-5.681100 1.992500
-5.668700 2.084000
-5.656300 2.198600
-5.644000 2.471000
-5.631600 2.676600
-5.619200 3.009100
-5.606800 3.255800
-5.594400 3.274700
-5.582000 3.313500
-5.569700 3.403300
-5.557300 3.515100
-5.544900 3.611400
-5.532500 3.531900
-5.520100 3.525400
-5.507700 3.590500
-5.495400 3.734000
-5.483000 3.938000
-5.470600 4.074900
-5.458200 4.380200
-5.445800 4.842000
-5.433400 5.091400
-5.421100 5.216100
-5.408700 5.123900
-5.396300 5.086300
-5.383900 5.217100
-5.371500 5.700600
-5.359100 6.077100
-5.346800 5.524200
-5.334400 5.444700
-5.322000 5.158400
-5.309600 4.530900
-5.297200 3.913900
-5.284800 3.522200
-5.272500 3.263200
-5.260100 3.069700
-5.247700 2.810400
-5.235300 2.754700
-5.222900 1.844300
-5.210500 1.490400
-5.198200 1.275600
-5.185800 0.796800
-5.173400 0.462500
-5.161000 0.505200
-5.148600 0.564400
-5.136200 0.622900
-5.123900 0.680500
-5.111500 0.727300
-5.099100 0.766300
-5.086700 0.801700
-5.074300 0.845200
-5.061900 0.925300
-5.049600 1.006200
-5.037200 1.019000
-5.024800 1.033900
-5.012400 1.105600
-5.000000 1.207300
-4.987600 1.282400
-4.975300 1.303800
-4.962900 1.371100
-4.950500 1.466900
-4.938100 1.596000
-4.925700 1.871800
-4.913300 2.092200
-4.901000 2.212100
-4.888600 2.309300
-4.876200 2.392000
-4.863800 2.406200
-4.851400 2.404800
-4.839000 2.438800
-4.826700 2.431900
-4.814300 2.405400
-4.801900 2.509500
-4.789500 2.591300
-4.777100 2.391700
-4.764700 2.312800
-4.752400 2.212100
-4.740000 2.120200
-4.727600 2.048600
-4.715200 1.995600
-4.702800 1.955100
-4.690400 1.925500
-4.678100 1.907800
-4.665700 1.894600
-4.653300 1.880800
-4.640900 1.867800
-4.628500 1.854000
-4.616100 1.841700
-4.603800 1.832900
-4.591400 1.827400
-4.579000 1.827400
-4.566600 1.826500
-4.554200 1.823200
-4.541800 1.817400
-4.529500 1.815000
-4.517100 1.814700
-4.504700 1.817500
-4.492300 1.821700
-4.479900 1.825400
-4.467500 1.828900
-4.455200 1.832700
-4.442800 1.840300
-4.430400 1.851700
-4.418000 1.869000
-4.405600 1.889000
-4.393200 1.908400
-4.380900 1.932300
-4.368500 1.954500
-4.356100 1.975000
-4.343700 1.998300
-4.331300 2.024300
-4.318900 2.055300
-4.306600 2.077200
-4.294200 2.099100
-4.281800 2.120600
-4.269400 2.153200
-4.257000 2.197600
-4.244600 2.250000
-4.232300 2.304600
-4.219900 2.358800
-4.207500 2.425100
-4.195100 2.500400
-4.182700 2.647600
-4.170300 2.787400
-4.158000 2.943700
-4.145600 2.958600
-4.133200 2.890900
-4.120800 2.882900
-4.108400 2.904800
-4.096000 2.915000
-4.083700 2.969700
-4.071300 2.946800
-4.058900 2.795200
-4.046500 2.681500
-4.034100 2.671200
-4.021700 2.669200
-4.009400 2.646900
-3.997000 2.648300
-3.984600 2.742300
-3.972200 2.876000
-3.959800 3.096700
-3.947400 3.421000
-3.935100 2.984900
-3.922700 2.728400
-3.910300 2.567700
-3.897900 2.437100
-3.885500 2.321300
-3.873100 2.209600
-3.860800 2.106400
-3.848400 2.052900
-3.836000 2.005500
-3.823600 1.959100
-3.811200 1.912800
-3.798800 1.866900
-3.786500 1.821400
-3.774100 1.778400
-3.761700 1.740500
-3.749300 1.702900
-3.736900 1.667500
-3.724500 1.632600
-3.712200 1.600400
-3.699800 1.569100
-3.687400 1.540100
-3.675000 1.511400
-3.662600 1.482700
-3.650200 1.454600
-3.637900 1.425500
-3.625500 1.395400
-3.613100 1.363200
-3.600700 1.331200
-3.588300 1.297900
-3.575900 1.261800
-3.563600 1.222300
-3.551200 1.192800
-3.538800 1.162800
-3.526400 1.132300
-3.514000 1.106000
-3.501600 1.076600
-3.489300 1.040200
-3.476900 1.042700
-3.464500 0.988900
-3.452100 0.826100
-3.439700 0.653500
-3.427300 0.648800
-3.414900 0.644100
-3.402600 0.639400
-3.390200 0.634700
-3.377800 0.629200
-3.365400 0.624100
-3.353000 0.619000
-3.340600 0.614500
-3.328300 0.610500
-3.315900 0.606600
-3.303500 0.603000
-3.291100 0.599900
-3.278700 0.596900
-3.266300 0.594000
-3.254000 0.590700
-3.241600 0.587500
-3.229200 0.584300
-3.216800 0.581200
-3.204400 0.578100
-3.192000 0.575100
-3.179700 0.572100
-3.167300 0.569300
-3.154900 0.566600
-3.142500 0.564100
-3.130100 0.561700
-3.117700 0.559700
-3.105400 0.558400
-3.093000 0.558800
-3.080600 0.557700
-3.068200 0.555400
-3.055800 0.552700
-3.043400 0.550000
-3.031100 0.547600
-3.018700 0.545200
-3.006300 0.542600
-2.993900 0.539900
-2.981500 0.537100
-2.969100 0.534300
-2.956800 0.531600
-2.944400 0.529300
-2.932000 0.527200
-2.919600 0.525100
-2.907200 0.523000
-2.894800 0.520900
-2.882500 0.518700
-2.870100 0.516600
-2.857700 0.514800
-2.845300 0.513500
-2.832900 0.512500
-2.820500 0.512200
-2.808200 0.512600
-2.795800 0.513100
-2.783400 0.513400
-2.771000 0.513400
-2.758600 0.513000
-2.746200 0.511000
-2.733900 0.508900
-2.721500 0.506700
-2.709100 0.504700
-2.696700 0.503000
-2.684300 0.501600
-2.671900 0.500600
-2.659600 0.499800
-2.647200 0.498100
-2.634800 0.496400
-2.622400 0.494800
-2.610000 0.493600
-2.597600 0.494100
-2.585300 0.495500
-2.572900 0.496600
-2.560500 0.497200
-2.548100 0.497300
-2.535700 0.497000
-2.523300 0.496300
-2.511000 0.495200
-2.498600 0.495700
-2.486200 0.494400
-2.473800 0.490900
-2.461400 0.487300
-2.449000 0.487400
-2.436700 0.489500
-2.424300 0.490900
-2.411900 0.491500
-2.399500 0.491300
-2.387100 0.490200
-2.374700 0.487600
-2.362400 0.485700
-2.350000 0.431800
-2.337600 0.394400
-2.325200 0.373200
-2.312800 0.360800
-2.300400 0.348700
-2.288100 0.337200
-2.275700 0.326900
-2.263300 0.317600
-2.250900 0.308400
-2.238500 0.298900
-2.226100 0.289200
-2.213800 0.279600
-2.201400 0.270000
-2.189000 0.260600
-2.176600 0.251200
-2.164200 0.241900
-2.151800 0.233400
-2.139500 0.226500
-2.127100 0.218200
-2.114700 0.208500
-2.102300 0.198700
-2.089900 0.188800
-2.077500 0.179000
-2.065200 0.169600
-2.052800 0.160700
-2.040400 0.151300
-2.028000 0.141000
-2.015600 0.129800
-2.003200 0.119100
-1.990900 0.109200
-1.978500 0.100000
-1.966100 0.091200
-1.953700 0.081700
-1.941300 0.072500
-1.928900 0.041600
-1.916600 0.000000
-1.904200 0.000000
-1.891800 0.000000
-1.879400 0.000000
-1.867000 0.000000
-1.854600 0.000000
-1.842300 0.000000
-1.829900 0.000000
-1.817500 0.000000
-1.805100 0.000000
-1.792700 0.000000
-1.780300 0.000000
-1.768000 0.000000
-1.755600 0.000000
-1.743200 0.000000
-1.730800 0.000000
-1.718400 0.000000
-1.706000 0.000000
-1.693700 0.000000
-1.681300 0.000000
-1.668900 0.000000
-1.656500 0.000000
-1.644100 0.000000
-1.631700 0.000000
-1.619400 0.000000
-1.607000 0.000000
-1.594600 0.000000
-1.582200 0.000000
-1.569800 0.000000
-1.557400 0.000000
-1.545100 0.000000
-1.532700 0.000000
-1.520300 0.000000
-1.507900 0.000000
-1.495500 0.000000
-1.483100 0.000000
-1.470800 0.000000
-1.458400 0.000000
-1.446000 0.000000
-1.433600 0.000000
-1.421200 0.000000
-1.408800 0.000000
-1.396500 0.000000
-1.384100 0.000000
-1.371700 0.000000
-1.359300 0.000000
-1.346900 0.000000
-1.334500 0.000000
-1.322200 0.000000
-1.309800 0.000000
-1.297400 0.000000
-1.285000 0.000000
-1.272600 0.000000
-1.260200 0.000000
-1.247900 0.000000
-1.235500 0.000000
-1.223100 0.000000
-1.210700 0.000000
-1.198300 0.000000
-1.185900 0.000000
-1.173600 0.000000
-1.161200 0.000000
-1.148800 0.000000
-1.136400 0.000000
-1.124000 0.000000
-1.111600 0.000000
-1.099300 0.000000
-1.086900 0.000000
-1.074500 0.000000
-1.062100 0.000000
-1.049700 0.000000
-1.037300 0.000000
-1.025000 0.000000
-1.012600 0.000000
-1.000200 0.000000
-0.987800 0.000000
-0.975400 0.000000
-0.963000 0.000000
-0.950700 0.000000
-0.938300 0.000000
-0.925900 0.000000
-0.913500 0.000000
-0.901100 0.000000
-0.888700 0.000000
-0.876400 0.000000
-0.864000 0.000000
-0.851600 0.000000
-0.839200 0.000000
-0.826800 0.000000
-0.814400 0.000000
-0.802100 0.000000
-0.789700 0.000000
-0.777300 0.000000
-0.764900 0.000000
-0.752500 0.000000
-0.740100 0.000000
-0.727800 0.000000
-0.715400 0.000000
-0.703000 0.000000
-0.690600 0.000000
-0.678200 0.000000
-0.665800 0.000000
-0.653500 0.000000
-0.641100 0.000000
-0.628700 0.000000
-0.616300 0.000000
-0.603900 0.000000
-0.591500 0.000000
-0.579200 0.000000
-0.566800 0.000000
-0.554400 0.000000
-0.542000 0.000000
-0.529600 0.000000
-0.517200 0.000000
-0.504900 0.000000
-0.492500 0.000000
-0.480100 0.000000
-0.467700 0.000000
-0.455300 0.000000
-0.442900 0.000000
-0.430600 0.000000
-0.418200 0.000000
-0.405800 0.000000
-0.393400 0.000000
-0.381000 0.000000
-0.368600 0.000000
-0.356300 0.000000
-0.343900 0.000000
-0.331500 0.000000
-0.319100 0.000000
-0.306700 0.000000
-0.294300 0.000000
-0.282000 0.000000
-0.269600 0.000000
-0.257200 0.000000
-0.244800 0.000000
-0.232400 0.000000
-0.220000 0.000000
-0.207700 0.001400
-0.195300 0.274800
-0.182900 0.378200
-0.170500 0.498600
-0.158100 0.577500
-0.145700 0.670200
-0.133400 0.771000
-0.121000 0.884000
-0.108600 0.975000
-0.096200 1.027300
-0.083800 1.084700
-0.071400 1.158900
-0.059100 1.245500
-0.046700 1.339000
-0.034300 1.517800
-0.021900 1.609800
-0.009500 1.738200
0.002900 1.783400
0.015200 1.795500
0.027600 1.811400
0.040000 1.823900
0.052400 1.834800
0.064800 1.853800
0.077200 1.861600
0.089500 1.874400
0.101900 1.891300
0.114300 1.916700
0.126700 1.945900
0.139100 1.961400
0.151500 1.969600
0.163800 1.998600
0.176200 2.042800
0.188600 2.098000
0.201000 2.172200
0.213400 2.281000
0.225800 2.487100
0.238100 2.637800
0.250500 2.605200
0.262900 2.621200
0.275300 2.598600
0.287700 2.514400
0.300100 2.432800
0.312400 2.288000
0.324800 2.105000
0.337200 1.930200
0.349600 1.807600
0.362000 1.710000
0.374400 1.613400
0.386700 1.543800
0.399100 1.491200
0.411500 1.439600
0.423900 1.396200
0.436300 1.363500
0.448700 1.388100
0.461000 1.347000
0.473400 1.326500
0.485800 1.323700
0.498200 1.333500
0.510600 1.350600
0.523000 1.379200
0.535300 1.423800
0.547700 1.477500
0.560100 1.538100
0.572500 1.613300
0.584900 1.710500
0.597300 1.815300
0.609600 1.961800
0.622000 2.091400
0.634400 2.166300
0.646800 2.192800
0.659200 2.185900
0.671600 2.259000
0.683900 1.953600
0.696300 1.902800
0.708700 1.840100
0.721100 1.786400
0.733500 1.726900
0.745900 1.693900
0.758200 1.646900
0.770600 1.602700
0.783000 1.604400
0.795400 1.666100
0.807800 1.644000
0.820200 1.620600
0.832500 1.603300
0.844900 1.625500
0.857300 1.670600
0.869700 1.731000
0.882100 1.803500
0.894500 1.868800
0.906900 1.923500
0.919200 1.990100
0.931600 2.063500
0.944000 2.182700
0.956400 2.402400
0.968800 2.654000
0.981200 2.949000
0.993500 3.259500
1.005900 3.410100
1.018300 3.690000
1.030700 3.825100
1.043100 3.719900
1.055500 3.694700
1.067800 3.566800
1.080200 3.479500
1.092600 3.433000
1.105000 3.421700
1.117400 3.420300
1.129800 3.367600
1.142100 3.327800
1.154500 3.296500
1.166900 3.280900
1.179300 3.333300
1.191700 3.416000
1.204100 3.464500
1.216400 3.544400
1.228800 3.563500
1.241200 3.521100
1.253600 3.477000
1.266000 3.439400
1.278400 3.411900
1.290700 3.413400
1.303100 3.440500
1.315500 3.505700
1.327900 3.598300
1.340300 3.673900
1.352700 3.758200
1.365000 3.839200
1.377400 3.933000
1.389800 4.058000
1.402200 4.162100
1.414600 4.269700
1.427000 4.357000
1.439300 4.271300
1.451700 4.183000
1.464100 4.031500
1.476500 3.757200
1.488900 3.662000
1.501300 3.608100
1.513600 3.584200
1.526000 3.570900
1.538400 3.568500
1.550800 3.564000
1.563200 3.567100
1.575600 3.574400
1.587900 3.589000
1.600300 3.607900
1.612700 3.628800
1.625100 3.653000
1.637500 3.680300
1.649900 3.727200
1.662200 3.832200
1.674600 3.923500
1.687000 4.032300
1.699400 4.223200
1.711800 4.331700
1.724200 4.398100
1.736500 4.461600
1.748900 4.507000
1.761300 4.623300
1.773700 4.661500
1.786100 4.740400
1.798500 4.885300
1.810800 5.111500
1.823200 5.458000
1.835600 5.657900
1.848000 5.695000
1.860400 6.253500
1.872800 5.432400
1.885100 5.004500
1.897500 4.716800
1.909900 4.568600
1.922300 4.457300
1.934700 4.364500
1.947100 4.299000
1.959400 4.221900
1.971800 4.157200
1.984200 4.102200
1.996600 4.076300
2.009000 4.076100
2.021400 4.113200
2.033700 4.020600
2.046100 4.038300
2.058500 4.086000
2.070900 4.178300
2.083300 4.204300
2.095700 4.134200
2.108000 4.093700
2.120400 4.089000
2.132800 4.075300
2.145200 4.113700
2.157600 4.247400
2.170000 4.084800
2.182300 4.122200
2.194700 4.024900
2.207100 3.948300
2.219500 3.963900
2.231900 3.993300
2.244300 4.049200
2.256600 4.089800
2.269000 4.125700
2.281400 4.163100
2.293800 4.195000
2.306200 4.230700
2.318600 4.273900
2.330900 4.327800
2.343300 4.469400
2.355700 4.571600
2.368100 4.787800
2.380500 5.293500
2.392900 5.357100
2.405200 5.563100
2.417600 5.245300
2.430000 5.159200
2.442400 5.073500
2.454800 5.018400
2.467200 4.956400
2.479500 4.917800
2.491900 5.033800
2.504300 4.878600
2.516700 4.854200
2.529100 4.816000
2.541500 4.767200
2.553800 4.712000
2.566200 5.024500
2.578600 4.792900
2.591000 4.562400
2.603400 4.453000
2.615800 4.436600
2.628100 4.224900
2.640500 4.106700
2.652900 4.046000
2.665300 3.975000
2.677700 3.878300
2.690100 3.817700
2.702400 3.784600
2.714800 3.760900
2.727200 3.737900
2.739600 3.734200
2.752000 3.738600
2.764400 3.753400
2.776700 3.772500
2.789100 3.823600
2.801500 3.754600
2.813900 3.685200
2.826300 3.630300
2.838700 3.587500
2.851000 3.542800
2.863400 3.507900
2.875800 3.473800
2.888200 3.471100
2.900600 3.504000
2.913000 3.503400
2.925300 3.474200
2.937700 3.449100
2.950100 3.422900
2.962500 3.326600
2.974900 3.255900
2.987300 3.194600
2.999600 3.142800
3.012000 3.083500
3.024400 3.033200
3.036800 3.002800
3.049200 2.972200
3.061600 2.941900
3.073900 2.906800
3.086300 2.890700
3.098700 2.862000
3.111100 2.840700
3.123500 2.819100
3.135900 2.804000
3.148200 2.799000
3.160600 2.789300
3.173000 2.778400
3.185400 2.763800
3.197800 2.721000
3.210200 2.625000
3.222500 2.571600
3.234900 2.541400
3.247300 2.468700
3.259700 2.415600
3.272100 2.360500
3.284500 2.314000
3.296800 2.240000
3.309200 2.187700
3.321600 2.134600
3.334000 2.112300
3.346400 2.088400
3.358800 2.126700
3.371100 2.133400
3.383500 2.125400
3.395900 2.193200
3.408300 2.243200
3.420700 2.303400
3.433100 2.378800
3.445400 2.466100
3.457800 2.635900
3.470200 2.542400
3.482600 2.489200
3.495000 2.846900
3.507400 2.820800
3.519700 2.697900
3.532100 2.624100
3.544500 2.593200
3.556900 2.544500
3.569300 2.559700
3.581700 2.575400
3.594000 2.640100
3.606400 2.726400
3.618800 2.792000
3.631200 2.903900
