set title 'mp-1102082 - Density of States'
set xlabel 'Energy (eV)'
set ylabel 'DOS (states/eV)'
set grid
set xrange [-10:10]
set yrange [0:25.351]
set xzeroaxis lt -1
set terminal png size 800,600
set output 'mp-1102082_dos_gnuplot.png'
plot '-' using 1:2 with lines title 'DOS'
-9.773400 0.000000
-9.763100 0.000000
-9.752800 0.000000
-9.742500 0.000000
-9.732200 0.000000
-9.721900 0.000000
-9.711600 0.000000
-9.701200 0.000000
-9.690900 0.000000
-9.680600 0.000000
-9.670300 0.000000
-9.660000 0.000000
-9.649700 0.000000
-9.639300 0.000000
-9.629000 0.000000
-9.618700 0.000000
-9.608400 0.000000
-9.598100 0.000000
-9.587800 0.000000
-9.577400 0.000000
-9.567100 0.000000
-9.556800 0.000000
-9.546500 0.000000
-9.536200 0.000000
-9.525900 0.000000
-9.515500 0.000000
-9.505200 0.000000
-9.494900 0.000000
-9.484600 0.000000
-9.474300 0.000000
-9.464000 0.000000
-9.453600 0.000000
-9.443300 0.000000
-9.433000 0.000000
-9.422700 0.000000
-9.412400 0.000000
-9.402100 0.000000
-9.391800 0.000000
-9.381400 0.000000
-9.371100 0.000000
-9.360800 0.000000
-9.350500 0.000000
-9.340200 0.000000
-9.329900 0.000000
-9.319500 0.000000
-9.309200 0.000000
-9.298900 0.000000
-9.288600 0.000000
-9.278300 0.000000
-9.268000 0.000000
-9.257600 0.000000
-9.247300 0.000000
-9.237000 0.000000
-9.226700 0.000000
-9.216400 0.000000
-9.206100 0.000000
-9.195700 0.000000
-9.185400 0.000000
-9.175100 0.000000
-9.164800 0.000000
-9.154500 0.000000
-9.144200 0.000000
-9.133900 0.000000
-9.123500 0.000000
-9.113200 0.000000
-9.102900 0.000000
-9.092600 0.000000
-9.082300 0.000000
-9.072000 0.000000
-9.061600 0.000000
-9.051300 0.000000
-9.041000 0.000000
-9.030700 0.000000
-9.020400 0.000000
-9.010100 0.000000
-8.999700 0.000000
-8.989400 0.000000
-8.979100 0.000000
-8.968800 0.000000
-8.958500 0.000000
-8.948200 0.000000
-8.937800 0.000000
-8.927500 0.000000
-8.917200 0.000000
-8.906900 0.000000
-8.896600 0.000000
-8.886300 0.000000
-8.876000 0.000000
-8.865600 0.000000
-8.855300 0.000000
-8.845000 0.000000
-8.834700 0.000600
-8.824400 0.086500
-8.814100 0.317700
-8.803700 0.668300
-8.793400 0.904200
-8.783100 1.000900
-8.772800 1.045300
-8.762500 1.140600
-8.752200 1.264800
-8.741800 1.396400
-8.731500 1.535000
-8.721200 1.728400
-8.710900 2.024100
-8.700600 2.250600
-8.690300 2.202200
-8.679900 2.143800
-8.669600 2.183100
-8.659300 2.221200
-8.649000 2.265300
-8.638700 2.311500
-8.628400 2.357400
-8.618000 2.391800
-8.607700 2.444500
-8.597400 2.537800
-8.587100 2.879700
-8.576800 3.282800
-8.566500 3.523700
-8.556200 3.671500
-8.545800 3.790800
-8.535500 3.746400
-8.525200 3.792600
-8.514900 3.888000
-8.504600 3.974400
-8.494300 4.040400
-8.483900 4.085300
-8.473600 4.110200
-8.463300 3.895400
-8.453000 3.820200
-8.442700 3.891100
-8.432400 4.010800
-8.422000 4.176700
-8.411700 4.379400
-8.401400 4.568400
-8.391100 4.740800
-8.380800 5.119700
-8.370500 5.130200
-8.360100 5.053400
-8.349800 5.036100
-8.339500 5.025300
-8.329200 5.026500
-8.318900 5.019800
-8.308600 4.990100
-8.298300 4.946700
-8.287900 4.938700
-8.277600 4.957300
-8.267300 4.970700
-8.257000 4.940100
-8.246700 4.887300
-8.236400 4.766600
-8.226000 4.596700
-8.215700 4.387000
-8.205400 4.255300
-8.195100 4.150600
-8.184800 4.059400
-8.174500 3.976400
-8.164100 3.905900
-8.153800 3.854600
-8.143500 3.826900
-8.133200 3.804100
-8.122900 3.781100
-8.112600 3.757200
-8.102200 3.731000
-8.091900 3.704800
-8.081600 3.678300
-8.071300 3.653200
-8.061000 3.643300
-8.050700 3.634000
-8.040300 3.633600
-8.030000 3.682000
-8.019700 3.776500
-8.009400 3.897800
-7.999100 4.034200
-7.988800 4.183400
-7.978500 4.328500
-7.968100 4.466400
-7.957800 4.605400
-7.947500 4.758800
-7.937200 4.922600
-7.926900 5.120400
-7.916600 5.328100
-7.906200 5.535300
-7.895900 5.789300
-7.885600 6.168800
-7.875300 6.810100
-7.865000 7.563800
-7.854700 8.088000
-7.844300 8.553700
-7.834000 8.971600
-7.823700 9.372000
-7.813400 11.013500
-7.803100 10.818200
-7.792800 9.010100
-7.782400 8.251800
-7.772100 7.821500
-7.761800 7.969100
-7.751500 3.852400
-7.741200 4.014600
-7.730900 4.282000
-7.720600 4.578300
-7.710200 4.823000
-7.699900 4.966600
-7.689600 5.160100
-7.679300 5.353100
-7.669000 5.570800
-7.658700 6.254500
-7.648300 6.631500
-7.638000 6.605900
-7.627700 7.060700
-7.617400 7.725500
-7.607100 13.698700
-7.596800 15.480100
-7.586400 16.898000
-7.576100 17.725700
-7.565800 23.046700
-7.555500 22.048200
-7.545200 18.449100
-7.534900 15.869300
-7.524500 14.988300
-7.514200 13.260500
-7.503900 11.995500
-7.493600 11.807600
-7.483300 10.872000
-7.473000 10.400400
-7.462700 9.780300
-7.452300 7.732500
-7.442000 7.264000
-7.431700 6.550600
-7.421400 5.455100
-7.411100 3.889300
-7.400800 1.456300
-7.390400 0.000000
-7.380100 0.000000
-7.369800 0.000000
-7.359500 0.000000
-7.349200 0.000000
-7.338900 0.000000
-7.328500 0.000000
-7.318200 0.000000
-7.307900 0.000000
-7.297600 0.000000
-7.287300 0.000000
-7.277000 0.000000
-7.266600 0.000000
-7.256300 0.000000
-7.246000 0.000000
-7.235700 0.000000
-7.225400 0.000000
-7.215100 0.000000
-7.204700 0.000000
-7.194400 0.000000
-7.184100 0.000000
-7.173800 0.000000
-7.163500 0.000000
-7.153200 0.000000
-7.142900 0.000000
-7.132500 0.000000
-7.122200 0.000000
-7.111900 0.000000
-7.101600 0.000000
-7.091300 0.000000
-7.081000 0.000000
-7.070600 0.000000
-7.060300 0.000000
-7.050000 0.000000
-7.039700 0.000000
-7.029400 0.000000
-7.019100 0.000000
-7.008700 0.000000
-6.998400 0.000000
-6.988100 0.003000
-6.977800 0.060100
-6.967500 0.190200
-6.957200 0.386600
-6.946800 0.579200
-6.936500 0.752500
-6.926200 0.939500
-6.915900 1.130400
-6.905600 1.255400
-6.895300 1.296800
-6.885000 1.298200
-6.874600 1.312100
-6.864300 1.343400
-6.854000 1.402500
-6.843700 1.475200
-6.833400 1.543600
-6.823100 1.602300
-6.812700 1.646200
-6.802400 1.688700
-6.792100 1.763200
-6.781800 2.337500
-6.771500 2.347900
-6.761200 2.224100
-6.750800 2.062900
-6.740500 2.065300
-6.730200 2.084200
-6.719900 2.070700
-6.709600 2.274300
-6.699300 2.551900
-6.688900 2.821000
-6.678600 2.982000
-6.668300 3.009000
-6.658000 3.055500
-6.647700 3.070300
-6.637400 3.144900
-6.627000 3.223400
-6.616700 3.306400
-6.606400 3.390400
-6.596100 3.468000
-6.585800 3.497600
-6.575500 3.526500
-6.565200 3.590700
-6.554800 3.557900
-6.544500 3.518500
-6.534200 3.488900
-6.523900 3.451300
-6.513600 3.454500
-6.503300 3.473000
-6.492900 3.496500
-6.482600 3.520400
-6.472300 3.536200
-6.462000 3.542500
-6.451700 3.533300
-6.441400 3.519400
-6.431000 3.508300
-6.420700 3.380600
-6.410400 3.438400
-6.400100 3.383300
-6.389800 3.314200
-6.379500 3.360100
-6.369100 3.411100
-6.358800 3.469700
-6.348500 3.538300
-6.338200 3.609500
-6.327900 3.686300
-6.317600 3.832300
-6.307300 3.969100
-6.296900 3.812400
-6.286600 3.831600
-6.276300 3.895400
-6.266000 3.966300
-6.255700 3.933700
-6.245400 4.007400
-6.235000 4.279900
-6.224700 4.517000
-6.214400 4.592600
-6.204100 4.582900
-6.193800 4.587100
-6.183500 4.528700
-6.173100 4.399400
-6.162800 4.243800
-6.152500 4.054900
-6.142200 3.928000
-6.131900 3.857300
-6.121600 3.798600
-6.111200 3.746000
-6.100900 3.697200
-6.090600 3.669600
-6.080300 3.646600
-6.070000 3.638000
-6.059700 3.625600
-6.049400 3.606900
-6.039000 3.587500
-6.028700 3.570700
-6.018400 3.574600
-6.008100 3.590600
-5.997800 3.607900
-5.987500 3.627100
-5.977100 3.655900
-5.966800 3.698700
-5.956500 3.766500
-5.946200 3.820600
-5.935900 3.903200
-5.925600 4.016200
-5.915200 4.126300
-5.904900 4.294600
-5.894600 4.931800
-5.884300 5.416800
-5.874000 5.676000
-5.863700 6.143800
-5.853300 6.393400
-5.843000 5.773700
-5.832700 5.327800
-5.822400 4.515800
-5.812100 4.314400
-5.801800 4.055300
-5.791400 3.695600
-5.781100 3.316200
-5.770800 3.000700
-5.760500 2.725000
-5.750200 2.458500
-5.739900 2.251200
-5.729600 2.126900
-5.719200 2.073500
-5.708900 2.083900
-5.698600 2.182800
-5.688300 2.323500
-5.678000 2.459700
-5.667700 2.516400
-5.657300 2.593100
-5.647000 2.624200
-5.636700 3.052800
-5.626400 3.706800
-5.616100 4.282500
-5.605800 4.829200
-5.595400 5.364900
-5.585100 5.846900
-5.574800 6.059200
-5.564500 6.453500
-5.554200 6.954300
-5.543900 7.517500
-5.533500 7.839200
-5.523200 8.086100
-5.512900 8.220700
-5.502600 8.600000
-5.492300 8.986200
-5.482000 8.806000
-5.471700 9.269500
-5.461300 9.590100
-5.451000 10.012400
-5.440700 10.536900
-5.430400 8.713700
-5.420100 7.905100
-5.409800 7.477700
-5.399400 7.746000
-5.389100 8.299500
-5.378800 8.489900
-5.368500 9.281800
-5.358200 10.179900
-5.347900 11.707800
-5.337500 13.407600
-5.327200 12.937400
-5.316900 12.830800
-5.306600 12.769300
-5.296300 12.931600
-5.286000 12.402000
-5.275600 11.798400
-5.265300 11.756300
-5.255000 9.423600
-5.244700 8.640900
-5.234400 6.516000
-5.224100 5.512300
-5.213800 4.035700
-5.203400 2.662100
-5.193100 2.964200
-5.182800 3.631600
-5.172500 4.327400
-5.162200 5.061300
-5.151900 6.424900
-5.141500 7.522800
-5.131200 8.726400
-5.120900 9.854900
-5.110600 10.626900
-5.100300 11.419400
-5.090000 11.214800
-5.079600 10.598900
-5.069300 10.750300
-5.059000 10.843200
-5.048700 10.189800
-5.038400 8.411300
-5.028100 8.131900
-5.017700 8.086800
-5.007400 8.132000
-4.997100 8.768400
-4.986800 10.319900
-4.976500 12.225000
-4.966200 13.863900
-4.955800 10.346600
-4.945500 8.456100
-4.935200 7.225700
-4.924900 6.839000
-4.914600 6.833900
-4.904300 6.741400
-4.894000 5.667000
-4.883600 5.427200
-4.873300 6.026700
-4.863000 5.685600
-4.852700 6.063000
-4.842400 5.842300
-4.832100 6.068400
-4.821700 7.577100
-4.811400 9.099600
-4.801100 10.895600
-4.790800 10.611100
-4.780500 7.826600
-4.770200 8.034500
-4.759800 8.474800
-4.749500 9.284900
-4.739200 9.677400
-4.728900 9.291000
-4.718600 8.823600
-4.708300 8.764300
-4.697900 8.358400
-4.687600 7.735900
-4.677300 7.351700
-4.667000 7.122200
-4.656700 6.836800
-4.646400 6.435900
-4.636100 6.084500
-4.625700 5.913800
-4.615400 5.737900
-4.605100 5.529700
-4.594800 5.308000
-4.584500 5.124100
-4.574200 4.964200
-4.563800 4.807100
-4.553500 4.665400
-4.543200 4.519400
-4.532900 4.370200
-4.522600 4.247400
-4.512300 4.188400
-4.501900 4.171000
-4.491600 4.097700
-4.481300 3.973900
-4.471000 3.876500
-4.460700 3.823500
-4.450400 3.793500
-4.440000 3.774500
-4.429700 3.754000
-4.419400 3.739100
-4.409100 3.796000
-4.398800 3.894100
-4.388500 4.186800
-4.378100 4.280900
-4.367800 4.289800
-4.357500 4.275000
-4.347200 4.401000
-4.336900 4.084300
-4.326600 3.757400
-4.316300 3.670700
-4.305900 3.672800
-4.295600 3.579600
-4.285300 3.488600
-4.275000 3.399500
-4.264700 3.338800
-4.254400 3.295200
-4.244000 3.263200
-4.233700 3.209400
-4.223400 3.146100
-4.213100 3.087800
-4.202800 3.029600
-4.192500 2.970800
-4.182100 2.923200
-4.171800 2.888600
-4.161500 2.855200
-4.151200 2.866000
-4.140900 2.941600
-4.130600 3.041500
-4.120200 2.951100
-4.109900 2.939100
-4.099600 2.941100
-4.089300 2.940700
-4.079000 2.938200
-4.068700 2.934500
-4.058400 2.927100
-4.048000 2.909400
-4.037700 2.895400
-4.027400 2.893900
-4.017100 2.896600
-4.006800 2.889800
-3.996500 2.874000
-3.986100 2.859500
-3.975800 2.846600
-3.965500 2.820000
-3.955200 2.789800
-3.944900 2.768200
-3.934600 2.735200
-3.924200 2.690800
-3.913900 2.633700
-3.903600 2.578500
-3.893300 2.524800
-3.883000 2.449000
-3.872700 2.360500
-3.862300 2.275000
-3.852000 2.192700
-3.841700 2.114700
-3.831400 2.040200
-3.821100 1.977700
-3.810800 1.922100
-3.800500 1.862000
-3.790100 1.802900
-3.779800 1.744300
-3.769500 1.689600
-3.759200 1.641700
-3.748900 1.597800
-3.738600 1.556200
-3.728200 1.517200
-3.717900 1.482100
-3.707600 1.476400
-3.697300 1.457500
-3.687000 1.422500
-3.676700 1.392800
-3.666300 1.335500
-3.656000 1.264700
-3.645700 1.197100
-3.635400 1.132700
-3.625100 1.072700
-3.614800 1.041700
-3.604400 1.028100
-3.594100 1.016100
-3.583800 1.008000
-3.573500 1.001000
-3.563200 0.993100
-3.552900 0.985500
-3.542500 0.975700
-3.532200 0.979500
-3.521900 0.985800
-3.511600 0.994400
-3.501300 0.995500
-3.491000 0.950400
-3.480700 0.900000
-3.470300 0.844400
-3.460000 0.783600
-3.449700 0.718200
-3.439400 0.650800
-3.429100 0.617500
-3.418800 0.585900
-3.408400 0.558100
-3.398100 0.534900
-3.387800 0.516100
-3.377500 0.502500
-3.367200 0.486000
-3.356900 0.454400
-3.346500 0.407100
-3.336200 0.344300
-3.325900 0.268300
-3.315600 0.192200
-3.305300 0.123400
-3.295000 0.069300
-3.284600 0.030800
-3.274300 0.007600
-3.264000 0.000000
-3.253700 0.000000
-3.243400 0.000000
-3.233100 0.000000
-3.222800 0.000000
-3.212400 0.000000
-3.202100 0.000000
-3.191800 0.000000
-3.181500 0.000000
-3.171200 0.000000
-3.160900 0.000000
-3.150500 0.000000
-3.140200 0.000000
-3.129900 0.000000
-3.119600 0.000000
-3.109300 0.000000
-3.099000 0.000000
-3.088600 0.000000
-3.078300 0.000000
-3.068000 0.000000
-3.057700 0.000000
-3.047400 0.000000
-3.037100 0.000000
-3.026700 0.000000
-3.016400 0.000000
-3.006100 0.000000
-2.995800 0.000000
-2.985500 0.000000
-2.975200 0.000000
-2.964900 0.000000
-2.954500 0.000000
-2.944200 0.000000
-2.933900 0.000000
-2.923600 0.000000
-2.913300 0.000000
-2.903000 0.000000
-2.892600 0.000000
-2.882300 0.000000
-2.872000 0.000000
-2.861700 0.000000
-2.851400 0.000000
-2.841100 0.000000
-2.830700 0.000000
-2.820400 0.000000
-2.810100 0.000000
-2.799800 0.000000
-2.789500 0.000000
-2.779200 0.000000
-2.768800 0.000000
-2.758500 0.000000
-2.748200 0.000000
-2.737900 0.000000
-2.727600 0.000000
-2.717300 0.000000
-2.706900 0.000000
-2.696600 0.000000
-2.686300 0.000000
-2.676000 0.000000
-2.665700 0.000000
-2.655400 0.000000
-2.645100 0.000000
-2.634700 0.000000
-2.624400 0.000000
-2.614100 0.000000
-2.603800 0.000000
-2.593500 0.000000
-2.583200 0.000000
-2.572800 0.000000
-2.562500 0.000000
-2.552200 0.000000
-2.541900 0.000000
-2.531600 0.000000
-2.521300 0.000000
-2.510900 0.000000
-2.500600 0.000000
-2.490300 0.000000
-2.480000 0.000000
-2.469700 0.000000
-2.459400 0.000000
-2.449000 0.000000
-2.438700 0.000000
-2.428400 0.000000
-2.418100 0.000000
-2.407800 0.000000
-2.397500 0.000000
-2.387200 0.000000
-2.376800 0.000000
-2.366500 0.000000
-2.356200 0.000000
-2.345900 0.000000
-2.335600 0.000000
-2.325300 0.000000
-2.314900 0.000000
-2.304600 0.000000
-2.294300 0.000000
-2.284000 0.000000
-2.273700 0.000000
-2.263400 0.000000
-2.253000 0.000000
-2.242700 0.000000
-2.232400 0.000000
-2.222100 0.000000
-2.211800 0.000000
-2.201500 0.000000
-2.191100 0.000000
-2.180800 0.000000
-2.170500 0.000000
-2.160200 0.000000
-2.149900 0.000000
-2.139600 0.000000
-2.129200 0.000000
-2.118900 0.000000
-2.108600 0.000000
-2.098300 0.000000
-2.088000 0.000000
-2.077700 0.000000
-2.067400 0.000000
-2.057000 0.000000
-2.046700 0.000000
-2.036400 0.000000
-2.026100 0.000000
-2.015800 0.000000
-2.005500 0.000000
-1.995100 0.000000
-1.984800 0.000000
-1.974500 0.000000
-1.964200 0.000000
-1.953900 0.000000
-1.943600 0.000000
-1.933200 0.000000
-1.922900 0.000000
-1.912600 0.000000
-1.902300 0.000000
-1.892000 0.000000
-1.881700 0.000000
-1.871300 0.000000
-1.861000 0.000000
-1.850700 0.000000
-1.840400 0.000000
-1.830100 0.000000
-1.819800 0.000000
-1.809500 0.000000
-1.799100 0.000000
-1.788800 0.000000
-1.778500 0.000000
-1.768200 0.000000
-1.757900 0.000000
-1.747600 0.000000
-1.737200 0.000000
-1.726900 0.000000
-1.716600 0.000000
-1.706300 0.000000
-1.696000 0.000000
-1.685700 0.000000
-1.675300 0.000000
-1.665000 0.000000
-1.654700 0.000000
-1.644400 0.000000
-1.634100 0.000000
-1.623800 0.000000
-1.613400 0.000000
-1.603100 0.000000
-1.592800 0.000000
-1.582500 0.000000
-1.572200 0.000000
-1.561900 0.000000
-1.551600 0.000000
-1.541200 0.000000
-1.530900 0.000000
-1.520600 0.000000
-1.510300 0.000000
-1.500000 0.000000
-1.489700 0.000000
-1.479300 0.000000
-1.469000 0.000000
-1.458700 0.000000
-1.448400 0.000000
-1.438100 0.000000
-1.427800 0.000000
-1.417400 0.000000
-1.407100 0.000000
-1.396800 0.000000
-1.386500 0.000000
-1.376200 0.000000
-1.365900 0.000000
-1.355500 0.000000
-1.345200 0.000000
-1.334900 0.000000
-1.324600 0.000000
-1.314300 0.000000
-1.304000 0.000000
-1.293600 0.000000
-1.283300 0.000000
-1.273000 0.000000
-1.262700 0.000000
-1.252400 0.000000
-1.242100 0.000000
-1.231800 0.000000
-1.221400 0.000000
-1.211100 0.000000
-1.200800 0.000000
-1.190500 0.000000
-1.180200 0.000000
-1.169900 0.000000
-1.159500 0.000000
-1.149200 0.000000
-1.138900 0.000000
-1.128600 0.000000
-1.118300 0.000000
-1.108000 0.000000
-1.097600 0.000000
-1.087300 0.000000
-1.077000 0.000000
-1.066700 0.000000
-1.056400 0.000000
-1.046100 0.000000
-1.035700 0.000000
-1.025400 0.000000
-1.015100 0.000000
-1.004800 0.000000
-0.994500 0.000000
-0.984200 0.000000
-0.973900 0.000000
-0.963500 0.000000
-0.953200 0.000000
-0.942900 0.000000
-0.932600 0.000000
-0.922300 0.000000
-0.912000 0.000000
-0.901600 0.000000
-0.891300 0.000000
-0.881000 0.000000
-0.870700 0.000000
-0.860400 0.000000
-0.850100 0.000000
-0.839700 0.000000
-0.829400 0.000000
-0.819100 0.000000
-0.808800 0.000000
-0.798500 0.000000
-0.788200 0.000000
-0.777800 0.000000
-0.767500 0.000000
-0.757200 0.000000
-0.746900 0.000000
-0.736600 0.000000
-0.726300 0.000000
-0.715900 0.000000
-0.705600 0.000000
-0.695300 0.000000
-0.685000 0.000000
-0.674700 0.000000
-0.664400 0.000000
-0.654100 0.000000
-0.643700 0.000000
-0.633400 0.000000
-0.623100 0.000000
-0.612800 0.000000
-0.602500 0.000000
-0.592200 0.000000
-0.581800 0.000000
-0.571500 0.000000
-0.561200 0.000000
-0.550900 0.000000
-0.540600 0.000000
-0.530300 0.000000
-0.519900 0.000000
-0.509600 0.000000
-0.499300 0.000000
-0.489000 0.000000
-0.478700 0.000000
-0.468400 0.000000
-0.458000 0.000000
-0.447700 0.000000
-0.437400 0.000000
-0.427100 0.000000
-0.416800 0.000000
-0.406500 0.000000
-0.396200 0.000000
-0.385800 0.000000
-0.375500 0.000000
-0.365200 0.000000
-0.354900 0.000000
-0.344600 0.000000
-0.334300 0.000000
-0.323900 0.000000
-0.313600 0.000000
-0.303300 0.000000
-0.293000 0.000000
-0.282700 0.000000
-0.272400 0.000000
-0.262000 0.000000
-0.251700 0.000000
-0.241400 0.000000
-0.231100 0.000000
-0.220800 0.000000
-0.210500 0.000000
-0.200100 0.000000
-0.189800 0.000000
-0.179500 0.000000
-0.169200 0.000000
-0.158900 0.000000
-0.148600 0.000000
-0.138300 0.000000
-0.127900 0.000000
-0.117600 0.000000
-0.107300 0.000000
-0.097000 0.000000
-0.086700 0.000000
-0.076400 0.000000
-0.066000 0.000000
-0.055700 0.000000
-0.045400 0.000000
-0.035100 0.000000
-0.024800 0.000000
-0.014500 0.000000
-0.004100 0.005200
0.006200 0.025400
0.016500 0.060800
0.026800 0.110200
0.037100 0.154300
0.047400 0.192000
0.057800 0.241800
0.068100 0.400100
0.078400 0.585800
0.088700 0.746800
0.099000 0.905400
0.109300 1.015900
0.119700 1.086400
0.130000 1.172700
0.140300 1.263600
0.150600 1.405700
0.160900 1.615200
0.171200 1.923000
0.181500 2.261400
0.191900 2.560800
0.202200 2.878000
0.212500 3.123800
0.222800 3.280500
0.233100 3.419700
0.243400 3.567800
0.253800 3.729500
0.264100 3.916500
0.274400 4.141300
0.284700 4.520800
0.295000 4.499100
0.305300 4.555400
0.315700 4.698500
0.326000 4.795000
0.336300 4.915000
0.346600 4.988600
0.356900 4.986800
0.367200 4.939700
0.377600 4.985100
0.387900 5.023100
0.398200 5.009400
0.408500 4.931100
0.418800 4.813200
0.429100 4.729700
0.439400 4.687200
0.449800 4.731900
0.460100 4.860400
0.470400 4.821700
0.480700 4.821700
0.491000 4.841900
0.501300 4.867100
0.511700 4.877300
0.522000 4.902300
0.532300 4.940500
0.542600 4.994200
0.552900 5.043900
0.563200 5.085000
0.573600 5.108400
0.583900 5.122900
0.594200 5.143800
0.604500 5.170200
0.614800 5.334600
0.625100 5.494300
0.635500 5.641700
0.645800 5.563300
0.656100 5.485300
0.666400 5.477000
0.676700 5.478100
0.687000 5.492100
0.697300 5.520100
0.707700 5.548000
0.718000 5.557600
0.728300 5.554300
0.738600 5.550500
0.748900 5.557900
0.759200 5.564500
0.769600 5.563900
0.779900 5.561900
0.790200 5.659800
0.800500 5.741000
0.810800 5.795500
0.821100 5.841500
0.831500 6.426900
0.841800 6.298800
0.852100 6.019300
0.862400 5.938400
0.872700 5.996200
0.883000 6.179700
0.893400 6.382800
0.903700 6.543100
0.914000 6.703300
0.924300 6.817200
0.934600 6.918700
0.944900 7.049000
