set title 'mp-1186427 - Density of States'
set xlabel 'Energy (eV)'
set ylabel 'DOS (states/eV)'
set grid
set xrange [-10:10]
set yrange [0:15.094]
set xzeroaxis lt -1
set terminal png size 800,600
set output 'mp-1186427_dos_gnuplot.png'
plot '-' using 1:2 with lines title 'DOS'
-3.303300 0.000000
-3.287400 0.000000
-3.271500 0.000000
-3.255600 0.000000
-3.239700 0.000000
-3.223800 0.000000
-3.207900 0.000000
-3.192000 0.000000
-3.176100 0.000000
-3.160200 0.000000
-3.144300 0.000000
-3.128400 0.000000
-3.112500 0.000000
-3.096600 0.000000
-3.080700 0.000000
-3.064800 0.000000
-3.048900 0.000000
-3.033000 0.000000
-3.017100 0.000000
-3.001200 0.000000
-2.985200 0.000000
-2.969300 0.000000
-2.953400 0.000000
-2.937500 0.000000
-2.921600 0.000000
-2.905700 0.000000
-2.889800 0.000000
-2.873900 0.000000
-2.858000 0.000000
-2.842100 0.000000
-2.826200 0.000000
-2.810300 0.000000
-2.794400 0.000000
-2.778500 0.000000
-2.762600 0.000000
-2.746700 0.000000
-2.730800 0.000000
-2.714900 0.000000
-2.699000 0.000000
-2.683100 0.000000
-2.667200 0.000000
-2.651200 0.000000
-2.635300 0.000000
-2.619400 0.000000
-2.603500 0.000000
-2.587600 0.000000
-2.571700 0.000000
-2.555800 0.000000
-2.539900 0.000000
-2.524000 0.000000
-2.508100 0.000000
-2.492200 0.000000
-2.476300 0.000000
-2.460400 0.000000
-2.444500 0.000000
-2.428600 0.000000
-2.412700 0.000000
-2.396800 0.000000
-2.380900 0.000000
-2.365000 0.000000
-2.349100 0.000000
-2.333200 0.000000
-2.317200 0.000000
-2.301300 0.000000
-2.285400 0.000000
-2.269500 0.000000
-2.253600 0.000000
-2.237700 0.000000
-2.221800 0.000000
-2.205900 0.000000
-2.190000 0.000000
-2.174100 0.000000
-2.158200 0.000000
-2.142300 0.000000
-2.126400 0.000000
-2.110500 0.000000
-2.094600 0.000000
-2.078700 0.000000
-2.062800 0.000000
-2.046900 0.000000
-2.031000 0.000000
-2.015100 0.000000
-1.999200 0.000000
-1.983200 0.000000
-1.967300 0.000000
-1.951400 0.000000
-1.935500 0.000000
-1.919600 0.000000
-1.903700 0.000000
-1.887800 0.000000
-1.871900 0.000000
-1.856000 0.000000
-1.840100 0.002800
-1.824200 0.010400
-1.808300 0.022700
-1.792400 0.039800
-1.776500 0.061600
-1.760600 0.086800
-1.744700 0.098300
-1.728800 0.107000
-1.712900 0.113100
-1.697000 0.116300
-1.681100 0.116900
-1.665200 0.121900
-1.649200 0.129800
-1.633300 0.137900
-1.617400 0.146100
-1.601500 0.154500
-1.585600 0.163100
-1.569700 0.171800
-1.553800 0.179900
-1.537900 0.187300
-1.522000 0.194100
-1.506100 0.212200
-1.490200 0.229100
-1.474300 0.244000
-1.458400 0.257800
-1.442500 0.270500
-1.426600 0.241900
-1.410700 0.245200
-1.394800 0.248700
-1.378900 0.252100
-1.363000 0.255400
-1.347100 0.258600
-1.331200 0.261700
-1.315300 0.264700
-1.299300 0.267700
-1.283400 0.270500
-1.267500 0.273300
-1.251600 0.275600
-1.235700 0.276200
-1.219800 0.276600
-1.203900 0.276600
-1.188000 0.276900
-1.172100 0.277400
-1.156200 0.279400
-1.140300 0.290600
-1.124400 0.309800
-1.108500 0.330400
-1.092600 0.352500
-1.076700 0.376100
-1.060800 0.361600
-1.044900 0.370500
-1.029000 0.379800
-1.013100 0.389400
-0.997200 0.399300
-0.981300 0.409400
-0.965300 0.450500
-0.949400 0.572400
-0.933500 0.774800
-0.917600 0.970100
-0.901700 1.158500
-0.885800 1.406300
-0.869900 1.687600
-0.854000 1.955500
-0.838100 2.133400
-0.822200 2.375400
-0.806300 2.768100
-0.790400 3.337600
-0.774500 3.947100
-0.758600 4.270000
-0.742700 4.319000
-0.726800 4.350500
-0.710900 4.588400
-0.695000 4.819900
-0.679100 5.050300
-0.663200 5.064600
-0.647300 5.198900
-0.631300 5.356200
-0.615400 5.605700
-0.599500 5.899200
-0.583600 6.196000
-0.567700 6.261100
-0.551800 6.401700
-0.535900 6.602100
-0.520000 6.969900
-0.504100 7.395100
-0.488200 7.749800
-0.472300 8.018600
-0.456400 8.552600
-0.440500 8.571600
-0.424600 8.602400
-0.408700 8.798500
-0.392800 9.410500
-0.376900 9.831700
-0.361000 10.301500
-0.345100 11.136100
-0.329200 11.724800
-0.313300 12.432700
-0.297300 12.817200
-0.281400 13.585300
-0.265500 12.775400
-0.249600 13.721900
-0.233700 12.994700
-0.217800 12.220200
-0.201900 11.181200
-0.186000 11.035900
-0.170100 11.056000
-0.154200 10.918500
-0.138300 11.006400
-0.122400 10.558000
-0.106500 10.492700
-0.090600 10.959200
-0.074700 10.908500
-0.058800 11.357500
-0.042900 10.801300
-0.027000 9.963200
-0.011100 9.655200
0.004800 9.640100
0.020700 9.331100
0.036700 9.604000
0.052600 10.019800
0.068500 9.757800
0.084400 9.612400
0.100300 9.625100
0.116200 9.113900
0.132100 8.840900
0.148000 8.547200
0.163900 8.681300
0.179800 7.912200
0.195700 7.248700
0.211600 5.995000
0.227500 5.862900
0.243400 6.413400
0.259300 7.275400
0.275200 6.984100
0.291100 7.317800
0.307000 7.618000
0.322900 6.942800
0.338800 6.547800
0.354700 6.408500
0.370600 6.320400
0.386600 6.557700
0.402500 7.101800
0.418400 7.406700
0.434300 6.153600
0.450200 6.401500
0.466100 6.344100
0.482000 5.387800
0.497900 4.362400
0.513800 3.867000
0.529700 3.780000
0.545600 3.963000
0.561500 4.419600
0.577400 5.138500
0.593300 6.426300
0.609200 7.873600
0.625100 8.535400
0.641000 7.759800
0.656900 7.227900
0.672800 6.667800
0.688700 6.480600
0.704600 6.495600
0.720600 6.958200
0.736500 7.922800
0.752400 8.622300
0.768300 9.185200
0.784200 9.395200
0.800100 9.578100
0.816000 10.466400
0.831900 11.044200
0.847800 12.703000
0.863700 11.588700
0.879600 10.788800
0.895500 9.729500
0.911400 8.528300
0.927300 8.537500
0.943200 8.477300
0.959100 10.172300
0.975000 10.057600
0.990900 9.880400
1.006800 9.246500
1.022700 9.116900
1.038600 9.158200
1.054600 8.752600
1.070500 7.719200
1.086400 6.726900
1.102300 7.826400
1.118200 7.422800
1.134100 8.104300
1.150000 9.620100
1.165900 8.907200
1.181800 9.894200
1.197700 10.477500
1.213600 10.136300
1.229500 10.065200
1.245400 10.741000
1.261300 11.372700
1.277200 11.239400
1.293100 11.313700
1.309000 10.774900
1.324900 10.985600
1.340800 9.492100
1.356700 7.143000
1.372600 7.002600
1.388600 7.601700
1.404500 9.139100
1.420400 9.659000
1.436300 9.228500
1.452200 9.584600
1.468100 10.532700
1.484000 10.442900
1.499900 10.659700
1.515800 11.456100
1.531700 11.745200
1.547600 11.797100
1.563500 11.043200
1.579400 10.443200
1.595300 11.319200
1.611200 11.562400
1.627100 11.720100
1.643000 10.764600
1.658900 9.953400
1.674800 8.921000
1.690700 8.391600
1.706600 8.459400
1.722600 8.928400
1.738500 9.418300
1.754400 9.230200
1.770300 9.179900
1.786200 9.103500
1.802100 9.208600
1.818000 9.723100
1.833900 8.892500
1.849800 8.318700
1.865700 8.241700
1.881600 7.971000
1.897500 7.483900
1.913400 7.892900
1.929300 8.258900
1.945200 8.091000
1.961100 8.389100
1.977000 8.722600
1.992900 9.253900
2.008800 9.286400
2.024700 9.268400
2.040600 9.521200
2.056500 9.549600
2.072500 9.981300
2.088400 11.010000
2.104300 11.879100
2.120200 12.515000
2.136100 8.740800
2.152000 8.463900
2.167900 8.415400
2.183800 8.935700
2.199700 8.246500
2.215600 8.100100
2.231500 8.098100
2.247400 8.364400
2.263300 8.347800
2.279200 8.126200
2.295100 7.810600
2.311000 7.545300
2.326900 7.408700
2.342800 8.274500
2.358700 7.593900
2.374600 7.917200
2.390500 7.272100
2.406500 6.956500
2.422400 7.002100
2.438300 6.739500
2.454200 6.653900
2.470100 6.292700
2.486000 6.426400
2.501900 6.661100
2.517800 6.969800
2.533700 6.685700
2.549600 6.399000
2.565500 6.557700
2.581400 7.294500
2.597300 7.348000
2.613200 7.266800
2.629100 7.711300
2.645000 8.376600
2.660900 9.373700
2.676800 9.658000
2.692700 9.699300
2.708600 9.402700
2.724500 8.694300
2.740500 9.073200
2.756400 9.040300
2.772300 8.806100
2.788200 8.378000
2.804100 7.987400
2.820000 7.858900
2.835900 7.741500
2.851800 7.629500
2.867700 7.358100
2.883600 7.234400
2.899500 6.918100
2.915400 6.844200
2.931300 6.810600
2.947200 6.856500
2.963100 6.887700
2.979000 6.947000
2.994900 6.896600
3.010800 6.923600
3.026700 7.170300
3.042600 7.601400
3.058500 8.955300
3.074500 8.445700
3.090400 8.292900
3.106300 7.858000
3.122200 7.862600
3.138100 7.386900
3.154000 7.444400
3.169900 7.695900
3.185800 7.956800
3.201700 8.066400
3.217600 8.089700
3.233500 7.987300
3.249400 7.791100
3.265300 7.570300
3.281200 7.554400
3.297100 7.606000
3.313000 7.822700
3.328900 8.649300
3.344800 8.661300
3.360700 8.878300
3.376600 9.173600
3.392500 8.569300
3.408500 8.551800
3.424400 8.631600
3.440300 8.326200
3.456200 9.236300
3.472100 9.796000
3.488000 11.384500
3.503900 11.631700
3.519800 11.204900
3.535700 11.448500
3.551600 12.144400
3.567500 12.505400
3.583400 13.006900
3.599300 12.523800
3.615200 12.037600
3.631100 9.979900
3.647000 9.843100
3.662900 10.049500
3.678800 10.307300
3.694700 10.971200
3.710600 12.441100
3.726500 13.417600
3.742400 12.604800
3.758400 11.853900
3.774300 10.826100
3.790200 9.769500
3.806100 9.043600
3.822000 9.411500
3.837900 10.371700
3.853800 10.120500
3.869700 8.890700
3.885600 6.969300
3.901500 5.606300
3.917400 2.255000
3.933300 1.188800
3.949200 0.936000
3.965100 0.927100
3.981000 0.918800
3.996900 0.910900
4.012800 0.903400
4.028700 0.896800
4.044600 0.892700
4.060500 0.889000
4.076400 0.886200
4.092400 0.883700
4.108300 0.881400
4.124200 0.879300
4.140100 0.876800
4.156000 0.873800
4.171900 0.871000
4.187800 0.868400
4.203700 0.866000
4.219600 0.863700
4.235500 0.861500
4.251400 0.859400
4.267300 0.857400
4.283200 0.855500
4.299100 0.853800
4.315000 0.852500
4.330900 0.851400
4.346800 0.849900
4.362700 0.845100
4.378600 0.839300
4.394500 0.832700
4.410400 0.825500
4.426400 0.817300
4.442300 0.807400
4.458200 0.798400
4.474100 0.787300
4.490000 0.783000
4.505900 0.780400
4.521800 0.781100
4.537700 0.782100
4.553600 0.783300
4.569500 0.784600
4.585400 0.785800
4.601300 0.787200
4.617200 0.788700
4.633100 0.787100
4.649000 0.786900
4.664900 0.786600
4.680800 0.784400
4.696700 0.785500
4.712600 0.786700
4.728500 0.787900
4.744400 0.789100
4.760400 0.790300
4.776300 0.791400
4.792200 0.792500
4.808100 0.793600
4.824000 0.794800
4.839900 0.796000
4.855800 0.797200
4.871700 0.798400
4.887600 0.799700
4.903500 0.801000
4.919400 0.802300
4.935300 0.803700
4.951200 0.801700
4.967100 0.802600
4.983000 0.803500
4.998900 0.804400
5.014800 0.805400
5.030700 0.806300
5.046600 0.807300
5.062500 0.808600
5.078400 0.810100
5.094400 0.811700
5.110300 0.813800
5.126200 0.815900
5.142100 0.817800
5.158000 0.819300
5.173900 0.820800
5.189800 0.822300
5.205700 0.823800
5.221600 0.825300
5.237500 0.828000
5.253400 0.829600
5.269300 0.831200
5.285200 0.832900
5.301100 0.834600
5.317000 0.836200
5.332900 0.837900
5.348800 0.839600
5.364700 0.841300
5.380600 0.842100
5.396500 0.841600
5.412400 0.840500
5.428300 0.838200
5.444300 0.838000
5.460200 0.838500
5.476100 0.839100
5.492000 0.839200
5.507900 0.839000
5.523800 0.838900
5.539700 0.841100
5.555600 0.843300
5.571500 0.845700
5.587400 0.848200
5.603300 0.850700
5.619200 0.853300
5.635100 0.855900
5.651000 0.858500
5.666900 0.861100
5.682800 0.863800
5.698700 0.866600
5.714600 0.868700
5.730500 0.870600
5.746400 0.872000
5.762300 0.874400
5.778300 0.877100
5.794200 0.879900
5.810100 0.882700
5.826000 0.885600
5.841900 0.888600
5.857800 0.892100
5.873700 0.895600
5.889600 0.899200
5.905500 0.902700
5.921400 0.906200
5.937300 0.909600
5.953200 0.912800
5.969100 0.916000
5.985000 0.919200
6.000900 0.922500
6.016800 0.925700
6.032700 0.928900
6.048600 0.932000
6.064500 0.935100
6.080400 0.938300
6.096300 0.941300
6.112300 0.944400
6.128200 0.947400
6.144100 0.950300
6.160000 0.953200
6.175900 0.956000
6.191800 0.958700
6.207700 0.961400
6.223600 0.964000
6.239500 0.966500
6.255400 0.969400
6.271300 0.974800
6.287200 0.981100
6.303100 0.989300
6.319000 0.999600
6.334900 1.011700
6.350800 1.021700
6.366700 1.023600
6.382600 1.025300
6.398500 1.027000
6.414400 1.028600
6.430300 1.029900
6.446300 1.023100
6.462200 1.003400
6.478100 1.006400
6.494000 1.008900
6.509900 1.010700
6.525800 1.011000
6.541700 1.010400
6.557600 1.010100
6.573500 1.010600
6.589400 1.011300
6.605300 1.011900
6.621200 1.012600
6.637100 1.013200
6.653000 1.013800
6.668900 1.014700
6.684800 1.016100
6.700700 1.017500
6.716600 1.019500
6.732500 1.101400
6.748400 1.067200
6.764300 1.035800
6.780300 1.007200
6.796200 0.983200
6.812100 0.983500
6.828000 0.984000
6.843900 0.984600
6.859800 0.985500
6.875700 0.986500
6.891600 0.987900
6.907500 0.989600
6.923400 0.991700
6.939300 0.993400
6.955200 0.995200
6.971100 0.996700
6.987000 0.999100
7.002900 1.081700
7.018800 1.079300
7.034700 1.074700
7.050600 1.068000
7.066500 1.059100
7.082400 1.048100
7.098300 1.034900
7.114200 1.030300
7.130200 1.029000
7.146100 1.027600
7.162000 1.026200
7.177900 1.024900
7.193800 1.023700
7.209700 1.022500
7.225600 1.021300
7.241500 1.027900
7.257400 1.025700
7.273300 1.018100
7.289200 1.010300
7.305100 1.002000
7.321000 0.993200
7.336900 0.983800
7.352800 0.974000
7.368700 0.963700
7.384600 0.952900
7.400500 0.941500
7.416400 0.938200
7.432300 0.937600
7.448200 0.937000
7.464200 0.936500
7.480100 0.936300
7.496000 0.936500
7.511900 0.936700
7.527800 0.936900
7.543700 0.937100
7.559600 0.937300
7.575500 0.937500
7.591400 0.937700
7.607300 0.937800
7.623200 0.938000
7.639100 0.938200
7.655000 0.937000
7.670900 0.931900
7.686800 0.927000
7.702700 0.922600
7.718600 0.921600
7.734500 0.921100
7.750400 0.921500
7.766300 0.922000
7.782200 0.922300
7.798200 0.922500
7.814100 0.922800
7.830000 0.923300
7.845900 0.923700
7.861800 0.912400
7.877700 0.918100
7.893600 0.925900
7.909500 0.933100
7.925400 0.939900
7.941300 0.946100
7.957200 0.951500
7.973100 0.956000
7.989000 0.960600
8.004900 0.964800
8.020800 0.968400
8.036700 0.970300
8.052600 0.971900
8.068500 0.973200
8.084400 0.974700
8.100300 0.961600
8.116200 0.961200
8.132200 0.984300
8.148100 0.960500
8.164000 0.941100
8.179900 0.932200
8.195800 0.931300
8.211700 0.931000
8.227600 0.930800
8.243500 0.930400
8.259400 0.929900
8.275300 0.929400
8.291200 0.929100
8.307100 0.928900
8.323000 0.928800
8.338900 0.929300
8.354800 0.936500
8.370700 0.943600
8.386600 0.949900
8.402500 0.955600
8.418400 0.960600
8.434300 0.965000
8.450200 0.969200
8.466200 0.972700
8.482100 0.975400
8.498000 0.977400
8.513900 0.978500
8.529800 0.979300
8.545700 0.980400
8.561600 0.985800
8.577500 1.009600
8.593400 0.985400
8.609300 0.962000
8.625200 0.939500
8.641100 0.917900
8.657000 0.897100
8.672900 0.877400
8.688800 0.861100
8.704700 0.862300
8.720600 0.863500
8.736500 0.864900
8.752400 0.866200
8.768300 0.867500
8.784200 0.869300
8.800100 0.871500
8.816100 0.874100
8.832000 0.876600
8.847900 0.877900
8.863800 0.879200
8.879700 0.880200
8.895600 0.881300
8.911500 0.882600
8.927400 0.884000
8.943300 0.884800
8.959200 0.886500
8.975100 0.993500
8.991000 0.978500
9.006900 0.957700
9.022800 0.931700
9.038700 0.933900
9.054600 0.936300
9.070500 0.938900
9.086400 0.935100
9.102300 0.928300
9.118200 0.922600
9.134100 0.926100
9.150100 0.942500
9.166000 0.956600
9.181900 0.966700
9.197800 0.972400
9.213700 0.968700
9.229600 0.952300
9.245500 0.932500
9.261400 0.909600
9.277300 0.883900
9.293200 0.867000
9.309100 0.865900
9.325000 0.853100
9.340900 0.854100
9.356800 0.855800
9.372700 0.857700
9.388600 0.860500
9.404500 0.863500
9.420400 0.866800
9.436300 0.870400
9.452200 0.874200
9.468100 0.881500
9.484100 0.889800
9.500000 0.898400
9.515900 0.907100
9.531800 0.916100
9.547700 0.925200
9.563600 0.934600
9.579500 0.944200
9.595400 0.939300
9.611300 0.937900
9.627200 0.919200
9.643100 0.906500
9.659000 0.893300
9.674900 0.879800
9.690800 0.866500
9.706700 0.854800
9.722600 0.852600
9.738500 0.856600
9.754400 0.861200
9.770300 0.866300
9.786200 0.870300
9.802100 0.866900
9.818100 0.863100
9.834000 0.880200
9.849900 0.879900
9.865800 0.879200
9.881700 0.878000
9.897600 0.876400
9.913500 0.874400
9.929400 0.884900
9.945300 0.887800
9.961200 0.876400
9.977100 0.863800
9.993000 0.851400
10.008900 0.839900
10.024800 0.832100
10.040700 0.827500
10.056600 0.822800
10.072500 0.817800
10.088400 0.812700
10.104300 0.807700
10.120200 0.803500
10.136100 0.799400
10.152100 0.795400
10.168000 0.791600
10.183900 0.787400
10.199800 0.782900
10.215700 0.778800
10.231600 0.775400
10.247500 0.772500
10.263400 0.769900
10.279300 0.767200
10.295200 0.764300
10.311100 0.760800
10.327000 0.754400
10.342900 0.746900
10.358800 0.738300
10.374700 0.728600
10.390600 0.717800
10.406500 0.705800
10.422400 0.692900
10.438300 0.682000
10.454200 0.674000
10.470100 0.668800
10.486000 0.665600
10.502000 0.662600
10.517900 0.659800
10.533800 0.657200
10.549700 0.654800
10.565600 0.653100
10.581500 0.651700
10.597400 0.650800
10.613300 0.651300
10.629200 0.652000
10.645100 0.652800
10.661000 0.653700
10.676900 0.655100
10.692800 0.683000
10.708700 0.753300
10.724600 0.855600
10.740500 0.867000
10.756400 0.846200
10.772300 0.819000
10.788200 0.785400
10.804100 0.742800
10.820000 0.728400
10.836000 0.723200
10.851900 0.724700
10.867800 0.743100
10.883700 0.755700
10.899600 0.762700
10.915500 0.770700
10.931400 0.771200
10.947300 0.705200
10.963200 0.662800
10.979100 0.623700
10.995000 0.587800
11.010900 0.555100
11.026800 0.542900
11.042700 0.543600
11.058600 0.717200
11.074500 0.976100
11.090400 0.994100
11.106300 0.635600
11.122200 0.602000
11.138100 0.571200
11.154000 0.543100
11.170000 0.517800
11.185900 0.495400
11.201800 0.476500
11.217700 0.460900
11.233600 0.447500
11.249500 0.436300
11.265400 0.427200
11.281300 0.418800
11.297200 0.411000
11.313100 0.403700
11.329000 0.396900
11.344900 0.390700
11.360800 0.385000
11.376700 0.379200
11.392600 0.373300
11.408500 0.367400
11.424400 0.361300
11.440300 0.355200
11.456200 0.348900
11.472100 0.342600
11.488000 0.336100
11.504000 0.329600
11.519900 0.322900
11.535800 0.316600
11.551700 0.310500
11.567600 0.304500
11.583500 0.298500
11.599400 0.292700
11.615300 0.286900
11.631200 0.281200
11.647100 0.282600
11.663000 0.311300
11.678900 0.329900
11.694800 0.345500
11.710700 0.359300
11.726600 0.368300
11.742500 0.375900
11.758400 0.384900
11.774300 0.394500
11.790200 0.403100
11.806100 0.409300
11.822000 0.415000
11.838000 0.420300
11.853900 0.425500
11.869800 0.431200
11.885700 0.438700
11.901600 0.448100
11.917500 0.459300
11.933400 0.472000
11.949300 0.485100
11.965200 0.499400
11.981100 0.515400
11.997000 0.533200
12.012900 0.552600
12.028800 0.588900
12.044700 0.622300
12.060600 0.643400
12.076500 0.653800
12.092400 0.657800
12.108300 0.641800
12.124200 0.588800
12.140100 0.577100
12.156000 0.582100
12.171900 0.586300
12.187900 0.589200
12.203800 0.592000
12.219700 0.589300
12.235600 0.586300
12.251500 0.583800
12.267400 0.580800
12.283300 0.578300
12.299200 0.577100
12.315100 0.576100
12.331000 0.575500
12.346900 0.587000
12.362800 0.616300
12.378700 0.675500
12.394600 0.877600
12.410500 1.029700
12.426400 1.167200
12.442300 1.287000
12.458200 1.761600
12.474100 1.697300
12.490000 1.674200
12.505900 1.677800
12.521900 1.653100
12.537800 1.755800
12.553700 1.936500
12.569600 2.044300
12.585500 2.150100
12.601400 2.241500
12.617300 2.322000
12.633200 2.336900
12.649100 2.375200
12.665000 2.445300
12.680900 2.388800
12.696800 2.292800
12.712700 2.325300
12.728600 2.043400
12.744500 2.061700
12.760400 2.065700
12.776300 2.061500
12.792200 2.061700
12.808100 2.078500
12.824000 2.103000
12.839900 2.112500
12.855900 2.056300
12.871800 2.004100
12.887700 1.984400
12.903600 1.964400
12.919500 1.943900
12.935400 1.922800
12.951300 1.903700
12.967200 1.912900
12.983100 1.961600
12.999000 1.886000
13.014900 1.942000
13.030800 1.872400
13.046700 1.816100
13.062600 1.763600
13.078500 1.709500
13.094400 1.661200
13.110300 1.617700
13.126200 1.576000
13.142100 1.536200
13.158000 1.498700
13.173900 1.462900
13.189900 1.428000
13.205800 1.394000
13.221700 1.361100
13.237600 1.331100
13.253500 1.302100
13.269400 1.273600
13.285300 1.251100
13.301200 1.231900
13.317100 1.213700
13.333000 1.214800
13.348900 1.215300
13.364800 1.215500
13.380700 1.213500
13.396600 1.210800
13.412500 1.206700
13.428400 1.201500
13.444300 1.196000
13.460200 1.190900
13.476100 1.180500
13.492000 1.177200
13.507900 1.174200
13.523900 1.171600
13.539800 1.177000
13.555700 1.247600
13.571600 1.328000
13.587500 1.312500
13.603400 1.348100
13.619300 1.376200
13.635200 1.396900
13.651100 1.410300
