set title 'mp-2441 - Density of States'
set xlabel 'Energy (eV)'
set ylabel 'DOS (states/eV)'
set grid
set xrange [-10:10]
set yrange [0:918.514]
set xzeroaxis lt -1
set terminal png size 800,600
set output 'mp-2441_dos_gnuplot.png'
plot '-' using 1:2 with lines title 'DOS'
-9.702200 0.000000
-9.690400 0.000000
-9.678600 0.000000
-9.666800 0.000000
-9.655000 0.000000
-9.643200 0.000000
-9.631400 0.000000
-9.619600 0.000000
-9.607900 0.000000
-9.596100 0.000000
-9.584300 0.000000
-9.572500 0.000000
-9.560700 0.000000
-9.548900 0.000000
-9.537100 0.000000
-9.525300 0.000000
-9.513500 0.000000
-9.501700 0.000000
-9.489900 0.000000
-9.478100 0.000000
-9.466300 0.000000
-9.454500 0.000000
-9.442700 0.000000
-9.430900 0.000000
-9.419100 0.000000
-9.407300 0.000000
-9.395500 0.000000
-9.383700 0.000000
-9.371900 0.000000
-9.360100 0.000000
-9.348300 0.000000
-9.336500 0.000000
-9.324700 0.000000
-9.312900 0.000000
-9.301100 0.000000
-9.289300 0.000000
-9.277500 0.000000
-9.265700 0.000000
-9.253900 0.000000
-9.242100 0.000000
-9.230300 0.000000
-9.218500 0.000000
-9.206700 0.000000
-9.194900 0.000000
-9.183100 0.000000
-9.171300 0.000000
-9.159500 0.000000
-9.147700 0.000000
-9.135900 0.000000
-9.124100 0.000000
-9.112300 0.000000
-9.100500 0.000000
-9.088700 0.000000
-9.076900 0.000000
-9.065100 0.000000
-9.053300 0.000000
-9.041500 0.000000
-9.029700 0.000000
-9.017900 0.000000
-9.006100 0.000000
-8.994300 0.000000
-8.982500 0.000000
-8.970700 0.000000
-8.958900 0.000000
-8.947100 0.000000
-8.935300 0.000000
-8.923500 0.000000
-8.911700 0.000000
-8.899900 0.000000
-8.888100 0.000000
-8.876300 0.000000
-8.864500 0.000000
-8.852700 0.000000
-8.840900 0.000000
-8.829100 0.000000
-8.817300 0.000000
-8.805500 0.000000
-8.793700 0.000000
-8.781900 0.000000
-8.770100 0.000000
-8.758300 0.000000
-8.746500 0.000000
-8.734800 0.000000
-8.723000 0.000000
-8.711200 0.000000
-8.699400 0.000000
-8.687600 0.000000
-8.675800 0.000000
-8.664000 0.000000
-8.652200 0.000000
-8.640400 0.000000
-8.628600 0.002900
-8.616800 0.413600
-8.605000 1.519300
-8.593200 3.280300
-8.581400 5.695100
-8.569600 8.046600
-8.557800 9.450400
-8.546000 8.911000
-8.534200 8.557600
-8.522400 8.829800
-8.510600 9.492600
-8.498800 12.461700
-8.487000 14.622700
-8.475200 18.519100
-8.463400 16.487100
-8.451600 15.842100
-8.439800 13.544400
-8.428000 13.580000
-8.416200 14.799500
-8.404400 18.057400
-8.392600 21.944600
-8.380800 33.352600
-8.369000 33.955800
-8.357200 28.939500
-8.345400 28.124400
-8.333600 26.806600
-8.321800 29.479800
-8.310000 23.757800
-8.298200 45.115500
-8.286400 67.045200
-8.274600 69.882800
-8.262800 50.529600
-8.251000 23.818900
-8.239200 11.961000
-8.227400 28.394900
-8.215600 67.764400
-8.203800 67.744600
-8.192000 60.302800
-8.180200 71.541500
-8.168400 95.214900
-8.156600 104.595400
-8.144800 106.793900
-8.133000 221.638500
-8.121200 101.333800
-8.109400 140.288000
-8.097600 116.865300
-8.085800 297.889700
-8.074000 197.476500
-8.062200 123.279600
-8.050400 81.898600
-8.038600 24.637900
-8.026800 0.000000
-8.015000 0.000000
-8.003200 0.000000
-7.991400 0.000000
-7.979600 0.000000
-7.967800 0.000000
-7.956000 0.000000
-7.944200 0.000000
-7.932400 0.000000
-7.920600 0.000000
-7.908800 0.000000
-7.897000 0.000000
-7.885200 0.000000
-7.873400 0.000000
-7.861700 0.000000
-7.849900 0.000000
-7.838100 0.000000
-7.826300 0.000000
-7.814500 0.000000
-7.802700 0.000000
-7.790900 0.000000
-7.779100 0.000000
-7.767300 0.000000
-7.755500 0.000000
-7.743700 0.000000
-7.731900 0.000000
-7.720100 0.000000
-7.708300 0.000000
-7.696500 0.000000
-7.684700 0.000000
-7.672900 0.000000
-7.661100 0.000000
-7.649300 0.000000
-7.637500 0.000000
-7.625700 0.000000
-7.613900 0.000000
-7.602100 0.000000
-7.590300 0.000000
-7.578500 0.000000
-7.566700 0.000000
-7.554900 0.000000
-7.543100 0.000000
-7.531300 0.000000
-7.519500 0.000000
-7.507700 0.000000
-7.495900 0.000000
-7.484100 0.000000
-7.472300 0.000000
-7.460500 0.000000
-7.448700 0.000000
-7.436900 0.000000
-7.425100 0.000000
-7.413300 0.000000
-7.401500 0.000000
-7.389700 0.000000
-7.377900 0.000000
-7.366100 0.000000
-7.354300 0.000000
-7.342500 0.000000
-7.330700 0.000000
-7.318900 0.000000
-7.307100 0.000000
-7.295300 0.000000
-7.283500 0.000000
-7.271700 0.000000
-7.259900 0.000000
-7.248100 0.000000
-7.236300 0.000000
-7.224500 0.000000
-7.212700 0.000000
-7.200900 0.000000
-7.189100 0.000000
-7.177300 0.000000
-7.165500 0.000000
-7.153700 0.000000
-7.141900 0.000000
-7.130100 0.000000
-7.118300 0.000000
-7.106500 0.000000
-7.094700 0.000000
-7.082900 0.000000
-7.071100 0.000000
-7.059300 0.000000
-7.047500 0.000000
-7.035700 0.000000
-7.023900 0.000000
-7.012100 0.000000
-7.000300 0.000000
-6.988500 0.000000
-6.976800 0.000000
-6.965000 0.000000
-6.953200 0.000000
-6.941400 0.000000
-6.929600 0.000000
-6.917800 0.000000
-6.906000 0.000000
-6.894200 0.000000
-6.882400 0.000000
-6.870600 0.000000
-6.858800 0.000000
-6.847000 0.000000
-6.835200 0.000000
-6.823400 0.000000
-6.811600 0.000000
-6.799800 0.000000
-6.788000 0.000000
-6.776200 0.000000
-6.764400 0.000000
-6.752600 0.000000
-6.740800 0.000000
-6.729000 0.000000
-6.717200 0.000000
-6.705400 0.000000
-6.693600 0.000000
-6.681800 0.000000
-6.670000 0.000000
-6.658200 0.000000
-6.646400 0.000000
-6.634600 0.000000
-6.622800 0.000000
-6.611000 0.000000
-6.599200 0.000000
-6.587400 0.000000
-6.575600 0.000000
-6.563800 0.000000
-6.552000 0.000000
-6.540200 0.000000
-6.528400 0.000000
-6.516600 0.000000
-6.504800 0.000000
-6.493000 0.000000
-6.481200 0.000000
-6.469400 0.000000
-6.457600 0.000000
-6.445800 0.000000
-6.434000 0.000000
-6.422200 0.000000
-6.410400 0.000000
-6.398600 0.000000
-6.386800 83.009700
-6.375000 101.179800
-6.363200 149.843600
-6.351400 376.630100
-6.339600 192.555500
-6.327800 264.075700
-6.316000 343.224800
-6.304200 312.069900
-6.292400 347.622400
-6.280600 262.742100
-6.268800 438.508100
-6.257000 281.254000
-6.245200 361.990200
-6.233400 835.013100
-6.221600 324.425500
-6.209800 579.059200
-6.198000 395.318300
-6.186200 309.181700
-6.174400 511.433700
-6.162600 345.427600
-6.150800 404.652700
-6.139000 336.321900
-6.127200 403.311800
-6.115400 326.860500
-6.103700 559.704700
-6.091900 376.934000
-6.080100 552.412000
-6.068300 286.719400
-6.056500 295.783200
-6.044700 434.633500
-6.032900 391.053900
-6.021100 458.266500
-6.009300 326.808400
-5.997500 492.642900
-5.985700 371.205600
-5.973900 451.088000
-5.962100 526.361100
-5.950300 381.025900
-5.938500 523.424600
-5.926700 337.361300
-5.914900 453.873600
-5.903100 223.393300
-5.891300 202.552900
-5.879500 272.072400
-5.867700 338.737400
-5.855900 102.181000
-5.844100 52.085100
-5.832300 71.935900
-5.820500 250.894500
-5.808700 207.251400
-5.796900 212.200200
-5.785100 119.332600
-5.773300 159.460700
-5.761500 130.843500
-5.749700 203.225800
-5.737900 168.260000
-5.726100 194.996400
-5.714300 49.095500
-5.702500 24.818400
-5.690700 29.350200
-5.678900 30.894700
-5.667100 32.847800
-5.655300 30.055400
-5.643500 25.618900
-5.631700 20.844600
-5.619900 19.888800
-5.608100 20.493300
-5.596300 17.672000
-5.584500 14.654700
-5.572700 15.247400
-5.560900 16.695400
-5.549100 21.512300
-5.537300 20.868700
-5.525500 19.582600
-5.513700 20.119800
-5.501900 19.439500
-5.490100 19.922200
-5.478300 20.786100
-5.466500 22.673600
-5.454700 24.952400
-5.442900 24.966800
-5.431100 28.496100
-5.419300 28.815800
-5.407500 31.138600
-5.395700 31.542100
-5.383900 33.280800
-5.372100 46.085600
-5.360300 39.593400
-5.348500 29.156500
-5.336700 21.035500
-5.324900 20.169100
-5.313100 18.870300
-5.301300 17.691200
-5.289500 18.667300
-5.277700 20.665500
-5.265900 29.162700
-5.254100 46.850500
-5.242300 48.214000
-5.230600 58.859300
-5.218800 22.958500
-5.207000 21.315700
-5.195200 25.485900
-5.183400 32.125200
-5.171600 45.375100
-5.159800 28.005600
-5.148000 19.461000
-5.136200 16.955400
-5.124400 19.461600
-5.112600 73.001900
-5.100800 64.596700
-5.089000 51.910900
-5.077200 36.247700
-5.065400 44.944500
-5.053600 56.698600
-5.041800 55.143200
-5.030000 52.819200
-5.018200 49.844600
-5.006400 40.333600
-4.994600 41.336900
-4.982800 62.505300
-4.971000 64.328900
-4.959200 72.863000
-4.947400 76.896800
-4.935600 48.312700
-4.923800 28.408900
-4.912000 17.955600
-4.900200 11.210000
-4.888400 4.571000
-4.876600 1.460300
-4.864800 0.000000
-4.853000 0.000000
-4.841200 0.000000
-4.829400 0.000000
-4.817600 0.000000
-4.805800 0.000000
-4.794000 0.000000
-4.782200 0.000000
-4.770400 0.000000
-4.758600 0.000000
-4.746800 0.000000
-4.735000 0.000000
-4.723200 0.000000
-4.711400 0.000000
-4.699600 0.000000
-4.687800 0.000000
-4.676000 0.000000
-4.664200 0.000000
-4.652400 0.000000
-4.640600 0.000000
-4.628800 0.000000
-4.617000 0.000000
-4.605200 0.000000
-4.593400 0.000000
-4.581600 0.000000
-4.569800 0.000000
-4.558000 0.000000
-4.546200 0.000000
-4.534400 0.000000
-4.522600 0.000000
-4.510800 0.000000
-4.499000 0.000000
-4.487200 0.000000
-4.475400 0.000000
-4.463600 0.000000
-4.451800 0.000000
-4.440000 0.000000
-4.428200 0.000000
-4.416400 0.000000
-4.404600 0.000000
-4.392800 0.000000
-4.381000 0.000000
-4.369200 0.000000
-4.357500 0.000000
-4.345700 0.000000
-4.333900 0.000000
-4.322100 0.000000
-4.310300 0.000000
-4.298500 0.000000
-4.286700 0.000000
-4.274900 0.000000
-4.263100 0.000000
-4.251300 0.000000
-4.239500 0.000000
-4.227700 0.000000
-4.215900 0.000000
-4.204100 0.000000
-4.192300 0.000000
-4.180500 0.000000
-4.168700 0.000000
-4.156900 0.000000
-4.145100 0.000000
-4.133300 0.000000
-4.121500 0.000000
-4.109700 0.000000
-4.097900 0.000000
-4.086100 0.000000
-4.074300 0.000000
-4.062500 0.000000
-4.050700 0.000000
-4.038900 0.000000
-4.027100 0.000000
-4.015300 0.000000
-4.003500 0.000000
-3.991700 0.000000
-3.979900 0.000000
-3.968100 0.000000
-3.956300 0.000000
-3.944500 0.000000
-3.932700 0.000000
-3.920900 0.000000
-3.909100 0.000000
-3.897300 0.000000
-3.885500 0.000000
-3.873700 0.000000
-3.861900 0.000000
-3.850100 0.000000
-3.838300 0.000000
-3.826500 0.000000
-3.814700 0.000000
-3.802900 0.000000
-3.791100 0.000000
-3.779300 0.000000
-3.767500 0.000000
-3.755700 0.000000
-3.743900 0.000000
-3.732100 0.000000
-3.720300 0.000000
-3.708500 0.000000
-3.696700 0.000000
-3.684900 0.000000
-3.673100 0.000000
-3.661300 0.000000
-3.649500 0.000000
-3.637700 0.000000
-3.625900 0.000000
-3.614100 0.000000
-3.602300 0.000000
-3.590500 0.000000
-3.578700 0.000000
-3.566900 0.000000
-3.555100 0.000000
-3.543300 0.000000
-3.531500 0.000000
-3.519700 0.000000
-3.507900 0.000000
-3.496100 0.000000
-3.484400 0.000000
-3.472600 0.000000
-3.460800 0.000000
-3.449000 0.000000
-3.437200 0.000000
-3.425400 0.000000
-3.413600 0.000000
-3.401800 0.000000
-3.390000 0.000000
-3.378200 0.000000
-3.366400 0.000000
-3.354600 0.000000
-3.342800 0.000000
-3.331000 0.000000
-3.319200 0.000000
-3.307400 0.000000
-3.295600 0.000000
-3.283800 0.000000
-3.272000 0.000000
-3.260200 0.000000
-3.248400 0.000000
-3.236600 0.000000
-3.224800 0.000000
-3.213000 0.000000
-3.201200 0.000000
-3.189400 0.000000
-3.177600 0.000000
-3.165800 0.000000
-3.154000 0.000000
-3.142200 0.000000
-3.130400 0.000000
-3.118600 0.000000
-3.106800 0.000000
-3.095000 0.000000
-3.083200 0.000000
-3.071400 0.000000
-3.059600 0.000000
-3.047800 0.000000
-3.036000 0.000000
-3.024200 0.000000
-3.012400 0.000000
-3.000600 0.000000
-2.988800 0.000000
-2.977000 0.000000
-2.965200 0.000000
-2.953400 0.000000
-2.941600 0.000000
-2.929800 0.000000
-2.918000 0.000000
-2.906200 0.000000
-2.894400 0.000000
-2.882600 0.000000
-2.870800 0.000000
-2.859000 0.000000
-2.847200 0.000000
-2.835400 0.000000
-2.823600 0.000000
-2.811800 0.002300
-2.800000 0.021500
-2.788200 0.060200
-2.776400 0.118500
-2.764600 0.196200
-2.752800 0.293500
-2.741000 0.411000
-2.729200 0.556500
-2.717400 0.707600
-2.705600 0.858100
-2.693800 1.035500
-2.682000 1.239900
-2.670200 1.471300
-2.658400 1.729700
-2.646600 2.021500
-2.634800 2.363100
-2.623000 2.755500
-2.611300 4.334700
-2.599500 6.000300
-2.587700 5.786800
-2.575900 5.811100
-2.564100 6.108600
-2.552300 7.139500
-2.540500 8.313000
-2.528700 9.614800
-2.516900 10.360300
-2.505100 9.598700
-2.493300 8.876800
-2.481500 8.802300
-2.469700 9.267500
-2.457900 9.757700
-2.446100 10.245200
-2.434300 10.684600
-2.422500 10.655200
-2.410700 10.959800
-2.398900 11.247500
-2.387100 11.518300
-2.375300 14.109200
-2.363500 14.269100
-2.351700 14.536700
-2.339900 14.834000
-2.328100 10.882400
-2.316300 11.237300
-2.304500 11.577900
-2.292700 11.904500
-2.280900 12.216800
-2.269100 14.555600
-2.257300 15.284400
-2.245500 16.027000
-2.233700 16.783400
-2.221900 20.460600
-2.210100 20.404300
-2.198300 18.951000
-2.186500 20.869400
-2.174700 23.681300
-2.162900 22.160400
-2.151100 21.858800
-2.139300 21.651500
-2.127500 21.790000
-2.115700 22.529400
-2.103900 23.917600
-2.092100 42.468000
-2.080300 25.384700
-2.068500 25.913900
-2.056700 28.326400
-2.044900 28.760200
-2.033100 29.399800
-2.021300 29.297900
-2.009500 29.848400
-1.997700 32.484000
-1.985900 27.279100
-1.974100 25.031700
-1.962300 24.307700
-1.950500 23.325100
-1.938700 22.503300
-1.926900 21.842500
-1.915100 21.346600
-1.903300 20.177900
-1.891500 19.743600
-1.879700 19.003100
-1.867900 19.399100
-1.856100 20.611300
-1.844300 19.979800
-1.832500 19.616200
-1.820700 22.340900
-1.808900 27.009400
-1.797100 26.285200
-1.785300 25.159300
-1.773500 22.605100
-1.761700 19.283600
-1.749900 20.129000
-1.738100 21.389000
-1.726400 24.832700
-1.714600 25.422400
-1.702800 25.560300
-1.691000 23.496500
-1.679200 23.846700
-1.667400 22.883700
-1.655600 22.393000
-1.643800 22.565400
-1.632000 23.103500
-1.620200 23.878100
-1.608400 24.273900
-1.596600 26.132600
-1.584800 24.193700
-1.573000 20.442900
-1.561200 19.724700
-1.549400 19.975700
-1.537600 22.736200
-1.525800 23.982900
-1.514000 23.078000
-1.502200 21.209500
-1.490400 20.897500
-1.478600 20.368500
-1.466800 19.985000
-1.455000 19.926800
-1.443200 21.478300
-1.431400 22.407200
-1.419600 25.712100
-1.407800 20.516900
-1.396000 18.844600
-1.384200 19.108700
-1.372400 19.419900
-1.360600 22.937800
-1.348800 20.837200
-1.337000 17.972900
-1.325200 16.763500
-1.313400 13.832800
-1.301600 13.578000
-1.289800 12.306100
-1.278000 12.125500
-1.266200 11.636300
-1.254400 9.377400
-1.242600 7.431900
-1.230800 5.866200
-1.219000 8.325300
-1.207200 13.280700
-1.195400 13.570600
-1.183600 13.678200
-1.171800 18.289700
-1.160000 18.567800
-1.148200 12.993400
-1.136400 13.026200
-1.124600 12.948900
-1.112800 12.761400
-1.101000 12.457700
-1.089200 12.732000
-1.077400 12.184800
-1.065600 11.670900
-1.053800 12.209000
-1.042000 12.611000
-1.030200 13.186600
-1.018400 13.935900
-1.006600 12.552300
-0.994800 12.502400
-0.983000 13.637200
-0.971200 15.450500
-0.959400 18.690900
-0.947600 22.914800
-0.935800 25.980600
-0.924000 22.678800
-0.912200 20.724600
-0.900400 18.742500
-0.888600 16.827700
-0.876800 15.043300
-0.865000 12.576700
-0.853300 11.097400
-0.841500 12.394300
-0.829700 13.883300
-0.817900 14.305700
-0.806100 14.931700
-0.794300 14.496400
-0.782500 13.174900
-0.770700 15.492000
-0.758900 16.251500
-0.747100 18.476100
-0.735300 17.698500
-0.723500 14.193800
-0.711700 13.222500
-0.699900 12.429400
-0.688100 12.546200
-0.676300 12.672100
-0.664500 14.404200
-0.652700 15.440500
-0.640900 15.961200
-0.629100 15.915100
-0.617300 15.710900
-0.605500 16.800900
-0.593700 16.331400
-0.581900 15.568100
-0.570100 14.978400
-0.558300 14.462700
-0.546500 14.032700
-0.534700 13.165500
-0.522900 13.150000
-0.511100 13.158600
-0.499300 12.665600
-0.487500 13.866500
-0.475700 14.279900
-0.463900 14.740700
-0.452100 15.248700
-0.440300 13.052300
-0.428500 12.032600
-0.416700 11.765100
-0.404900 11.467900
-0.393100 11.140800
-0.381300 13.264000
-0.369500 13.363100
-0.357700 15.156900
-0.345900 13.993200
-0.334100 15.183200
-0.322300 15.538600
-0.310500 16.058100
-0.298700 14.489800
-0.286900 15.014000
-0.275100 15.507500
-0.263300 15.909900
-0.251500 15.464900
-0.239700 15.437600
-0.227900 16.615400
-0.216100 16.944000
-0.204300 17.041100
-0.192500 17.210300
-0.180700 16.933700
-0.168900 16.435300
-0.157100 16.326300
-0.145300 17.050400
-0.133500 16.647200
-0.121700 18.107900
-0.109900 20.052100
-0.098100 21.813600
-0.086300 21.949100
-0.074500 24.543600
-0.062700 21.093200
-0.050900 20.139400
-0.039100 19.879100
-0.027300 20.076700
-0.015500 22.152700
-0.003700 20.990200
0.008100 21.586200
0.019800 22.094200
0.031600 21.711200
0.043400 21.393300
0.055200 21.192500
0.067000 21.477000
0.078800 20.206100
0.090600 21.219600
0.102400 20.739500
0.114200 18.263300
0.126000 12.476000
0.137800 38.008800
0.149600 22.419500
0.161400 24.606200
0.173200 24.729400
0.185000 27.263100
0.196800 29.647500
0.208600 26.942400
0.220400 27.895000
0.232200 31.844400
0.244000 37.251800
0.255800 38.461400
0.267600 34.957000
0.279400 24.874800
0.291200 22.847500
0.303000 24.493400
0.314800 23.531200
0.326600 25.175500
0.338400 25.850500
0.350200 27.097900
0.362000 28.477000
0.373800 27.866400
0.385600 26.429500
0.397400 23.766400
0.409200 28.497300
0.421000 28.618400
0.432800 27.125400
0.444600 27.675500
0.456400 25.689900
0.468200 28.448600
0.480000 33.437800
0.491800 28.292100
0.503600 28.080000
0.515400 28.113000
0.527200 27.558300
0.539000 27.674600
0.550800 22.581800
0.562600 24.039900
0.574400 20.166500
0.586200 20.415700
0.598000 23.105300
0.609800 30.325300
0.621600 31.515300
0.633400 23.047000
0.645200 23.925600
0.657000 17.420600
0.668800 37.456600
0.680600 23.980200
0.692400 17.891800
0.704200 27.428700
0.716000 26.241600
0.727800 24.906200
0.739600 22.818500
0.751400 21.917000
0.763200 21.295200
0.775000 18.133200
0.786800 14.786600
0.798600 25.893600
0.810400 25.970000
0.822200 24.469700
0.834000 28.056900
0.845800 31.444500
0.857600 33.963000
0.869400 31.158600
0.881200 29.081200
0.892900 24.026100
0.904700 21.121100
0.916500 19.909500
0.928300 22.714600
0.940100 23.028700
0.951900 24.563000
0.963700 26.931000
0.975500 32.000500
0.987300 32.441100
0.999100 25.349000
1.010900 29.229800
1.022700 28.324300
1.034500 28.679000
1.046300 24.466400
1.058100 24.575300
1.069900 42.987400
1.081700 26.567600
1.093500 26.416000
1.105300 26.373800
1.117100 25.651200
1.128900 28.687700
1.140700 28.673000
1.152500 33.003500
1.164300 31.062900
1.176100 29.214600
1.187900 29.287300
1.199700 28.596600
1.211500 31.711000
1.223300 37.779400
1.235100 24.153000
1.246900 22.766700
1.258700 22.389100
1.270500 22.167100
1.282300 22.885700
1.294100 22.624100
1.305900 22.606800
1.317700 22.716800
1.329500 22.956300
1.341300 22.359500
1.353100 22.290400
1.364900 23.161000
1.376700 24.023000
1.388500 23.453500
1.400300 23.107600
1.412100 22.569000
1.423900 22.219600
1.435700 22.149100
1.447500 31.478000
1.459300 25.088800
1.471100 25.055300
1.482900 25.892200
1.494700 29.020200
1.506500 31.014300
1.518300 33.220900
1.530100 35.642000
1.541900 32.358600
1.553700 29.885700
1.565500 28.655800
1.577300 26.453300
1.589100 26.356300
1.600900 27.164500
1.612700 25.141500
1.624500 23.382300
1.636300 20.887700
1.648100 19.281500
1.659900 17.602400
1.671700 16.902700
1.683500 15.946800
1.695300 15.731600
1.707100 13.637500
1.718900 13.513100
1.730700 13.869900
1.742500 13.496200
1.754300 13.612200
1.766000 13.649700
1.777800 14.604800
1.789600 16.873300
1.801400 15.280200
1.813200 9.928100
1.825000 8.629000
1.836800 8.369400
1.848600 8.133200
1.860400 7.920500
1.872200 7.731300
1.884000 8.306100
1.895800 8.360600
1.907600 8.460300
1.919400 8.465800
1.931200 8.462900
1.943000 8.468400
1.954800 8.482200
1.966600 8.504200
1.978400 13.394700
1.990200 11.918600
2.002000 12.359500
2.013800 12.945300
2.025600 13.216100
2.037400 11.050100
2.049200 10.485800
2.061000 9.970900
2.072800 9.910300
2.084600 9.829400
2.096400 8.536900
2.108200 8.330900
2.120000 8.122100
2.131800 7.910400
2.143600 7.696000
2.155400 7.351700
2.167200 6.790500
2.179000 6.618100
2.190800 6.789100
2.202600 7.003300
2.214400 7.143700
2.226200 5.911000
2.238000 4.596900
2.249800 3.218300
2.261600 2.460400
2.273400 2.017900
2.285200 1.626800
