set title 'mp-10845 - Density of States'
set xlabel 'Energy (eV)'
set ylabel 'DOS (states/eV)'
set grid
set xrange [-10:10]
set yrange [0:9.661]
set xzeroaxis lt -1
set terminal png size 800,600
set output 'mp-10845_dos_gnuplot.png'
plot '-' using 1:2 with lines title 'DOS'
-7.869200 0.000000
-7.853800 0.000000
-7.838300 0.000000
-7.822900 0.000000
-7.807500 0.000000
-7.792000 0.000000
-7.776600 0.000000
-7.761200 0.000000
-7.745800 0.000000
-7.730300 0.000000
-7.714900 0.000000
-7.699500 0.000000
-7.684000 0.000000
-7.668600 0.000000
-7.653200 0.000000
-7.637800 0.000000
-7.622300 0.000000
-7.606900 0.000000
-7.591500 0.000000
-7.576100 0.000000
-7.560600 0.000000
-7.545200 0.000000
-7.529800 0.000000
-7.514300 0.000000
-7.498900 0.000000
-7.483500 0.000000
-7.468100 0.000000
-7.452600 0.000000
-7.437200 0.000000
-7.421800 0.000000
-7.406300 0.000000
-7.390900 0.000000
-7.375500 0.000000
-7.360100 0.000000
-7.344600 0.000000
-7.329200 0.000000
-7.313800 0.000000
-7.298400 0.000000
-7.282900 0.000000
-7.267500 0.000000
-7.252100 0.000000
-7.236600 0.000000
-7.221200 0.000000
-7.205800 0.000000
-7.190400 0.000000
-7.174900 0.000000
-7.159500 0.000000
-7.144100 0.000000
-7.128600 0.000000
-7.113200 0.000000
-7.097800 0.000000
-7.082400 0.000000
-7.066900 0.000000
-7.051500 0.000000
-7.036100 0.000000
-7.020700 0.000000
-7.005200 0.000000
-6.989800 0.000000
-6.974400 0.000000
-6.958900 0.000000
-6.943500 0.000000
-6.928100 0.000000
-6.912700 0.000000
-6.897200 0.000000
-6.881800 0.000000
-6.866400 0.000000
-6.850900 0.000000
-6.835500 0.000000
-6.820100 0.000000
-6.804700 0.000000
-6.789200 0.000000
-6.773800 0.000000
-6.758400 0.000000
-6.743000 0.000000
-6.727500 0.000000
-6.712100 0.000000
-6.696700 0.000000
-6.681200 0.000000
-6.665800 0.000000
-6.650400 0.000000
-6.635000 0.000000
-6.619500 0.000000
-6.604100 0.000000
-6.588700 0.000000
-6.573200 0.000000
-6.557800 0.000000
-6.542400 0.000000
-6.527000 0.000000
-6.511500 0.000000
-6.496100 0.000000
-6.480700 0.000000
-6.465300 0.000000
-6.449800 0.000000
-6.434400 0.000800
-6.419000 0.015100
-6.403500 0.047200
-6.388100 0.096900
-6.372700 0.151800
-6.357300 0.191300
-6.341800 0.212800
-6.326400 0.219500
-6.311000 0.225700
-6.295600 0.238500
-6.280100 0.257900
-6.264700 0.281000
-6.249300 0.305000
-6.233800 0.329300
-6.218400 0.349700
-6.203000 0.365400
-6.187600 0.376900
-6.172100 0.385800
-6.156700 0.395100
-6.141300 0.405500
-6.125800 0.417800
-6.110400 0.430900
-6.095000 0.444700
-6.079600 0.458500
-6.064100 0.472100
-6.048700 0.486200
-6.033300 0.501100
-6.017900 0.516700
-6.002400 0.533100
-5.987000 0.549600
-5.971600 0.564500
-5.956100 0.577800
-5.940700 0.590100
-5.925300 0.602800
-5.909900 0.616300
-5.894400 0.629500
-5.879000 0.641700
-5.863600 0.653000
-5.848100 0.667100
-5.832700 0.682700
-5.817300 0.699100
-5.801900 0.715400
-5.786400 0.730800
-5.771000 0.746200
-5.755600 0.762600
-5.740200 0.780000
-5.724700 0.797900
-5.709300 0.816300
-5.693900 0.836200
-5.678400 0.858500
-5.663000 0.881900
-5.647600 0.905900
-5.632200 0.930000
-5.616700 0.954600
-5.601300 0.980700
-5.585900 1.007400
-5.570400 1.034500
-5.555000 1.062000
-5.539600 1.089900
-5.524200 1.207600
-5.508700 1.265900
-5.493300 1.295800
-5.477900 1.272600
-5.462500 1.261300
-5.447000 1.270900
-5.431600 1.278800
-5.416200 1.284800
-5.400700 1.288700
-5.385300 1.293100
-5.369900 1.301600
-5.354500 1.313900
-5.339000 1.322800
-5.323600 1.325200
-5.308200 1.322000
-5.292700 1.318000
-5.277300 1.315600
-5.261900 1.319400
-5.246500 1.322400
-5.231000 1.327300
-5.215600 1.334700
-5.200200 1.343200
-5.184800 1.352300
-5.169300 1.361200
-5.153900 1.413400
-5.138500 1.499600
-5.123000 1.537800
-5.107600 1.499800
-5.092200 1.485500
-5.076800 1.494900
-5.061300 1.504300
-5.045900 1.513400
-5.030500 1.511700
-5.015000 1.486900
-4.999600 1.498900
-4.984200 1.498900
-4.968800 1.501800
-4.953300 1.515500
-4.937900 1.545100
-4.922500 1.567400
-4.907100 1.605500
-4.891600 1.627900
-4.876200 1.622400
-4.860800 1.656900
-4.845300 1.647500
-4.829900 1.632100
-4.814500 1.641900
-4.799100 1.676400
-4.783600 1.884900
-4.768200 1.867400
-4.752800 1.827900
-4.737300 1.886600
-4.721900 2.132100
-4.706500 2.204300
-4.691100 2.258400
-4.675600 2.314700
-4.660200 2.360100
-4.644800 1.598500
-4.629400 1.132900
-4.613900 1.037600
-4.598500 0.942300
-4.583100 0.854200
-4.567600 0.763400
-4.552200 0.671900
-4.536800 0.729800
-4.521400 0.555800
-4.505900 0.457000
-4.490500 0.355100
-4.475100 0.245600
-4.459600 0.144200
-4.444200 0.608300
-4.428800 1.374800
-4.413400 1.346800
-4.397900 1.404100
-4.382500 1.564600
-4.367100 1.736000
-4.351700 1.944900
-4.336200 2.265000
-4.320800 2.815900
-4.305400 3.723400
-4.289900 6.599800
-4.274500 7.385500
-4.259100 8.782300
-4.243700 6.510800
-4.228200 6.622900
-4.212800 7.242200
-4.197400 7.194200
-4.181900 7.240400
-4.166500 7.331300
-4.151100 7.266700
-4.135700 7.736400
-4.120200 7.471900
-4.104800 7.178200
-4.089400 6.751500
-4.074000 5.157300
-4.058500 4.499900
-4.043100 0.768700
-4.027700 0.000000
-4.012200 0.000000
-3.996800 0.000000
-3.981400 0.000000
-3.966000 0.000000
-3.950500 0.000000
-3.935100 0.000000
-3.919700 0.000000
-3.904200 0.000000
-3.888800 0.000000
-3.873400 0.000000
-3.858000 0.000000
-3.842500 0.000000
-3.827100 0.000000
-3.811700 0.000000
-3.796300 0.000000
-3.780800 0.000000
-3.765400 0.000000
-3.750000 0.000000
-3.734500 0.000000
-3.719100 0.000000
-3.703700 0.000000
-3.688300 0.000000
-3.672800 0.000000
-3.657400 0.000000
-3.642000 0.000000
-3.626500 0.000000
-3.611100 0.000000
-3.595700 0.000000
-3.580300 0.000000
-3.564800 0.000000
-3.549400 0.000000
-3.534000 0.000000
-3.518600 0.000000
-3.503100 0.000000
-3.487700 0.000000
-3.472300 0.000000
-3.456800 0.000000
-3.441400 0.000000
-3.426000 0.000000
-3.410600 0.000000
-3.395100 0.000000
-3.379700 0.000000
-3.364300 0.000000
-3.348800 0.000000
-3.333400 0.000000
-3.318000 0.000000
-3.302600 0.000000
-3.287100 0.000000
-3.271700 0.000000
-3.256300 0.000000
-3.240900 0.000000
-3.225400 0.000000
-3.210000 0.000000
-3.194600 0.000000
-3.179100 0.000000
-3.163700 0.000000
-3.148300 0.000000
-3.132900 0.000000
-3.117400 0.000000
-3.102000 0.000000
-3.086600 0.000000
-3.071200 0.000000
-3.055700 0.000000
-3.040300 0.000000
-3.024900 0.000000
-3.009400 0.000000
-2.994000 0.000000
-2.978600 0.000000
-2.963200 0.000000
-2.947700 0.000000
-2.932300 0.000000
-2.916900 0.000000
-2.901400 0.000000
-2.886000 0.000000
-2.870600 0.000000
-2.855200 0.000000
-2.839700 0.000000
-2.824300 0.000000
-2.808900 0.000000
-2.793500 0.000000
-2.778000 0.000000
-2.762600 0.000000
-2.747200 0.000000
-2.731700 0.000000
-2.716300 0.000000
-2.700900 0.000000
-2.685500 0.000000
-2.670000 0.000000
-2.654600 0.000000
-2.639200 0.000000
-2.623700 0.000000
-2.608300 0.000000
-2.592900 0.000000
-2.577500 0.000000
-2.562000 0.000000
-2.546600 0.000000
-2.531200 0.000000
-2.515800 0.000000
-2.500300 0.000000
-2.484900 0.000000
-2.469500 0.000000
-2.454000 0.000000
-2.438600 0.000000
-2.423200 0.000000
-2.407800 0.000000
-2.392300 0.000000
-2.376900 0.000000
-2.361500 0.000000
-2.346000 0.000000
-2.330600 0.000000
-2.315200 0.000000
-2.299800 0.000000
-2.284300 0.000000
-2.268900 0.000000
-2.253500 0.000000
-2.238100 0.000000
-2.222600 0.000000
-2.207200 0.000000
-2.191800 0.000000
-2.176300 0.000000
-2.160900 0.000000
-2.145500 0.000000
-2.130100 0.000000
-2.114600 0.000000
-2.099200 0.000000
-2.083800 0.000000
-2.068300 0.000000
-2.052900 0.000000
-2.037500 0.000000
-2.022100 0.000000
-2.006600 0.000000
-1.991200 0.000000
-1.975800 0.000000
-1.960400 0.000000
-1.944900 0.000000
-1.929500 0.000000
-1.914100 0.000000
-1.898600 0.000000
-1.883200 0.000000
-1.867800 0.000000
-1.852400 0.000000
-1.836900 0.000000
-1.821500 0.000000
-1.806100 0.000000
-1.790600 0.000000
-1.775200 0.000000
-1.759800 0.000000
-1.744400 0.000000
-1.728900 0.000000
-1.713500 0.000000
-1.698100 0.000000
-1.682700 0.000000
-1.667200 0.000000
-1.651800 0.000000
-1.636400 0.000000
-1.620900 0.000000
-1.605500 0.000000
-1.590100 0.000000
-1.574700 0.000000
-1.559200 0.000000
-1.543800 0.000000
-1.528400 0.000000
-1.512900 0.000000
-1.497500 0.000000
-1.482100 0.000000
-1.466700 0.000000
-1.451200 0.000000
-1.435800 0.000000
-1.420400 0.000000
-1.405000 0.000000
-1.389500 0.000000
-1.374100 0.000000
-1.358700 0.000000
-1.343200 0.000000
-1.327800 0.000000
-1.312400 0.000000
-1.297000 0.000000
-1.281500 0.000000
-1.266100 0.000000
-1.250700 0.000000
-1.235200 0.000000
-1.219800 0.000000
-1.204400 0.000000
-1.189000 0.000000
-1.173500 0.000000
-1.158100 0.000000
-1.142700 0.000000
-1.127300 0.000000
-1.111800 0.000000
-1.096400 0.000000
-1.081000 0.000000
-1.065500 0.000000
-1.050100 0.000000
-1.034700 0.000000
-1.019300 0.000000
-1.003800 0.000000
-0.988400 0.000000
-0.973000 0.000000
-0.957500 0.000000
-0.942100 0.000000
-0.926700 0.000000
-0.911300 0.000000
-0.895800 0.000000
-0.880400 0.000000
-0.865000 0.000000
-0.849600 0.000000
-0.834100 0.000000
-0.818700 0.000000
-0.803300 0.000000
-0.787800 0.000000
-0.772400 0.000000
-0.757000 0.000000
-0.741600 0.000000
-0.726100 0.000000
-0.710700 0.000000
-0.695300 0.000000
-0.679800 0.000000
-0.664400 0.000000
-0.649000 0.000000
-0.633600 0.000000
-0.618100 0.000000
-0.602700 0.000000
-0.587300 0.000000
-0.571900 0.000000
-0.556400 0.000000
-0.541000 0.000000
-0.525600 0.000000
-0.510100 0.000000
-0.494700 0.000000
-0.479300 0.000000
-0.463900 0.000000
-0.448400 0.000000
-0.433000 0.000000
-0.417600 0.000000
-0.402100 0.000000
-0.386700 0.000000
-0.371300 0.000000
-0.355900 0.000000
-0.340400 0.000000
-0.325000 0.000000
-0.309600 0.000000
-0.294200 0.000000
-0.278700 0.000000
-0.263300 0.000000
-0.247900 0.000000
-0.232400 0.000000
-0.217000 0.000000
-0.201600 0.000000
-0.186200 0.000000
-0.170700 0.000000
-0.155300 0.002200
-0.139900 0.007900
-0.124400 0.016200
-0.109000 0.025800
-0.093600 0.036600
-0.078200 0.048600
-0.062700 0.061800
-0.047300 0.076200
-0.031900 0.091700
-0.016500 0.109300
-0.001000 0.126500
0.014400 0.140000
0.029800 0.148900
0.045300 0.156900
0.060700 0.164000
0.076100 0.170300
0.091500 0.175700
0.107000 0.180300
0.122400 0.185800
0.137800 0.193000
0.153300 0.201900
0.168700 0.211400
0.184100 0.221300
0.199500 0.231500
0.215000 0.242100
0.230400 0.253000
0.245800 0.264000
0.261200 0.274600
0.276700 0.284700
0.292100 0.294600
0.307500 0.305800
0.323000 0.318200
0.338400 0.331900
0.353800 0.346700
0.369200 0.361800
0.384700 0.376500
0.400100 0.390900
0.415500 0.497500
0.430900 0.626700
0.446400 0.747900
0.461800 0.878500
0.477200 0.850800
0.492700 0.918200
0.508100 0.986400
0.523500 1.100200
0.538900 1.175600
0.554400 1.281600
0.569800 1.439100
0.585200 1.576800
0.600700 1.750800
0.616100 1.949300
0.631500 1.920800
0.646900 1.898000
0.662400 1.942700
0.677800 1.995600
0.693200 2.208000
0.708600 2.348900
0.724100 2.515900
0.739500 2.785200
0.754900 3.021400
0.770400 2.962200
0.785800 2.740600
0.801200 2.643200
0.816600 2.408900
0.832100 2.126500
0.847500 1.974700
0.862900 1.850800
0.878400 1.799000
0.893800 1.585400
0.909200 1.532800
0.924600 1.482500
0.940100 1.437200
0.955500 1.398300
0.970900 1.363100
0.986300 1.306100
1.001800 1.272100
1.017200 1.238200
1.032600 1.204500
1.048100 1.185800
1.063500 1.168800
1.078900 1.153800
1.094300 1.140400
1.109800 1.129600
1.125200 1.120900
1.140600 1.115400
1.156100 1.113800
1.171500 1.113600
1.186900 1.113800
1.202300 1.115900
1.217800 1.120600
1.233200 1.126400
1.248600 1.113800
1.264000 1.138700
1.279500 1.259200
1.294900 1.427500
1.310300 1.623000
1.325800 1.904200
1.341200 2.114400
1.356600 2.039900
1.372000 1.790900
1.387500 1.500200
1.402900 1.319100
1.418300 1.335900
1.433800 1.282700
1.449200 1.227600
1.464600 1.170800
1.480000 1.120700
1.495500 1.089600
1.510900 1.057200
1.526300 1.015700
1.541700 0.973000
1.557200 0.966200
1.572600 1.107600
1.588000 1.344800
1.603500 1.748800
1.618900 1.875000
1.634300 1.829900
1.649700 1.943500
1.665200 2.133400
1.680600 2.329700
1.696000 2.559900
1.711500 3.069300
1.726900 3.060900
1.742300 3.153900
1.757700 3.529900
1.773200 3.800700
1.788600 3.613900
1.804000 3.319600
1.819400 3.276800
1.834900 3.182200
1.850300 3.050800
1.865700 2.859600
1.881200 2.916600
1.896600 2.982600
1.912000 3.038000
1.927400 3.165800
1.942900 3.330600
1.958300 3.538000
1.973700 3.587800
1.989200 3.209400
2.004600 3.241200
2.020000 3.528200
2.035400 3.363900
2.050900 3.001400
2.066300 2.847700
2.081700 2.755300
2.097100 2.687700
2.112600 2.686400
2.128000 2.797300
2.143400 3.032900
2.158900 3.019800
2.174300 3.254200
2.189700 3.658400
2.205100 3.913600
2.220600 4.323500
2.236000 4.631900
2.251400 4.642700
2.266900 5.235500
2.282300 8.120800
2.297700 4.577000
2.313100 3.283900
2.328600 2.173600
2.344000 1.939000
2.359400 1.877100
2.374800 1.848800
2.390300 1.852600
2.405700 1.913900
2.421100 1.947700
2.436600 2.052600
2.452000 2.318700
2.467400 3.108400
2.482800 3.451100
2.498300 3.310800
2.513700 3.382700
2.529100 3.417800
2.544600 3.636500
2.560000 3.770900
2.575400 3.920700
2.590800 3.829700
2.606300 3.086800
2.621700 2.747700
2.637100 2.524300
2.652500 2.337200
2.668000 2.182200
2.683400 2.057000
2.698800 1.961700
2.714300 1.887100
2.729700 1.821000
2.745100 1.759400
2.760500 1.703000
2.776000 1.652300
2.791400 1.602500
2.806800 1.585800
2.822300 1.602300
2.837700 1.675900
2.853100 1.797200
2.868500 1.926200
2.884000 2.155000
2.899400 2.844400
2.914800 1.832100
2.930200 1.572600
2.945700 1.571600
2.961100 1.626400
2.976500 1.690300
2.992000 1.763800
3.007400 1.846700
3.022800 1.943400
3.038200 2.073500
3.053700 2.210300
3.069100 2.325400
3.084500 2.425800
3.100000 2.519800
3.115400 2.609400
3.130800 2.969400
3.146200 2.964100
3.161700 3.104200
3.177100 3.175700
3.192500 3.206800
3.207900 3.186600
3.223400 3.218100
3.238800 3.248800
3.254200 3.264000
3.269700 3.284500
3.285100 3.250700
3.300500 3.353600
3.315900 3.329500
3.331400 3.227700
3.346800 3.413800
3.362200 3.866700
3.377700 4.211300
3.393100 4.129700
3.408500 4.138900
3.423900 4.089200
3.439400 3.729400
3.454800 3.757800
3.470200 3.786000
3.485600 3.854800
3.501100 3.905700
3.516500 3.863600
3.531900 3.613800
3.547400 3.172600
3.562800 3.037100
3.578200 3.098600
3.593600 3.318400
3.609100 3.114400
3.624500 3.383900
3.639900 3.517000
3.655300 3.639700
3.670800 3.793300
3.686200 4.075400
3.701600 3.952700
3.717100 3.950100
3.732500 3.982900
3.747900 4.251200
3.763300 4.522400
3.778800 4.131100
3.794200 4.116600
3.809600 4.519000
3.825100 4.333700
3.840500 4.508400
3.855900 4.628900
3.871300 4.624900
3.886800 4.529500
3.902200 4.461900
3.917600 4.381300
3.933000 4.349800
3.948500 4.297700
3.963900 4.225100
3.979300 4.243100
3.994800 4.129300
4.010200 4.022900
4.025600 3.911400
4.041000 4.155000
4.056500 4.136000
4.071900 3.888600
4.087300 3.740500
4.102800 3.441800
4.118200 3.403600
4.133600 3.421300
4.149000 4.085400
4.164500 3.478500
4.179900 3.580600
4.195300 3.945000
4.210700 3.538300
4.226200 3.618900
4.241600 3.680500
4.257000 3.379900
4.272500 3.111300
4.287900 2.831100
4.303300 2.705300
4.318700 2.633300
4.334200 2.612600
4.349600 2.649100
4.365000 2.834400
4.380500 3.044900
4.395900 3.373700
4.411300 3.592200
4.426700 3.692400
4.442200 3.751200
4.457600 3.707200
4.473000 3.748200
4.488400 3.787500
4.503900 3.794500
4.519300 3.787600
4.534700 4.026400
4.550200 4.242500
4.565600 5.209400
4.581000 5.030600
4.596400 5.470100
4.611900 5.316300
4.627300 6.637300
4.642700 8.006300
4.658200 5.112500
4.673600 4.739400
4.689000 4.411300
4.704400 4.262100
4.719900 4.047600
4.735300 3.705500
4.750700 3.251400
4.766100 2.928300
4.781600 2.646300
4.797000 2.456300
4.812400 2.221100
4.827900 2.052900
4.843300 1.969400
4.858700 2.006800
4.874100 2.044400
4.889600 2.082000
4.905000 2.159700
4.920400 2.289200
4.935900 2.245500
4.951300 2.290700
4.966700 2.313200
4.982100 2.318600
4.997600 2.265100
5.013000 2.180300
5.028400 2.126100
5.043800 2.092100
5.059300 2.075900
5.074700 2.064200
5.090100 2.057700
5.105600 2.047800
5.121000 2.036800
5.136400 2.024900
5.151800 2.006800
5.167300 2.000400
5.182700 1.990300
5.198100 1.970100
5.213600 1.966100
5.229000 1.825100
5.244400 1.713400
5.259800 1.632000
5.275300 1.604500
5.290700 1.573900
5.306100 1.534700
5.321500 1.477100
5.337000 1.437900
5.352400 1.396300
5.367800 1.339800
5.383300 1.288800
5.398700 1.242300
5.414100 1.199500
5.429500 1.160200
5.445000 1.117300
5.460400 1.075100
5.475800 1.037800
5.491300 1.011400
5.506700 0.998200
5.522100 0.992000
5.537500 0.982500
5.553000 0.961000
5.568400 0.943400
5.583800 0.931000
5.599200 0.953800
5.614700 0.933000
5.630100 0.874900
5.645500 0.819500
5.661000 0.796500
5.676400 0.811800
5.691800 1.223800
5.707200 1.591200
5.722700 1.728500
5.738100 1.828600
5.753500 1.880600
5.769000 1.951100
5.784400 1.741900
5.799800 1.637000
5.815200 1.582900
5.830700 1.563700
5.846100 1.550800
5.861500 1.540700
5.876900 1.532400
5.892400 1.526000
5.907800 1.532200
5.923200 1.584300
5.938700 1.624700
5.954100 1.618900
5.969500 1.617400
5.984900 1.732800
6.000400 2.009900
6.015800 2.486700
6.031200 3.237900
6.046700 3.512600
6.062100 3.706900
6.077500 3.854700
6.092900 3.840600
6.108400 3.988000
6.123800 4.297700
6.139200 5.517000
6.154600 4.724300
6.170100 5.138900
6.185500 4.543600
6.200900 4.176300
6.216400 3.759200
6.231800 3.516200
6.247200 3.352900
6.262600 3.179400
6.278100 3.003100
6.293500 2.793800
6.308900 2.615500
6.324400 2.452100
6.339800 2.223800
6.355200 2.083700
6.370600 1.944700
6.386100 1.839000
6.401500 1.766700
6.416900 1.717800
6.432300 1.743100
6.447800 1.840800
6.463200 1.724400
6.478600 1.744600
6.494100 1.703200
6.509500 1.677400
6.524900 1.499400
6.540300 1.356000
6.555800 1.386700
6.571200 1.277500
6.586600 1.215400
6.602100 1.194400
6.617500 1.199800
6.632900 1.223200
6.648300 1.258600
6.663800 1.306200
6.679200 1.365900
6.694600 1.444700
6.710000 1.681800
6.725500 1.855200
6.740900 2.041200
6.756300 2.238500
6.771800 2.450600
6.787200 2.671500
6.802600 2.915300
6.818000 3.158400
6.833500 3.170900
6.848900 3.141600
6.864300 3.329500
6.879700 3.915500
6.895200 4.407700
6.910600 4.854400
6.926000 5.177400
6.941500 5.140400
6.956900 4.957000
6.972300 5.003500
6.987700 4.433200
7.003200 3.997600
7.018600 3.489800
7.034000 3.594200
7.049500 3.843500
7.064900 3.947400
7.080300 4.188100
7.095700 3.585200
7.111200 3.545700
7.126600 3.499200
7.142000 3.487300
7.157400 4.622700
7.172900 3.851300
7.188300 3.134800
7.203700 2.899000
7.219200 2.644600
7.234600 2.472500
7.250000 2.396400
7.265400 2.344600
7.280900 2.259900
7.296300 2.171700
7.311700 2.098400
7.327200 2.070900
7.342600 2.066200
7.358000 2.054700
7.373400 2.023300
7.388900 1.858000
7.404300 1.567300
7.419700 1.362100
7.435100 1.231400
7.450600 1.128600
7.466000 1.067100
7.481400 1.027400
7.496900 0.994700
7.512300 0.970100
7.527700 0.951900
7.543100 0.946100
7.558600 0.953400
7.574000 0.982400
7.589400 1.026200
7.604900 1.066000
7.620300 1.102100
7.635700 1.131000
7.651100 1.153300
7.666600 1.182100
7.682000 1.202000
7.697400 1.219900
7.712800 1.235900
7.728300 1.251300
7.743700 1.270000
7.759100 1.290700
7.774600 1.311300
7.790000 1.326300
7.805400 1.323900
7.820800 1.312200
7.836300 1.299200
7.851700 1.288100
7.867100 1.289000
7.882600 1.297300
7.898000 1.309100
7.913400 1.320300
7.928800 1.330400
7.944300 1.340800
7.959700 1.352100
7.975100 1.363800
7.990500 1.376800
8.006000 1.379900
8.021400 1.373700
8.036800 1.356600
8.052300 1.316900
8.067700 1.289900
8.083100 1.279300
8.098500 1.271900
8.114000 1.263700
8.129400 1.255100
8.144800 1.246000
8.160300 1.236700
8.175700 1.227900
8.191100 1.222200
8.206500 1.218900
8.222000 1.236900
8.237400 1.187700
8.252800 1.137000
8.268200 1.087200
8.283700 1.038300
8.299100 0.985700
8.314500 0.923700
8.330000 0.864100
8.345400 0.814000
8.360800 0.778900
8.376200 0.754000
8.391700 0.729900
8.407100 0.712800
8.422500 0.703300
8.438000 0.697900
8.453400 0.696500
8.468800 0.700300
8.484200 0.709100
8.499700 0.721900
8.515100 0.739800
8.530500 0.761400
8.545900 0.786600
8.561400 0.815800
8.576800 0.756400
