set title 'mp-556392 - Density of States'
set xlabel 'Energy (eV)'
set ylabel 'DOS (states/eV)'
set grid
set xrange [-10:10]
set yrange [0:587.688]
set xzeroaxis lt -1
set terminal png size 800,600
set output 'mp-556392_dos_gnuplot.png'
plot '-' using 1:2 with lines title 'DOS'
-12.329400 0.000000
-12.315700 0.000000
-12.302100 0.000000
-12.288400 0.000000
-12.274800 0.000000
-12.261100 0.000000
-12.247500 0.000000
-12.233800 0.000000
-12.220200 0.000000
-12.206500 0.000000
-12.192900 0.000000
-12.179300 0.000000
-12.165600 0.000000
-12.152000 0.000000
-12.138300 0.000000
-12.124700 0.000000
-12.111000 0.000000
-12.097400 0.000000
-12.083700 0.000000
-12.070100 0.000000
-12.056400 0.000000
-12.042800 0.000000
-12.029100 0.000000
-12.015500 0.000000
-12.001900 0.000000
-11.988200 0.000000
-11.974600 0.000000
-11.960900 0.000000
-11.947300 0.000000
-11.933600 0.000000
-11.920000 0.000000
-11.906300 0.000000
-11.892700 0.000000
-11.879000 0.000000
-11.865400 0.000000
-11.851700 0.000000
-11.838100 0.000000
-11.824400 0.000000
-11.810800 0.000000
-11.797200 0.000000
-11.783500 0.000000
-11.769900 0.000000
-11.756200 0.000000
-11.742600 0.000000
-11.728900 0.000000
-11.715300 0.000000
-11.701600 0.000000
-11.688000 0.000000
-11.674300 0.000000
-11.660700 0.000000
-11.647000 0.000000
-11.633400 0.000000
-11.619800 0.000000
-11.606100 0.000000
-11.592500 0.000000
-11.578800 0.000000
-11.565200 0.000000
-11.551500 0.000000
-11.537900 0.000000
-11.524200 0.000000
-11.510600 0.000000
-11.496900 0.000000
-11.483300 0.000000
-11.469600 0.000000
-11.456000 0.000000
-11.442400 0.000000
-11.428700 0.000000
-11.415100 0.000000
-11.401400 0.000000
-11.387800 0.000000
-11.374100 0.000000
-11.360500 0.000000
-11.346800 0.000000
-11.333200 0.000000
-11.319500 0.000000
-11.305900 0.000000
-11.292200 0.000000
-11.278600 0.000000
-11.264900 0.000000
-11.251300 0.000000
-11.237700 0.000000
-11.224000 0.000000
-11.210400 0.000000
-11.196700 0.000000
-11.183100 0.000000
-11.169400 0.000000
-11.155800 0.000000
-11.142100 0.000000
-11.128500 0.000000
-11.114800 0.000000
-11.101200 0.000000
-11.087500 0.018200
-11.073900 0.218900
-11.060300 0.419600
-11.046600 0.755100
-11.033000 1.369500
-11.019300 1.983800
-11.005700 2.598200
-10.992000 3.212600
-10.978400 3.827000
-10.964700 4.441300
-10.951100 4.105000
-10.937400 4.756400
-10.923800 4.781500
-10.910100 4.479500
-10.896500 5.010800
-10.882900 5.542200
-10.869200 6.073500
-10.855600 6.604800
-10.841900 7.136100
-10.828300 7.667400
-10.814600 6.209400
-10.801000 6.344500
-10.787300 6.479600
-10.773700 6.897300
-10.760000 7.569300
-10.746400 8.241200
-10.732700 8.913100
-10.719100 9.578600
-10.705500 10.241000
-10.691800 10.897600
-10.678200 11.543700
-10.664500 10.163300
-10.650900 10.346200
-10.637200 10.529100
-10.623600 10.716500
-10.609900 10.912000
-10.596300 11.107400
-10.582600 11.550800
-10.569000 12.446800
-10.555300 13.342800
-10.541700 14.238800
-10.528000 15.134800
-10.514400 16.035000
-10.500800 16.952100
-10.487100 16.791200
-10.473500 16.134600
-10.459800 16.494300
-10.446200 16.854200
-10.432500 17.214100
-10.418900 17.574000
-10.405200 17.933900
-10.391600 18.802500
-10.377900 20.091500
-10.364300 21.732200
-10.350600 23.729000
-10.337000 25.530500
-10.323400 27.332100
-10.309700 26.754600
-10.296100 27.894400
-10.282400 30.042800
-10.268800 33.181500
-10.255100 38.199900
-10.241500 39.130900
-10.227800 40.060300
-10.214200 40.989700
-10.200500 46.805500
-10.186900 47.554000
-10.173200 44.993200
-10.159600 45.074700
-10.146000 46.329000
-10.132300 52.682100
-10.118700 52.453900
-10.105000 49.304600
-10.091400 45.533400
-10.077700 48.554300
-10.064100 41.157200
-10.050400 53.193800
-10.036800 52.511500
-10.023100 36.848600
-10.009500 38.574100
-9.995800 61.126600
-9.982200 69.448000
-9.968600 49.321300
-9.954900 51.938900
-9.941300 70.697800
-9.927600 69.346100
-9.914000 67.257100
-9.900300 0.000000
-9.886700 0.000000
-9.873000 0.000000
-9.859400 0.000000
-9.845700 0.000000
-9.832100 0.000000
-9.818400 0.000000
-9.804800 0.000000
-9.791100 0.000000
-9.777500 0.000000
-9.763900 0.000000
-9.750200 0.000000
-9.736600 0.000000
-9.722900 0.000000
-9.709300 0.000000
-9.695600 0.000000
-9.682000 0.000000
-9.668300 0.000000
-9.654700 0.000000
-9.641000 0.000000
-9.627400 0.000000
-9.613700 0.000000
-9.600100 0.000000
-9.586500 0.000000
-9.572800 0.000000
-9.559200 0.000000
-9.545500 0.000000
-9.531900 0.000000
-9.518200 0.000000
-9.504600 0.000000
-9.490900 0.000000
-9.477300 0.000000
-9.463600 0.000000
-9.450000 0.000000
-9.436300 0.000000
-9.422700 0.000000
-9.409100 0.000000
-9.395400 0.000000
-9.381800 0.000000
-9.368100 0.000000
-9.354500 0.000000
-9.340800 0.000000
-9.327200 0.000000
-9.313500 0.000000
-9.299900 0.000000
-9.286200 0.000000
-9.272600 0.000000
-9.258900 0.000000
-9.245300 0.000000
-9.231700 0.000000
-9.218000 0.000000
-9.204400 0.000000
-9.190700 0.000000
-9.177100 0.000000
-9.163400 0.000000
-9.149800 0.000000
-9.136100 0.000000
-9.122500 0.000000
-9.108800 0.000000
-9.095200 0.000000
-9.081500 0.000000
-9.067900 0.000000
-9.054200 0.000000
-9.040600 0.000000
-9.027000 0.000000
-9.013300 0.000000
-8.999700 0.000000
-8.986000 0.000000
-8.972400 0.000000
-8.958700 0.000000
-8.945100 0.000000
-8.931400 0.000000
-8.917800 0.000000
-8.904100 0.000000
-8.890500 0.000000
-8.876800 0.000000
-8.863200 0.000000
-8.849600 0.000000
-8.835900 0.000000
-8.822300 0.000000
-8.808600 0.000000
-8.795000 0.000000
-8.781300 0.000000
-8.767700 0.000000
-8.754000 0.000000
-8.740400 0.000000
-8.726700 0.000000
-8.713100 0.000000
-8.699400 0.000000
-8.685800 0.000000
-8.672200 0.000000
-8.658500 0.000000
-8.644900 0.000000
-8.631200 0.000000
-8.617600 0.000000
-8.603900 0.000000
-8.590300 0.000000
-8.576600 0.000000
-8.563000 0.000000
-8.549300 0.000000
-8.535700 0.000000
-8.522000 0.000000
-8.508400 0.000000
-8.494800 0.000000
-8.481100 0.000000
-8.467500 0.000000
-8.453800 0.000000
-8.440200 0.000000
-8.426500 0.000000
-8.412900 0.000000
-8.399200 0.000000
-8.385600 0.000000
-8.371900 0.000000
-8.358300 0.000000
-8.344600 0.000000
-8.331000 0.000000
-8.317300 0.000000
-8.303700 0.000000
-8.290100 0.000000
-8.276400 0.000000
-8.262800 0.000000
-8.249100 0.000000
-8.235500 0.000000
-8.221800 0.000000
-8.208200 0.000000
-8.194500 0.000000
-8.180900 0.000000
-8.167200 0.000000
-8.153600 0.000000
-8.139900 0.000000
-8.126300 0.000000
-8.112700 0.000000
-8.099000 0.000000
-8.085400 0.000000
-8.071700 0.000000
-8.058100 0.000000
-8.044400 0.000000
-8.030800 0.000000
-8.017100 0.000000
-8.003500 0.000000
-7.989800 0.000000
-7.976200 0.000000
-7.962500 0.000000
-7.948900 0.000000
-7.935300 0.000000
-7.921600 0.000000
-7.908000 0.000000
-7.894300 0.000000
-7.880700 0.000000
-7.867000 0.000000
-7.853400 0.000000
-7.839700 0.000000
-7.826100 0.000000
-7.812400 0.000000
-7.798800 0.000000
-7.785100 0.000000
-7.771500 0.000000
-7.757900 0.000000
-7.744200 0.000000
-7.730600 0.000000
-7.716900 0.000000
-7.703300 0.000000
-7.689600 0.000000
-7.676000 0.000000
-7.662300 0.000000
-7.648700 0.000000
-7.635000 0.000000
-7.621400 0.000000
-7.607700 0.000000
-7.594100 0.000000
-7.580400 0.000000
-7.566800 0.000000
-7.553200 0.000000
-7.539500 0.000000
-7.525900 0.000000
-7.512200 0.000000
-7.498600 0.000000
-7.484900 0.000000
-7.471300 0.000000
-7.457600 0.000000
-7.444000 0.000000
-7.430300 0.000000
-7.416700 0.000000
-7.403000 0.000000
-7.389400 0.000000
-7.375800 0.000000
-7.362100 0.000000
-7.348500 0.000000
-7.334800 0.000000
-7.321200 0.000000
-7.307500 0.000000
-7.293900 0.000000
-7.280200 0.000000
-7.266600 0.000000
-7.252900 0.000000
-7.239300 0.000000
-7.225600 0.000000
-7.212000 0.000000
-7.198400 0.000000
-7.184700 0.000000
-7.171100 0.000000
-7.157400 0.000000
-7.143800 0.000000
-7.130100 0.000000
-7.116500 0.000000
-7.102800 0.000000
-7.089200 0.000000
-7.075500 0.000000
-7.061900 0.000000
-7.048200 0.000000
-7.034600 0.000000
-7.021000 0.000000
-7.007300 0.000000
-6.993700 0.000000
-6.980000 0.000000
-6.966400 0.000000
-6.952700 0.000000
-6.939100 0.000000
-6.925400 0.000000
-6.911800 0.000000
-6.898100 0.000000
-6.884500 0.000000
-6.870800 0.000000
-6.857200 0.000000
-6.843500 0.000000
-6.829900 0.000000
-6.816300 0.000000
-6.802600 0.000000
-6.789000 0.000000
-6.775300 0.000000
-6.761700 0.000000
-6.748000 0.000000
-6.734400 0.000000
-6.720700 0.000000
-6.707100 0.000000
-6.693400 0.000000
-6.679800 0.000000
-6.666100 0.000000
-6.652500 0.000000
-6.638900 0.000000
-6.625200 0.000000
-6.611600 0.000000
-6.597900 0.000000
-6.584300 0.000000
-6.570600 0.000000
-6.557000 0.000000
-6.543300 0.000000
-6.529700 0.000000
-6.516000 0.000000
-6.502400 0.000000
-6.488700 0.000000
-6.475100 0.000000
-6.461500 0.000000
-6.447800 0.000000
-6.434200 0.000000
-6.420500 0.000000
-6.406900 0.000000
-6.393200 0.000000
-6.379600 0.000000
-6.365900 0.000000
-6.352300 0.000000
-6.338600 0.000000
-6.325000 0.000000
-6.311300 0.000000
-6.297700 0.000000
-6.284100 0.000000
-6.270400 0.000000
-6.256800 0.000000
-6.243100 0.000000
-6.229500 0.000000
-6.215800 0.000000
-6.202200 0.000000
-6.188500 0.000000
-6.174900 0.000000
-6.161200 0.000000
-6.147600 0.000000
-6.133900 0.000000
-6.120300 0.000000
-6.106600 0.000000
-6.093000 0.000000
-6.079400 0.000000
-6.065700 0.000000
-6.052100 0.000000
-6.038400 0.000000
-6.024800 0.000000
-6.011100 0.000000
-5.997500 0.000000
-5.983800 0.000000
-5.970200 0.000000
-5.956500 0.000000
-5.942900 0.000000
-5.929200 0.000000
-5.915600 0.000000
-5.902000 0.000000
-5.888300 0.000000
-5.874700 0.000000
-5.861000 0.000000
-5.847400 0.000000
-5.833700 0.000000
-5.820100 0.000000
-5.806400 0.000000
-5.792800 0.000000
-5.779100 0.000000
-5.765500 0.000000
-5.751800 0.000000
-5.738200 0.000000
-5.724600 0.000000
-5.710900 0.000000
-5.697300 0.000000
-5.683600 0.000000
-5.670000 0.000000
-5.656300 0.000000
-5.642700 0.000000
-5.629000 0.000000
-5.615400 0.000000
-5.601700 0.000000
-5.588100 0.000000
-5.574400 0.000000
-5.560800 0.000000
-5.547200 0.000000
-5.533500 0.000000
-5.519900 0.000000
-5.506200 0.000000
-5.492600 0.000000
-5.478900 0.000000
-5.465300 0.000000
-5.451600 0.000000
-5.438000 0.000000
-5.424300 0.000000
-5.410700 0.000000
-5.397000 0.000000
-5.383400 0.000000
-5.369700 0.000000
-5.356100 0.000000
-5.342500 0.000000
-5.328800 0.000000
-5.315200 0.000000
-5.301500 0.000000
-5.287900 0.000000
-5.274200 0.000000
-5.260600 0.000000
-5.246900 0.000000
-5.233300 0.000000
-5.219600 0.000000
-5.206000 0.000000
-5.192300 0.000000
-5.178700 0.000000
-5.165100 0.000000
-5.151400 0.000000
-5.137800 0.000000
-5.124100 0.000000
-5.110500 0.000000
-5.096800 0.000000
-5.083200 0.000000
-5.069500 0.000000
-5.055900 0.000000
-5.042200 0.000000
-5.028600 0.000000
-5.014900 0.000000
-5.001300 0.000000
-4.987700 0.000000
-4.974000 0.000000
-4.960400 0.000000
-4.946700 0.000000
-4.933100 0.000000
-4.919400 0.000000
-4.905800 0.000000
-4.892100 0.000000
-4.878500 0.000000
-4.864800 0.000000
-4.851200 0.000000
-4.837500 0.000000
-4.823900 0.000000
-4.810200 0.000000
-4.796600 0.000000
-4.783000 0.000000
-4.769300 0.000000
-4.755700 0.000000
-4.742000 0.000000
-4.728400 0.000000
-4.714700 0.000000
-4.701100 0.000000
-4.687400 0.000000
-4.673800 0.000000
-4.660100 0.000000
-4.646500 0.000000
-4.632800 0.000000
-4.619200 0.000000
-4.605600 0.000000
-4.591900 0.000000
-4.578300 0.000000
-4.564600 0.000000
-4.551000 0.000000
-4.537300 0.000000
-4.523700 0.000000
-4.510000 0.000000
-4.496400 0.000000
-4.482700 0.000000
-4.469100 0.000000
-4.455400 0.000000
-4.441800 0.000000
-4.428200 0.000000
-4.414500 0.000000
-4.400900 64.823200
-4.387200 116.020800
-4.373600 165.961100
-4.359900 177.939800
-4.346300 191.435800
-4.332600 210.198900
-4.319000 238.058900
-4.305300 282.954600
-4.291700 332.517700
-4.278000 483.935700
-4.264400 382.446600
-4.250800 293.203600
-4.237100 266.777000
-4.223500 208.062100
-4.209800 198.611400
-4.196200 190.570400
-4.182500 148.102400
-4.168900 172.926400
-4.155200 166.762200
-4.141600 153.358400
-4.127900 159.195600
-4.114300 150.738900
-4.100600 121.922100
-4.087000 137.226500
-4.073300 125.543400
-4.059700 112.213500
-4.046100 99.585700
-4.032400 81.765200
-4.018800 60.070200
-4.005100 223.074200
-3.991500 81.871600
-3.977800 54.114600
-3.964200 99.147400
-3.950500 391.581900
-3.936900 378.199700
-3.923200 333.859800
-3.909600 430.333100
-3.895900 534.262200
-3.882300 507.638500
-3.868700 261.076400
-3.855000 109.331700
-3.841400 94.579500
-3.827700 83.957800
-3.814100 80.463800
-3.800400 79.704700
-3.786800 73.365800
-3.773100 74.664000
-3.759500 67.902800
-3.745800 58.833600
-3.732200 44.435500
-3.718500 41.188400
-3.704900 53.808700
-3.691300 72.189100
-3.677600 46.817500
-3.664000 40.135000
-3.650300 65.110000
-3.636700 88.326500
-3.623000 56.652700
-3.609400 49.943700
-3.595700 32.724300
-3.582100 22.079900
-3.568400 0.000000
-3.554800 0.000000
-3.541100 0.000000
-3.527500 0.000000
-3.513900 0.000000
-3.500200 0.000000
-3.486600 0.000000
-3.472900 0.000000
-3.459300 0.000000
-3.445600 0.000000
-3.432000 0.000000
-3.418300 0.000000
-3.404700 0.000000
-3.391000 0.000000
-3.377400 0.000000
-3.363700 0.000000
-3.350100 0.000000
-3.336400 0.000000
-3.322800 0.000000
-3.309200 0.000000
-3.295500 0.000000
-3.281900 0.000000
-3.268200 0.000000
-3.254600 0.000000
-3.240900 0.038100
-3.227300 0.134200
-3.213600 0.230300
-3.200000 0.326400
-3.186300 0.422600
-3.172700 0.518700
-3.159000 0.614800
-3.145400 0.710900
-3.131800 0.807000
-3.118100 0.903200
-3.104500 0.999300
-3.090800 1.095400
-3.077200 1.191500
-3.063500 1.287600
-3.049900 0.871400
-3.036200 1.265400
-3.022600 2.855500
-3.008900 4.445600
-2.995300 6.035800
-2.981600 3.197300
-2.968000 5.009900
-2.954400 7.052000
-2.940700 11.434000
-2.927100 9.986100
-2.913400 6.447400
-2.899800 6.751900
-2.886100 7.056500
-2.872500 7.419300
-2.858800 8.101900
-2.845200 8.784500
-2.831500 10.366500
-2.817900 13.349000
-2.804200 16.331500
-2.790600 14.003000
-2.777000 22.202100
-2.763300 17.865400
-2.749700 19.386700
-2.736000 19.646200
-2.722400 20.923000
-2.708700 22.199700
-2.695100 22.914000
-2.681400 25.416400
-2.667800 31.967000
-2.654100 26.881200
-2.640500 27.156800
-2.626800 26.748400
-2.613200 19.533500
-2.599500 50.376800
-2.585900 35.058600
-2.572300 34.756300
-2.558600 38.653000
-2.545000 43.999100
-2.531300 23.979400
-2.517700 14.923700
-2.504000 24.253100
-2.490400 16.291800
-2.476700 13.417400
-2.463100 13.322000
-2.449400 21.595100
-2.435800 14.525100
-2.422100 14.258000
-2.408500 14.511700
-2.394900 14.765300
-2.381200 15.599200
-2.367600 16.245200
-2.353900 17.603900
-2.340300 18.350300
-2.326600 28.038400
-2.313000 13.339400
-2.299300 14.203600
-2.285700 15.067800
-2.272000 15.932000
-2.258400 16.796200
-2.244700 14.014700
-2.231100 14.027800
-2.217500 14.040900
-2.203800 14.054000
-2.190200 14.408500
-2.176500 16.771700
-2.162900 18.831300
-2.149200 21.243200
-2.135600 23.351800
-2.121900 25.815500
-2.108300 32.874600
-2.094600 20.122500
-2.081000 9.649700
-2.067300 9.594900
-2.053700 9.540100
-2.040100 9.485300
-2.026400 9.430400
-2.012800 9.375600
-1.999100 9.320800
-1.985500 9.266000
-1.971800 9.211200
-1.958200 8.441800
-1.944500 8.328400
-1.930900 8.215100
-1.917200 8.101700
-1.903600 7.812900
-1.889900 7.527800
-1.876300 7.472700
-1.862600 7.424500
-1.849000 7.385700
-1.835400 7.347000
-1.821700 7.308200
-1.808100 7.269500
-1.794400 7.230700
-1.780800 7.192000
-1.767100 7.153300
-1.753500 7.114500
-1.739800 7.075800
-1.726200 7.037000
-1.712500 6.998300
-1.698900 6.959500
-1.685200 6.920800
-1.671600 6.751900
-1.658000 6.591100
-1.644300 6.577700
-1.630700 6.564200
-1.617000 6.550800
-1.603400 6.537400
-1.589700 6.523600
-1.576100 6.507300
-1.562400 6.384900
-1.548800 6.378700
-1.535100 6.372400
-1.521500 6.366200
-1.507800 6.360000
-1.494200 6.353800
-1.480600 6.347500
-1.466900 6.341300
-1.453300 6.335100
-1.439600 6.328900
-1.426000 6.322600
-1.412300 6.316400
-1.398700 6.310200
-1.385000 6.304000
-1.371400 6.297700
-1.357700 11.402200
-1.344100 4.118800
-1.330400 4.098200
-1.316800 4.077500
-1.303200 4.056800
-1.289500 4.036200
-1.275900 4.015500
-1.262200 3.994600
-1.248600 3.972100
-1.234900 4.764200
-1.221300 5.029900
-1.207600 5.976100
-1.194000 6.329400
-1.180300 7.398000
-1.166700 7.843900
-1.153000 8.290600
-1.139400 9.309700
-1.125700 9.776700
-1.112100 10.243800
-1.098500 9.583400
-1.084800 10.587100
-1.071200 11.590800
-1.057500 12.594500
-1.043900 13.598200
-1.030200 15.213300
-1.016600 15.520700
-1.002900 15.156100
-0.989300 14.791400
-0.975600 14.426000
-0.962000 14.059100
-0.948300 14.062000
-0.934700 14.829200
-0.921100 15.782100
-0.907400 17.418900
-0.893800 19.055600
-0.880100 20.749500
-0.866500 22.857200
-0.852800 26.639400
-0.839200 26.609800
-0.825500 19.210700
-0.811900 15.274000
-0.798200 12.781300
-0.784600 12.471700
-0.770900 12.162300
-0.757300 11.852900
-0.743700 12.534000
-0.730000 12.548200
-0.716400 12.562400
-0.702700 12.684700
-0.689100 13.724700
-0.675400 13.980500
-0.661800 14.296200
-0.648100 14.738600
-0.634500 15.181000
-0.620800 15.623300
-0.607200 16.068800
-0.593500 17.502800
-0.579900 18.807700
-0.566300 22.005800
-0.552600 24.146200
-0.539000 26.286600
-0.525300 31.752200
-0.511700 30.960300
-0.498000 26.612200
-0.484400 24.547100
-0.470700 22.482100
-0.457100 22.782100
-0.443400 19.943300
-0.429800 19.445800
-0.416100 20.198000
-0.402500 19.977100
-0.388800 19.834200
-0.375200 19.671000
-0.361600 19.585000
-0.347900 20.866500
-0.334300 21.305000
-0.320600 21.743400
-0.307000 22.181900
-0.293300 22.620400
-0.279700 23.058900
-0.266000 23.517000
-0.252400 23.175300
-0.238700 24.631500
-0.225100 24.892700
-0.211400 25.139300
-0.197800 26.325900
-0.184200 25.804800
-0.170500 25.993800
-0.156900 26.182800
-0.143200 26.371700
-0.129600 24.971400
-0.115900 25.068400
-0.102300 24.299900
-0.088600 24.162400
-0.075000 24.157300
-0.061300 23.582900
-0.047700 23.670700
-0.034000 23.584500
-0.020400 23.521200
-0.006800 22.416800
0.006900 22.223300
0.020500 22.217000
0.034200 20.501400
0.047800 20.453500
0.061500 23.585000
0.075100 23.795600
0.088800 25.074900
0.102400 24.983100
0.116100 24.891200
0.129700 24.799400
0.143400 24.767200
0.157000 24.520600
0.170600 24.411700
0.184300 23.619200
0.197900 23.472500
0.211600 23.345600
0.225200 23.199100
0.238900 26.344700
0.252500 25.899000
0.266200 24.038400
0.279800 23.699100
0.293500 23.359700
0.307100 22.498100
0.320800 26.061800
0.334400 25.776400
0.348100 28.090700
0.361700 27.797800
0.375300 29.714700
0.389000 29.779100
0.402600 29.808500
0.416300 29.161700
0.429900 28.968500
0.443600 29.997300
0.457200 29.948000
0.470900 29.927800
0.484500 29.912600
0.498200 29.276800
0.511800 30.530400
0.525500 29.859200
0.539100 29.078100
0.552700 27.029400
0.566400 26.996200
0.580000 26.350400
0.593700 27.829800
0.607300 27.647600
0.621000 27.542700
0.634600 28.576000
0.648300 28.619100
0.661900 28.505100
0.675600 30.074800
0.689200 30.328400
0.702900 30.418900
0.716500 30.509500
0.730100 30.590500
0.743800 30.739200
0.757400 31.150900
0.771100 31.233600
0.784700 30.630900
0.798400 30.317300
0.812000 29.492100
0.825700 28.410300
0.839300 26.893500
0.853000 27.254100
0.866600 27.202000
0.880300 27.138400
0.893900 27.074900
0.907500 26.987600
0.921200 26.935200
0.934800 26.700000
0.948500 26.602800
0.962100 25.630300
0.975800 25.339400
0.989400 25.252100
1.003100 25.108300
1.016700 22.901700
1.030400 22.487700
1.044000 22.073700
1.057700 21.759800
1.071300 21.383600
1.085000 21.025800
1.098600 19.577800
1.112200 19.109100
1.125900 18.610600
1.139500 18.101200
1.153200 17.590200
1.166800 17.063100
1.180500 16.544600
1.194100 16.067500
1.207800 15.610100
1.221400 15.388000
1.235100 14.909300
1.248700 14.348000
1.262400 13.875700
1.276000 13.403400
1.289600 12.931200
1.303300 12.488800
1.316900 12.102400
1.330600 11.683300
1.344200 11.269000
1.357900 10.896800
1.371500 10.552700
1.385200 10.232000
1.398800 9.907800
1.412500 9.579500
1.426100 9.273500
1.439800 8.984500
1.453400 8.695600
1.467000 8.406600
1.480700 8.117700
1.494300 7.828700
