set title 'mp-2685 - Density of States'
set xlabel 'Energy (eV)'
set ylabel 'DOS (states/eV)'
set grid
set xrange [-10:10]
set yrange [0:10.045]
set xzeroaxis lt -1
set terminal png size 800,600
set output 'mp-2685_dos_gnuplot.png'
plot '-' using 1:2 with lines title 'DOS'
-6.498900 0.000000
-6.481700 0.000000
-6.464500 0.000000
-6.447300 0.000000
-6.430100 0.000000
-6.412900 0.000000
-6.395700 0.000000
-6.378500 0.000000
-6.361300 0.000000
-6.344100 0.000000
-6.326900 0.000000
-6.309700 0.000000
-6.292500 0.000000
-6.275300 0.000000
-6.258100 0.000000
-6.240800 0.000000
-6.223600 0.000000
-6.206400 0.000000
-6.189200 0.000000
-6.172000 0.000000
-6.154800 0.000000
-6.137600 0.000000
-6.120400 0.000000
-6.103200 0.000000
-6.086000 0.000000
-6.068800 0.000000
-6.051600 0.000000
-6.034400 0.000000
-6.017200 0.000000
-6.000000 0.000000
-5.982800 0.000000
-5.965600 0.000000
-5.948400 0.000000
-5.931200 0.000000
-5.914000 0.000000
-5.896700 0.000000
-5.879500 0.000000
-5.862300 0.000000
-5.845100 0.000000
-5.827900 0.000000
-5.810700 0.000000
-5.793500 0.000000
-5.776300 0.000000
-5.759100 0.000000
-5.741900 0.000000
-5.724700 0.000000
-5.707500 0.000000
-5.690300 0.000000
-5.673100 0.000000
-5.655900 0.000000
-5.638700 0.000000
-5.621500 0.000000
-5.604300 0.000000
-5.587100 0.000000
-5.569900 0.000000
-5.552600 0.000000
-5.535400 0.000000
-5.518200 0.000000
-5.501000 0.000000
-5.483800 0.000000
-5.466600 0.000000
-5.449400 0.000000
-5.432200 0.000000
-5.415000 0.000000
-5.397800 0.000000
-5.380600 0.000000
-5.363400 0.000000
-5.346200 0.000000
-5.329000 0.000000
-5.311800 0.000000
-5.294600 0.000000
-5.277400 0.000000
-5.260200 0.000000
-5.243000 0.000000
-5.225800 0.000000
-5.208500 0.000000
-5.191300 0.000000
-5.174100 0.000000
-5.156900 0.000000
-5.139700 0.000000
-5.122500 0.000000
-5.105300 0.000000
-5.088100 0.000000
-5.070900 0.000000
-5.053700 0.000000
-5.036500 0.000000
-5.019300 0.000000
-5.002100 0.000000
-4.984900 0.000000
-4.967700 0.000000
-4.950500 0.000000
-4.933300 0.022100
-4.916100 0.031100
-4.898900 0.041200
-4.881700 0.052300
-4.864400 0.064500
-4.847200 0.071700
-4.830000 0.074300
-4.812800 0.079900
-4.795600 0.085000
-4.778400 0.089800
-4.761200 0.094500
-4.744000 0.100400
-4.726800 0.106800
-4.709600 0.111800
-4.692400 0.117800
-4.675200 0.123900
-4.658000 0.130200
-4.640800 0.133600
-4.623600 0.138700
-4.606400 0.144200
-4.589200 0.149700
-4.572000 0.155400
-4.554800 0.161300
-4.537600 0.167100
-4.520300 0.173100
-4.503100 0.179300
-4.485900 0.185500
-4.468700 0.192200
-4.451500 0.200500
-4.434300 0.208300
-4.417100 0.216700
-4.399900 0.225500
-4.382700 0.234600
-4.365500 0.243900
-4.348300 0.254400
-4.331100 0.264600
-4.313900 0.276300
-4.296700 0.290400
-4.279500 0.304900
-4.262300 0.319300
-4.245100 0.334300
-4.227900 0.349800
-4.210700 0.365900
-4.193500 0.389600
-4.176200 0.419800
-4.159000 0.451200
-4.141800 0.561300
-4.124600 0.646300
-4.107400 0.740100
-4.090200 0.818300
-4.073000 1.020700
-4.055800 1.196300
-4.038600 1.411900
-4.021400 1.601200
-4.004200 1.794300
-3.987000 2.051100
-3.969800 2.374400
-3.952600 2.959700
-3.935400 3.731200
-3.918200 3.547600
-3.901000 3.539300
-3.883800 3.717800
-3.866600 3.807600
-3.849400 3.796300
-3.832100 3.870200
-3.814900 3.939200
-3.797700 4.041700
-3.780500 4.140200
-3.763300 4.160900
-3.746100 4.035400
-3.728900 4.183700
-3.711700 4.329500
-3.694500 4.473500
-3.677300 4.690400
-3.660100 5.059600
-3.642900 5.086700
-3.625700 5.023300
-3.608500 5.066400
-3.591300 4.751900
-3.574100 4.646200
-3.556900 5.100700
-3.539700 5.276400
-3.522500 5.583600
-3.505300 6.088500
-3.488000 6.808800
-3.470800 7.754500
-3.453600 8.620900
-3.436400 8.976100
-3.419200 8.630100
-3.402000 7.979300
-3.384800 7.880300
-3.367600 8.116200
-3.350400 7.961900
-3.333200 8.335700
-3.316000 8.295500
-3.298800 7.326600
-3.281600 6.317600
-3.264400 5.961400
-3.247200 5.404100
-3.230000 4.596200
-3.212800 5.230600
-3.195600 5.513000
-3.178400 5.887100
-3.161200 5.516900
-3.143900 6.372700
-3.126700 7.897100
-3.109500 9.050800
-3.092300 9.131700
-3.075100 6.335900
-3.057900 5.595600
-3.040700 5.476400
-3.023500 6.697600
-3.006300 7.135400
-2.989100 7.051700
-2.971900 6.648300
-2.954700 6.325300
-2.937500 6.187700
-2.920300 6.534000
-2.903100 6.719900
-2.885900 6.570000
-2.868700 6.361800
-2.851500 6.333300
-2.834300 6.545200
-2.817100 6.761000
-2.799800 7.121700
-2.782600 6.654700
-2.765400 6.658100
-2.748200 6.976100
-2.731000 7.276700
-2.713800 7.971800
-2.696600 8.494600
-2.679400 7.888500
-2.662200 7.889000
-2.645000 8.425100
-2.627800 8.245300
-2.610600 7.183700
-2.593400 6.468500
-2.576200 5.028200
-2.559000 4.321100
-2.541800 4.055200
-2.524600 3.871800
-2.507400 4.761700
-2.490200 5.078500
-2.473000 4.911200
-2.455700 4.498500
-2.438500 4.340000
-2.421300 4.223500
-2.404100 3.762600
-2.386900 3.539900
-2.369700 3.457700
-2.352500 3.124700
-2.335300 2.945400
-2.318100 2.907800
-2.300900 2.663900
-2.283700 2.495900
-2.266500 2.316800
-2.249300 1.970900
-2.232100 1.697100
-2.214900 1.305000
-2.197700 1.061000
-2.180500 1.007900
-2.163300 0.965100
-2.146100 0.924800
-2.128900 0.906000
-2.111600 0.893700
-2.094400 0.882500
-2.077200 0.873600
-2.060000 0.866000
-2.042800 0.858700
-2.025600 0.847600
-2.008400 0.842100
-1.991200 0.839900
-1.974000 0.844000
-1.956800 0.850900
-1.939600 0.857200
-1.922400 0.860500
-1.905200 0.853000
-1.888000 0.845700
-1.870800 0.839200
-1.853600 0.833900
-1.836400 0.833200
-1.819200 0.838900
-1.802000 0.848000
-1.784800 0.857100
-1.767500 0.866000
-1.750300 0.897000
-1.733100 0.934500
-1.715900 0.910300
-1.698700 0.989000
-1.681500 1.052700
-1.664300 1.080700
-1.647100 1.002600
-1.629900 0.683900
-1.612700 0.665700
-1.595500 0.656900
-1.578300 0.596400
-1.561100 0.578500
-1.543900 0.566600
-1.526700 0.558400
-1.509500 0.552700
-1.492300 0.546900
-1.475100 0.541100
-1.457900 0.528900
-1.440700 0.513800
-1.423400 0.506800
-1.406200 0.502600
-1.389000 0.499300
-1.371800 0.497800
-1.354600 0.496400
-1.337400 0.495300
-1.320200 0.494300
-1.303000 0.494100
-1.285800 0.493700
-1.268600 0.494100
-1.251400 0.492900
-1.234200 0.491500
-1.217000 0.490000
-1.199800 0.488300
-1.182600 0.482900
-1.165400 0.480700
-1.148200 0.480100
-1.131000 0.479900
-1.113800 0.480100
-1.096600 0.480600
-1.079300 0.481300
-1.062100 0.482300
-1.044900 0.483300
-1.027700 0.484500
-1.010500 0.485800
-0.993300 0.487200
-0.976100 0.488600
-0.958900 0.490100
-0.941700 0.491700
-0.924500 0.493200
-0.907300 0.495500
-0.890100 0.497500
-0.872900 0.499500
-0.855700 0.501800
-0.838500 0.504200
-0.821300 0.506600
-0.804100 0.509000
-0.786900 0.511500
-0.769700 0.514100
-0.752500 0.516600
-0.735200 0.519200
-0.718000 0.521700
-0.700800 0.524200
-0.683600 0.526700
-0.666400 0.541400
-0.649200 0.545800
-0.632000 0.550300
-0.614800 0.555000
-0.597600 0.559800
-0.580400 0.564600
-0.563200 0.569600
-0.546000 0.570100
-0.528800 0.573900
-0.511600 0.578700
-0.494400 0.586700
-0.477200 0.594100
-0.460000 0.603900
-0.442800 0.620300
-0.425600 0.663000
-0.408400 0.681000
-0.391100 0.696100
-0.373900 0.710200
-0.356700 0.722600
-0.339500 0.733600
-0.322300 0.744500
-0.305100 0.750600
-0.287900 0.756700
-0.270700 0.763500
-0.253500 0.770400
-0.236300 0.777400
-0.219100 0.784800
-0.201900 0.792200
-0.184700 1.020000
-0.167500 0.956600
-0.150300 0.958400
-0.133100 0.929900
-0.115900 0.931200
-0.098700 0.927100
-0.081500 0.936100
-0.064300 0.945000
-0.047000 0.903000
-0.029800 0.854000
-0.012600 0.811500
0.004600 0.796200
0.021800 0.781800
0.039000 0.768400
0.056200 0.763700
0.073400 0.754800
0.090600 0.747800
0.107800 0.747000
0.125000 0.748000
0.142200 0.775300
0.159400 0.768900
0.176600 0.765900
0.193800 0.760200
0.211000 0.771900
0.228200 0.805600
0.245400 0.916200
0.262600 1.056300
0.279800 1.055200
0.297100 0.746100
0.314300 0.687100
0.331500 0.633500
0.348700 0.577400
0.365900 0.543900
0.383100 0.558700
0.400300 0.595800
0.417500 0.684600
0.434700 0.630300
0.451900 0.647800
0.469100 0.653900
0.486300 0.660600
0.503500 0.682200
0.520700 0.699900
0.537900 0.701000
0.555100 0.709700
0.572300 0.651800
0.589500 0.707900
0.606700 0.743200
0.623900 0.797500
0.641200 0.841600
0.658400 0.906400
0.675600 0.915800
0.692800 0.961500
0.710000 1.005200
0.727200 1.047500
0.744400 1.085200
0.761600 1.189500
0.778800 1.267800
0.796000 1.374500
0.813200 1.477000
0.830400 1.556200
0.847600 1.644900
0.864800 1.734900
0.882000 1.870300
0.899200 2.018900
0.916400 2.197600
0.933600 2.344900
0.950800 2.582100
0.968100 2.864400
0.985300 3.202200
1.002500 3.305900
1.019700 3.458400
1.036900 3.727000
1.054100 4.112800
1.071300 4.324800
1.088500 4.497800
1.105700 4.641800
1.122900 4.866800
1.140100 5.051800
1.157300 5.146200
1.174500 4.753900
1.191700 4.484300
1.208900 4.239400
1.226100 4.076000
1.243300 4.019500
1.260500 3.993600
1.277700 3.995200
1.294900 4.070500
1.312200 4.149000
1.329400 4.225300
1.346600 4.254400
1.363800 4.198300
1.381000 4.148300
1.398200 4.087200
1.415400 4.058800
1.432600 4.057200
1.449800 4.114800
1.467000 4.177800
1.484200 4.373900
1.501400 4.250700
1.518600 4.283600
1.535800 4.454600
1.553000 4.664900
1.570200 4.799100
1.587400 4.690700
1.604600 4.813800
1.621800 4.782000
1.639000 4.814800
1.656300 4.676700
1.673500 4.260600
1.690700 3.849700
1.707900 3.139900
1.725100 2.767800
1.742300 3.486900
1.759500 4.490200
1.776700 5.520200
1.793900 5.569800
1.811100 4.998200
1.828300 4.686000
1.845500 4.565900
1.862700 4.390300
1.879900 4.132400
1.897100 3.948000
1.914300 3.806600
1.931500 3.691000
1.948700 3.605700
1.965900 3.494600
1.983100 3.542700
2.000400 3.434200
2.017600 3.389500
2.034800 3.477000
2.052000 3.115300
2.069200 2.816400
2.086400 2.646700
2.103600 2.608300
2.120800 2.572200
2.138000 2.840700
2.155200 3.053900
2.172400 3.391700
2.189600 3.801000
2.206800 4.338700
2.224000 4.934400
2.241200 5.129800
2.258400 5.301400
2.275600 5.438000
2.292800 5.972100
2.310000 5.568300
2.327200 4.917000
2.344500 4.564700
2.361700 4.401700
2.378900 4.345900
2.396100 4.933600
2.413300 5.449900
2.430500 5.669100
2.447700 5.918500
2.464900 6.338900
2.482100 7.013100
2.499300 6.268000
2.516500 7.223100
2.533700 7.145300
2.550900 7.025100
2.568100 6.494300
2.585300 6.241800
2.602500 6.161600
2.619700 6.157000
2.636900 6.090300
2.654100 5.819400
2.671300 4.737800
2.688600 4.293600
2.705800 3.989600
2.723000 3.515300
2.740200 3.534100
2.757400 3.679800
2.774600 3.222700
2.791800 3.003200
2.809000 2.724600
2.826200 2.549400
2.843400 2.340000
2.860600 2.020600
2.877800 1.659100
2.895000 1.523400
2.912200 1.448500
2.929400 1.355900
2.946600 1.314600
2.963800 1.275200
2.981000 1.238500
2.998200 1.204200
3.015400 1.169500
3.032700 1.137000
3.049900 1.118300
3.067100 1.101200
3.084300 1.085300
3.101500 1.067100
3.118700 1.048500
3.135900 1.031200
3.153100 1.014800
3.170300 0.990100
3.187500 0.973500
3.204700 0.958200
3.221900 0.944200
3.239100 0.931500
3.256300 0.919000
3.273500 0.907300
3.290700 0.898000
3.307900 0.899400
3.325100 0.881600
3.342300 0.868100
3.359500 0.825700
3.376800 0.792300
3.394000 0.989800
3.411200 0.573100
3.428400 0.571300
3.445600 0.567900
3.462800 0.564600
3.480000 0.561300
3.497200 0.558200
3.514400 0.555300
3.531600 0.552300
3.548800 0.549300
3.566000 0.545800
3.583200 0.579700
3.600400 0.585800
3.617600 0.557700
3.634800 0.555500
3.652000 0.553300
3.669200 0.550900
3.686400 0.548800
3.703600 0.547000
3.720900 0.545100
3.738100 0.538000
3.755300 0.536500
3.772500 0.535100
3.789700 0.533700
3.806900 0.532400
3.824100 0.531200
3.841300 0.529900
3.858500 0.528700
3.875700 0.527500
3.892900 0.526000
3.910100 0.525300
3.927300 0.523900
3.944500 0.523000
3.961700 0.522200
3.978900 0.521100
3.996100 0.522300
4.013300 0.523100
4.030500 0.524000
4.047700 0.520400
4.065000 0.519900
4.082200 0.519300
4.099400 0.519300
4.116600 0.519500
4.133800 0.519400
4.151000 0.519200
4.168200 0.520000
4.185400 0.527700
4.202600 0.529800
4.219800 0.532200
4.237000 0.534700
4.254200 0.535000
4.271400 0.537500
4.288600 0.541800
4.305800 0.558600
4.323000 0.568800
4.340200 0.579800
4.357400 0.591500
4.374600 0.635100
4.391800 0.671100
4.409100 0.779100
4.426300 0.969800
4.443500 0.861500
4.460700 0.867000
4.477900 0.840700
4.495100 0.829400
4.512300 0.834400
4.529500 0.846800
4.546700 0.849500
4.563900 0.859400
4.581100 0.866600
4.598300 0.860900
4.615500 0.871000
4.632700 0.893500
4.649900 0.957700
4.667100 0.834700
4.684300 0.815600
4.701500 0.801800
4.718700 0.791200
4.735900 0.784100
4.753200 0.777600
4.770400 0.772100
4.787600 0.767300
4.804800 0.763100
4.822000 0.758900
4.839200 0.754600
4.856400 0.750500
4.873600 0.746500
4.890800 0.740300
4.908000 0.736400
4.925200 0.732300
4.942400 0.727900
4.959600 0.724400
4.976800 0.722000
4.994000 0.719800
5.011200 0.717700
5.028400 0.715600
5.045600 0.713500
5.062800 0.711500
5.080000 0.709600
5.097300 0.707700
5.114500 0.705600
5.131700 0.702200
5.148900 0.700600
5.166100 0.698300
5.183300 0.696200
5.200500 0.694700
5.217700 0.693300
5.234900 0.694100
5.252100 0.691500
5.269300 0.689100
5.286500 0.686900
5.303700 0.684800
5.320900 0.682900
5.338100 0.679300
5.355300 0.678200
5.372500 0.679800
5.389700 0.684300
5.406900 0.688100
5.424100 0.689200
5.441400 0.689900
5.458600 0.701600
5.475800 0.693900
5.493000 0.688600
5.510200 0.726800
5.527400 0.719300
5.544600 0.693000
5.561800 0.677300
5.579000 0.677500
5.596200 0.669700
5.613400 0.655000
5.630600 0.596700
5.647800 0.587000
5.665000 0.577400
5.682200 0.562900
5.699400 0.547600
5.716600 0.532100
5.733800 0.527200
5.751000 0.523600
5.768200 0.518800
5.785500 0.514200
5.802700 0.509800
5.819900 0.505500
5.837100 0.501500
5.854300 0.497700
5.871500 0.493800
5.888700 0.491500
5.905900 0.488000
5.923100 0.484700
5.940300 0.669600
5.957500 0.552700
5.974700 0.520200
5.991900 0.519600
6.009100 0.512600
6.026300 0.514200
6.043500 0.515700
6.060700 0.517200
6.077900 0.518700
6.095100 0.520200
6.112300 0.521900
6.129600 0.523700
6.146800 0.525200
6.164000 0.527000
6.181200 0.527400
6.198400 0.530100
6.215600 0.530000
6.232800 0.532800
6.250000 0.535800
6.267200 0.539000
6.284400 0.540100
6.301600 0.540700
6.318800 0.541100
6.336000 0.541100
6.353200 0.541000
6.370400 0.541000
6.387600 0.552000
6.404800 0.566200
6.422000 0.567700
6.439200 0.568900
6.456400 0.562200
6.473700 0.553200
6.490900 0.548800
6.508100 0.552000
6.525300 0.554300
6.542500 0.554200
6.559700 0.550200
6.576900 0.553500
6.594100 0.556600
6.611300 0.559500
6.628500 0.562200
6.645700 0.564700
6.662900 0.570800
6.680100 0.573000
6.697300 0.575000
6.714500 0.577000
6.731700 0.579000
6.748900 0.580900
6.766100 0.582600
6.783300 0.584700
6.800500 0.587300
6.817800 0.590100
6.835000 0.622400
6.852200 0.641200
6.869400 0.650000
6.886600 0.654600
6.903800 0.658000
6.921000 0.659200
6.938200 0.662200
6.955400 0.664000
6.972600 0.666200
6.989800 0.667500
7.007000 0.668600
7.024200 0.668400
7.041400 0.670800
7.058600 0.668900
7.075800 0.675000
7.093000 0.678400
7.110200 0.681200
7.127400 0.684600
7.144600 0.688000
7.161900 0.683400
7.179100 0.682600
7.196300 0.680300
7.213500 0.678300
7.230700 0.676700
7.247900 0.675100
7.265100 0.673400
7.282300 0.671300
7.299500 0.670400
7.316700 0.666200
7.333900 0.661300
7.351100 0.656400
7.368300 0.650400
7.385500 0.642900
7.402700 0.638400
7.419900 0.634200
7.437100 0.630200
7.454300 0.626600
7.471500 0.624600
7.488700 0.629100
7.506000 0.637800
7.523200 0.636000
7.540400 0.630000
7.557600 0.625900
7.574800 0.622300
7.592000 0.619400
7.609200 0.617000
7.626400 0.615900
7.643600 0.614900
7.660800 0.613900
7.678000 0.615200
7.695200 0.613100
7.712400 0.611100
7.729600 0.609500
7.746800 0.608200
7.764000 0.607300
7.781200 0.606600
7.798400 0.606200
7.815600 0.607600
7.832800 0.609000
7.850100 0.612200
7.867300 0.616600
7.884500 0.631600
7.901700 0.640900
7.918900 0.665100
7.936100 0.673000
7.953300 0.679500
7.970500 0.685000
7.987700 0.691300
8.004900 0.682400
8.022100 0.681700
8.039300 0.680400
8.056500 0.678500
8.073700 0.677700
8.090900 0.677900
8.108100 0.678200
8.125300 0.678300
8.142500 0.678800
8.159700 0.681400
8.176900 0.684200
8.194200 0.685100
8.211400 0.684800
8.228600 0.684400
8.245800 0.680500
8.263000 0.672500
8.280200 0.670000
8.297400 0.667000
8.314600 0.660700
8.331800 0.651600
8.349000 0.731100
8.366200 0.696800
8.383400 0.704100
8.400600 0.690700
8.417800 0.690500
8.435000 0.690800
8.452200 0.691400
8.469400 0.684200
8.486600 0.687900
8.503800 0.686300
8.521100 0.686000
8.538300 0.687300
8.555500 0.689300
8.572700 0.693100
8.589900 0.690800
8.607100 0.691900
8.624300 0.688000
8.641500 0.688800
8.658700 0.685900
8.675900 0.681800
8.693100 0.675300
8.710300 0.666900
8.727500 0.655200
8.744700 0.657100
8.761900 0.651300
8.779100 0.647800
8.796300 0.644700
8.813500 0.639900
8.830700 0.636100
8.847900 0.633000
8.865200 0.630200
8.882400 0.627200
8.899600 0.624900
8.916800 0.623600
8.934000 0.623100
8.951200 0.622700
8.968400 0.622400
8.985600 0.622000
9.002800 0.621000
9.020000 0.620100
9.037200 0.616100
9.054400 0.614400
9.071600 0.626400
9.088800 0.615100
9.106000 0.619000
9.123200 0.618800
9.140400 0.616600
9.157600 0.612100
9.174800 0.606500
9.192000 0.602000
9.209300 0.586500
9.226500 0.584200
9.243700 0.582800
9.260900 0.582200
9.278100 0.581700
9.295300 0.581300
9.312500 0.580600
9.329700 0.579100
9.346900 0.579500
9.364100 0.580000
9.381300 0.580800
9.398500 0.581700
9.415700 0.582800
9.432900 0.590800
9.450100 0.607300
9.467300 0.611600
9.484500 0.615800
9.501700 0.622300
9.518900 0.623300
9.536100 0.622600
9.553400 0.624500
9.570600 0.626600
9.587800 0.628200
9.605000 0.630000
9.622200 0.631800
9.639400 0.632900
9.656600 0.630500
9.673800 0.631000
9.691000 0.631400
9.708200 0.633100
9.725400 0.635100
9.742600 0.637600
9.759800 0.641400
9.777000 0.645400
9.794200 0.648800
9.811400 0.641300
9.828600 0.642300
9.845800 0.643500
9.863000 0.648300
9.880200 0.652900
9.897500 0.654700
9.914700 0.647800
9.931900 0.646000
9.949100 0.643500
9.966300 0.631400
9.983500 0.630500
10.000700 0.625800
10.017900 0.623300
10.035100 0.620900
10.052300 0.618900
10.069500 0.617800
10.086700 0.617900
10.103900 0.621100
10.121100 0.623700
10.138300 0.624800
10.155500 0.636100
10.172700 0.638400
10.189900 0.640800
10.207100 0.643000
10.224300 0.656800
10.241600 0.698200
10.258800 0.682400
10.276000 0.687400
10.293200 0.686400
10.310400 0.688700
10.327600 0.691700
10.344800 0.684900
10.362000 0.687600
10.379200 0.690900
10.396400 0.694300
10.413600 0.698100
10.430800 0.702100
10.448000 0.704400
10.465200 0.712800
10.482400 0.721600
10.499600 0.736300
10.516800 0.746100
10.534000 0.733300
10.551200 0.738100
10.568400 0.742700
10.585700 0.749100
10.602900 0.742400
10.620100 0.736800
10.637300 0.731300
10.654500 0.727500
10.671700 0.724900
10.688900 0.722500
10.706100 0.720800
10.723300 0.719900
10.740500 0.719700
10.757700 0.719400
10.774900 0.718600
10.792100 0.717600
10.809300 0.715800
10.826500 0.714200
10.843700 0.713100
10.860900 0.710900
10.878100 0.708800
10.895300 0.706500
10.912500 0.704100
10.929800 0.701800
10.947000 0.696600
10.964200 0.696000
10.981400 0.697000
10.998600 0.702500
11.015800 0.706500
11.033000 0.710300
11.050200 0.719300
11.067400 0.723500
11.084600 0.794300
11.101800 0.732200
11.119000 0.735100
11.136200 0.737600
11.153400 0.739700
11.170600 0.741500
11.187800 0.742600
11.205000 0.745500
11.222200 0.748800
11.239400 0.758400
11.256600 0.769700
11.273900 0.771800
11.291100 0.767900
11.308300 0.764600
11.325500 0.762200
11.342700 0.762100
11.359900 0.760000
11.377100 0.753800
11.394300 0.746900
11.411500 0.744100
11.428700 0.743500
11.445900 0.743200
11.463100 0.742800
11.480300 0.743000
11.497500 0.743500
11.514700 0.751100
11.531900 0.750100
11.549100 0.749700
11.566300 0.749500
11.583500 0.750100
11.600700 0.751000
11.618000 0.757400
11.635200 0.762500
11.652400 0.764300
11.669600 0.765200
11.686800 0.767300
11.704000 0.770500
11.721200 0.776800
11.738400 0.776000
11.755600 0.773600
11.772800 0.771500
11.790000 0.771900
11.807200 0.771700
11.824400 0.779100
11.841600 0.777000
11.858800 0.774900
