set title 'mp-755071 - Density of States'
set xlabel 'Energy (eV)'
set ylabel 'DOS (states/eV)'
set grid
set xrange [-10:10]
set yrange [0:15.495]
set xzeroaxis lt -1
set terminal png size 800,600
set output 'mp-755071_dos_gnuplot.png'
plot '-' using 1:2 with lines title 'DOS'
-19.567500 0.000000
-19.538300 0.000000
-19.509100 0.000000
-19.480000 0.000000
-19.450800 0.000000
-19.421600 0.000000
-19.392400 0.000000
-19.363200 0.000000
-19.334000 0.000000
-19.304800 0.000000
-19.275600 0.000000
-19.246400 0.000000
-19.217200 0.000000
-19.188100 0.000000
-19.158900 0.000000
-19.129700 0.000000
-19.100500 0.000000
-19.071300 0.000000
-19.042100 0.000000
-19.012900 0.000000
-18.983700 0.000000
-18.954500 0.000000
-18.925300 0.000000
-18.896100 0.000000
-18.867000 0.000000
-18.837800 0.000000
-18.808600 0.000000
-18.779400 0.000000
-18.750200 0.000000
-18.721000 0.000000
-18.691800 0.000000
-18.662600 0.000000
-18.633400 0.000000
-18.604200 0.000000
-18.575100 0.000000
-18.545900 0.000000
-18.516700 0.000000
-18.487500 0.000000
-18.458300 0.000000
-18.429100 0.000000
-18.399900 0.000000
-18.370700 0.000000
-18.341500 0.000000
-18.312300 0.000000
-18.283200 0.000000
-18.254000 0.000000
-18.224800 0.000000
-18.195600 0.000000
-18.166400 0.000000
-18.137200 0.000000
-18.108000 0.000000
-18.078800 0.000000
-18.049600 0.000000
-18.020400 0.000000
-17.991300 0.000000
-17.962100 0.000000
-17.932900 0.000000
-17.903700 0.000000
-17.874500 0.000000
-17.845300 0.000000
-17.816100 0.000000
-17.786900 0.000000
-17.757700 0.000000
-17.728500 0.000000
-17.699300 0.000000
-17.670200 0.000000
-17.641000 0.000000
-17.611800 0.000000
-17.582600 0.000000
-17.553400 0.000000
-17.524200 0.000000
-17.495000 0.000000
-17.465800 0.000000
-17.436600 0.000000
-17.407400 0.000000
-17.378300 0.000000
-17.349100 0.000000
-17.319900 0.000000
-17.290700 0.000000
-17.261500 0.000000
-17.232300 0.000000
-17.203100 0.000000
-17.173900 0.000000
-17.144700 0.000000
-17.115500 0.000000
-17.086400 0.000000
-17.057200 0.000000
-17.028000 0.000500
-16.998800 0.006700
-16.969600 0.055600
-16.940400 0.280500
-16.911200 0.913600
-16.882000 2.085400
-16.852800 3.782200
-16.823600 5.957200
-16.794500 8.248600
-16.765300 10.235300
-16.736100 11.110900
-16.706900 10.153900
-16.677700 8.558000
-16.648500 8.147200
-16.619300 9.198700
-16.590100 10.611300
-16.560900 11.013500
-16.531700 10.455300
-16.502600 9.866400
-16.473400 9.071000
-16.444200 8.012500
-16.415000 7.603600
-16.385800 7.987900
-16.356600 8.609800
-16.327400 9.386000
-16.298200 10.008200
-16.269000 9.983200
-16.239800 9.657000
-16.210600 9.927300
-16.181500 12.413900
-16.152300 16.370300
-16.123100 20.650400
-16.093900 27.428500
-16.064700 34.474000
-16.035500 36.615800
-16.006300 38.210100
-15.977100 49.208700
-15.947900 67.812000
-15.918700 74.558600
-15.889600 56.743200
-15.860400 28.512200
-15.831200 9.182100
-15.802000 1.824600
-15.772800 0.214600
-15.743600 0.014400
-15.714400 0.000500
-15.685200 0.000000
-15.656000 0.000000
-15.626800 0.000000
-15.597700 0.000000
-15.568500 0.000000
-15.539300 0.000000
-15.510100 0.000000
-15.480900 0.000000
-15.451700 0.000000
-15.422500 0.000000
-15.393300 0.000000
-15.364100 0.000000
-15.334900 0.000000
-15.305800 0.000000
-15.276600 0.000000
-15.247400 0.000000
-15.218200 0.000000
-15.189000 0.000000
-15.159800 0.000000
-15.130600 0.000000
-15.101400 0.000000
-15.072200 0.000000
-15.043000 0.000000
-15.013900 0.000000
-14.984700 0.000000
-14.955500 0.000000
-14.926300 0.000000
-14.897100 0.000000
-14.867900 0.000000
-14.838700 0.000000
-14.809500 0.000000
-14.780300 0.000000
-14.751100 0.000000
-14.721900 0.000000
-14.692800 0.000000
-14.663600 0.000000
-14.634400 0.000000
-14.605200 0.000100
-14.576000 0.001600
-14.546800 0.014100
-14.517600 0.065300
-14.488400 0.158600
-14.459200 0.202700
-14.430000 0.143400
-14.400900 0.109400
-14.371700 0.267800
-14.342500 0.619500
-14.313300 0.952500
-14.284100 1.087000
-14.254900 0.948700
-14.225700 0.748400
-14.196500 0.806800
-14.167300 0.830100
-14.138100 0.620900
-14.109000 0.726100
-14.079800 1.331500
-14.050600 1.605600
-14.021400 1.096900
-13.992200 0.516800
-13.963000 0.301100
-13.933800 0.327300
-13.904600 0.586300
-13.875400 0.893000
-13.846200 1.124800
-13.817100 1.896700
-13.787900 3.182400
-13.758700 3.563500
-13.729500 2.524600
-13.700300 1.353500
-13.671100 1.315700
-13.641900 2.166800
-13.612700 2.614600
-13.583500 2.114000
-13.554300 1.239300
-13.525100 0.582800
-13.496000 0.516900
-13.466800 1.129500
-13.437600 2.030800
-13.408400 2.688900
-13.379200 3.199300
-13.350000 4.078100
-13.320800 4.965700
-13.291600 4.719100
-13.262400 3.176800
-13.233200 1.730100
-13.204100 1.015400
-13.174900 0.715200
-13.145700 1.264300
-13.116500 2.942700
-13.087300 4.211100
-13.058100 3.734800
-13.028900 2.662600
-12.999700 1.762900
-12.970500 0.876700
-12.941300 0.542900
-12.912200 1.424200
-12.883000 3.838400
-12.853800 6.996400
-12.824600 8.452300
-12.795400 6.521500
-12.766200 3.555200
-12.737000 2.960700
-12.707800 4.876000
-12.678600 6.846600
-12.649400 6.436900
-12.620300 4.112300
-12.591100 2.706400
-12.561900 3.263000
-12.532700 3.602100
-12.503500 2.299000
-12.474300 0.831200
-12.445100 0.376300
-12.415900 0.639300
-12.386700 0.971200
-12.357500 1.070000
-12.328400 1.032800
-12.299200 0.870700
-12.270000 0.895500
-12.240800 1.357600
-12.211600 1.770700
-12.182400 2.131300
-12.153200 2.971500
-12.124000 3.849800
-12.094800 4.340300
-12.065600 4.660300
-12.036400 4.392600
-12.007300 3.698000
-11.978100 3.551400
-11.948900 3.389100
-11.919700 2.337900
-11.890500 1.420200
-11.861300 1.409800
-11.832100 1.505200
-11.802900 1.046600
-11.773700 0.424600
-11.744500 0.096800
-11.715400 0.013100
-11.686200 0.015300
-11.657000 0.104200
-11.627800 0.399500
-11.598600 0.847200
-11.569400 1.105100
-11.540200 1.242000
-11.511000 1.993200
-11.481800 3.776400
-11.452600 5.780400
-11.423500 6.542100
-11.394300 5.997400
-11.365100 5.570900
-11.335900 5.295300
-11.306700 4.543000
-11.277500 3.761600
-11.248300 3.310000
-11.219100 3.271800
-11.189900 3.090800
-11.160700 2.253300
-11.131600 1.546500
-11.102400 1.498900
-11.073200 1.624500
-11.044000 1.551800
-11.014800 1.313800
-10.985600 1.003000
-10.956400 0.642200
-10.927200 0.309600
-10.898000 0.102400
-10.868800 0.021100
-10.839600 0.002500
-10.810500 0.000200
-10.781300 0.000000
-10.752100 0.000000
-10.722900 0.000000
-10.693700 0.000000
-10.664500 0.000000
-10.635300 0.000000
-10.606100 0.000000
-10.576900 0.000000
-10.547700 0.000000
-10.518600 0.000000
-10.489400 0.000000
-10.460200 0.000000
-10.431000 0.000000
-10.401800 0.000000
-10.372600 0.000000
-10.343400 0.000000
-10.314200 0.000000
-10.285000 0.000000
-10.255800 0.000000
-10.226700 0.000000
-10.197500 0.000000
-10.168300 0.000000
-10.139100 0.000000
-10.109900 0.000000
-10.080700 0.000000
-10.051500 0.000000
-10.022300 0.000000
-9.993100 0.000000
-9.963900 0.000000
-9.934800 0.000000
-9.905600 0.000000
-9.876400 0.000000
-9.847200 0.000000
-9.818000 0.000000
-9.788800 0.000000
-9.759600 0.000000
-9.730400 0.000000
-9.701200 0.000000
-9.672000 0.000000
-9.642900 0.000000
-9.613700 0.000000
-9.584500 0.000000
-9.555300 0.000000
-9.526100 0.000000
-9.496900 0.000000
-9.467700 0.000000
-9.438500 0.000000
-9.409300 0.000000
-9.380100 0.000000
-9.350900 0.000000
-9.321800 0.000000
-9.292600 0.000000
-9.263400 0.000000
-9.234200 0.000000
-9.205000 0.000000
-9.175800 0.000000
-9.146600 0.000000
-9.117400 0.000000
-9.088200 0.000000
-9.059000 0.000000
-9.029900 0.000000
-9.000700 0.000000
-8.971500 0.000000
-8.942300 0.000000
-8.913100 0.000000
-8.883900 0.000000
-8.854700 0.000000
-8.825500 0.000000
-8.796300 0.000000
-8.767100 0.000000
-8.738000 0.000000
-8.708800 0.000000
-8.679600 0.000000
-8.650400 0.000000
-8.621200 0.000000
-8.592000 0.000000
-8.562800 0.000000
-8.533600 0.000000
-8.504400 0.000000
-8.475200 0.000000
-8.446100 0.000000
-8.416900 0.000000
-8.387700 0.000000
-8.358500 0.000000
-8.329300 0.000000
-8.300100 0.000000
-8.270900 0.000000
-8.241700 0.000000
-8.212500 0.000000
-8.183300 0.000000
-8.154200 0.000000
-8.125000 0.000000
-8.095800 0.000000
-8.066600 0.000000
-8.037400 0.000000
-8.008200 0.000000
-7.979000 0.000000
-7.949800 0.000000
-7.920600 0.000000
-7.891400 0.000000
-7.862200 0.000000
-7.833100 0.000000
-7.803900 0.000000
-7.774700 0.000000
-7.745500 0.000000
-7.716300 0.000000
-7.687100 0.000000
-7.657900 0.000000
-7.628700 0.000000
-7.599500 0.000000
-7.570300 0.000000
-7.541200 0.000000
-7.512000 0.000000
-7.482800 0.000000
-7.453600 0.000000
-7.424400 0.000000
-7.395200 0.000000
-7.366000 0.000000
-7.336800 0.000000
-7.307600 0.000000
-7.278400 0.000000
-7.249300 0.000000
-7.220100 0.000000
-7.190900 0.000000
-7.161700 0.000000
-7.132500 0.000000
-7.103300 0.000000
-7.074100 0.000000
-7.044900 0.000000
-7.015700 0.000000
-6.986500 0.000000
-6.957400 0.000000
-6.928200 0.000000
-6.899000 0.000000
-6.869800 0.000000
-6.840600 0.000000
-6.811400 0.000000
-6.782200 0.000000
-6.753000 0.000000
-6.723800 0.000000
-6.694600 0.000000
-6.665400 0.000000
-6.636300 0.000000
-6.607100 0.000000
-6.577900 0.000000
-6.548700 0.000000
-6.519500 0.000000
-6.490300 0.000000
-6.461100 0.000000
-6.431900 0.000000
-6.402700 0.000000
-6.373500 0.000000
-6.344400 0.000000
-6.315200 0.000000
-6.286000 0.000000
-6.256800 0.000000
-6.227600 0.000000
-6.198400 0.000000
-6.169200 0.000000
-6.140000 0.000000
-6.110800 0.000000
-6.081600 0.000000
-6.052500 0.000000
-6.023300 0.000000
-5.994100 0.000000
-5.964900 0.000000
-5.935700 0.000000
-5.906500 0.000000
-5.877300 0.000000
-5.848100 0.000000
-5.818900 0.000000
-5.789700 0.000000
-5.760600 0.000000
-5.731400 0.000000
-5.702200 0.000000
-5.673000 0.000000
-5.643800 0.000000
-5.614600 0.000000
-5.585400 0.000000
-5.556200 0.000000
-5.527000 0.000000
-5.497800 0.000000
-5.468700 0.000000
-5.439500 0.000000
-5.410300 0.000000
-5.381100 0.000000
-5.351900 0.000000
-5.322700 0.000000
-5.293500 0.000000
-5.264300 0.000000
-5.235100 0.000000
-5.205900 0.000000
-5.176700 0.000000
-5.147600 0.000000
-5.118400 0.000000
-5.089200 0.000000
-5.060000 0.000000
-5.030800 0.000000
-5.001600 0.000000
-4.972400 0.000000
-4.943200 0.000000
-4.914000 0.000000
-4.884800 0.000000
-4.855700 0.000000
-4.826500 0.000000
-4.797300 0.000000
-4.768100 0.000000
-4.738900 0.000000
-4.709700 0.000000
-4.680500 0.000000
-4.651300 0.000000
-4.622100 0.000000
-4.592900 0.000000
-4.563800 0.000000
-4.534600 0.000000
-4.505400 0.000000
-4.476200 0.000000
-4.447000 0.000000
-4.417800 0.000000
-4.388600 0.000000
-4.359400 0.000000
-4.330200 0.000000
-4.301000 0.000000
-4.271900 0.000000
-4.242700 0.000000
-4.213500 0.000000
-4.184300 0.000000
-4.155100 0.000000
-4.125900 0.000000
-4.096700 0.000000
-4.067500 0.000000
-4.038300 0.000000
-4.009100 0.000000
-3.979900 0.000000
-3.950800 0.000000
-3.921600 0.000100
-3.892400 0.001400
-3.863200 0.018100
-3.834000 0.130100
-3.804800 0.540200
-3.775600 1.413200
-3.746400 2.487900
-3.717200 2.924100
-3.688000 2.385900
-3.658900 1.842000
-3.629700 1.684600
-3.600500 1.449100
-3.571300 0.996500
-3.542100 0.469700
-3.512900 0.130400
-3.483700 0.019700
-3.454500 0.001600
-3.425300 0.001600
-3.396100 0.020800
-3.367000 0.153800
-3.337800 0.656900
-3.308600 1.749200
-3.279400 3.110100
-3.250200 3.848200
-3.221000 3.520200
-3.191800 2.594400
-3.162600 1.462400
-3.133400 0.544500
-3.104200 0.263300
-3.075100 0.747600
-3.045900 1.836200
-3.016700 2.442600
-2.987500 1.881200
-2.958300 1.464000
-2.929100 2.072500
-2.899900 2.412900
-2.870700 1.578500
-2.841500 0.657700
-2.812300 0.621700
-2.783200 1.385200
-2.754000 2.279100
-2.724800 2.440600
-2.695600 1.877200
-2.666400 1.581300
-2.637200 1.668500
-2.608000 1.384000
-2.578800 1.004700
-2.549600 1.317700
-2.520400 1.960200
-2.491200 1.985300
-2.462100 1.312800
-2.432900 0.557200
-2.403700 0.142500
-2.374500 0.020600
-2.345300 0.002100
-2.316100 0.009100
-2.286900 0.084000
-2.257700 0.447200
-2.228500 1.426100
-2.199300 2.860500
-2.170200 3.748300
-2.141000 3.389800
-2.111800 2.555800
-2.082600 2.071600
-2.053400 1.545600
-2.024200 0.961100
-1.995000 1.043400
-1.965800 1.565200
-1.936600 1.459300
-1.907400 0.734500
-1.878300 0.258900
-1.849100 0.315000
-1.819900 0.843800
-1.790700 1.932700
-1.761500 3.213300
-1.732300 3.563200
-1.703100 2.919600
-1.673900 2.070700
-1.644700 1.193000
-1.615500 0.675300
-1.586400 0.769300
-1.557200 1.039900
-1.528000 1.398100
-1.498800 1.973000
-1.469600 1.955800
-1.440400 1.086000
-1.411200 0.320500
-1.382000 0.049800
-1.352800 0.006800
-1.323600 0.026800
-1.294500 0.137800
-1.265300 0.404800
-1.236100 0.739200
-1.206900 0.998600
-1.177700 1.327000
-1.148500 1.870000
-1.119300 2.045700
-1.090100 1.459100
-1.060900 0.946000
-1.031700 1.122000
-1.002500 1.643400
-0.973400 2.174500
-0.944200 2.657700
-0.915000 3.165700
-0.885800 3.407800
-0.856600 2.932500
-0.827400 2.474800
-0.798200 2.561400
-0.769000 2.378600
-0.739800 1.573000
-0.710600 0.856400
-0.681500 0.752700
-0.652300 0.833600
-0.623100 0.579300
-0.593900 0.216600
-0.564700 0.058200
-0.535500 0.147200
-0.506300 0.689600
-0.477100 1.871200
-0.447900 3.043600
-0.418700 3.225600
-0.389600 2.373200
-0.360400 1.459000
-0.331200 1.569500
-0.302000 2.536300
-0.272800 3.398300
-0.243600 3.666600
-0.214400 3.016800
-0.185200 1.858800
-0.156000 1.836300
-0.126800 4.050500
-0.097700 7.143100
-0.068500 8.085100
-0.039300 6.194600
-0.010100 3.944500
0.019100 2.818000
0.048300 2.339700
0.077500 2.283500
0.106700 2.402700
0.135900 2.048700
0.165100 1.479500
0.194300 1.365000
0.223400 1.524700
0.252600 1.658600
0.281800 1.844400
0.311000 2.027400
0.340200 1.930200
0.369400 1.791100
0.398600 1.780500
0.427800 1.519800
0.457000 1.231700
0.486200 1.576700
0.515300 2.784000
0.544500 4.028100
0.573700 4.064300
0.602900 3.533500
0.632100 3.812400
0.661300 4.637500
0.690500 5.392600
0.719700 5.717600
0.748900 4.773500
0.778100 3.171300
0.807200 3.078700
0.836400 4.802800
0.865600 6.020200
0.894800 5.276600
0.924000 3.981900
0.953200 3.639300
0.982400 3.697300
1.011600 3.306200
1.040800 2.987100
1.070000 3.411500
1.099100 4.141700
1.128300 4.060200
1.157500 3.206600
1.186700 3.046400
1.215900 4.007500
1.245100 4.964300
1.274300 5.122100
1.303500 4.186800
1.332700 2.680300
1.361900 2.196500
1.391000 2.698600
1.420200 2.703600
1.449400 1.824500
1.478600 1.045600
1.507800 1.181400
1.537000 1.833900
1.566200 2.191400
1.595400 2.523100
1.624600 3.876500
1.653800 5.740900
1.683000 6.057300
1.712100 4.369100
1.741300 2.519400
1.770500 1.724700
1.799700 1.441600
1.828900 1.490300
1.858100 2.295100
1.887300 3.292600
1.916500 3.616200
1.945700 3.411000
1.974900 3.449200
2.004000 3.650300
2.033200 3.332100
2.062400 2.711800
2.091600 2.232400
2.120800 1.739600
2.150000 1.801500
2.179200 3.182800
2.208400 5.408800
2.237600 7.926900
2.266800 10.077500
2.295900 10.066100
2.325100 7.405400
2.354300 4.139900
2.383500 2.557800
2.412700 3.071900
2.441900 4.315400
2.471100 5.143500
2.500300 5.556000
2.529500 5.288000
2.558700 4.116800
2.587800 2.896200
2.617000 2.223500
2.646200 2.696700
2.675400 4.606700
2.704600 6.566900
2.733800 7.167200
2.763000 7.173700
2.792200 7.980700
2.821400 8.974700
2.850600 9.178500
2.879800 9.396800
2.908900 10.220600
2.938100 11.577100
2.967300 13.205100
2.996500 12.850100
3.025700 9.510000
3.054900 6.423400
3.084100 7.130000
3.113300 11.286900
3.142500 14.086100
3.171700 12.348700
3.200800 9.108900
3.230000 7.351900
3.259200 6.824800
3.288400 7.138100
3.317600 8.016900
3.346800 8.889700
3.376000 9.102900
3.405200 9.147100
3.434400 9.507400
3.463600 8.846500
3.492700 7.072400
3.521900 5.560500
3.551100 4.351900
3.580300 3.459700
3.609500 3.866000
3.638700 4.831100
3.667900 4.201300
3.697100 2.210600
3.726300 0.699000
3.755500 0.135100
3.784600 0.015900
3.813800 0.001100
3.843000 0.000000
3.872200 0.000000
3.901400 0.000000
3.930600 0.000000
3.959800 0.000000
3.989000 0.000000
4.018200 0.000000
4.047400 0.000000
4.076500 0.000000
4.105700 0.000000
4.134900 0.000000
4.164100 0.000000
4.193300 0.000000
4.222500 0.000000
4.251700 0.000000
4.280900 0.000000
4.310100 0.000000
4.339300 0.000000
4.368500 0.000000
4.397600 0.000000
4.426800 0.000000
4.456000 0.000000
4.485200 0.000000
4.514400 0.000000
4.543600 0.000000
4.572800 0.000000
4.602000 0.000000
4.631200 0.000000
4.660400 0.000000
4.689500 0.000000
4.718700 0.000000
4.747900 0.000000
4.777100 0.000000
4.806300 0.000000
4.835500 0.000000
4.864700 0.000000
4.893900 0.000000
4.923100 0.000000
4.952300 0.000000
4.981400 0.000000
5.010600 0.000000
5.039800 0.000000
5.069000 0.001000
5.098200 0.009600
5.127400 0.050800
5.156600 0.140100
5.185800 0.202800
5.215000 0.154200
5.244200 0.061600
5.273300 0.012900
5.302500 0.001400
5.331700 0.000100
5.360900 0.000000
5.390100 0.000000
5.419300 0.000000
5.448500 0.000000
5.477700 0.000000
5.506900 0.000000
5.536100 0.000000
5.565200 0.000000
5.594400 0.000000
5.623600 0.000000
5.652800 0.000000
5.682000 0.000000
5.711200 0.000000
5.740400 0.000000
5.769600 0.000200
5.798800 0.003800
5.828000 0.032200
5.857200 0.142300
5.886300 0.329900
5.915500 0.401400
5.944700 0.256500
5.973900 0.086000
6.003100 0.015100
6.032300 0.001600
6.061500 0.003300
6.090700 0.023700
6.119900 0.091100
6.149100 0.189400
6.178200 0.254800
6.207400 0.386200
6.236600 0.685700
6.265800 0.808900
6.295000 0.519100
6.324200 0.175600
6.353400 0.031100
6.382600 0.002900
6.411800 0.000200
6.441000 0.001400
6.470100 0.017600
6.499300 0.118000
6.528500 0.414200
6.557700 0.762100
6.586900 0.736400
6.616100 0.373700
6.645300 0.099400
6.674500 0.013800
6.703700 0.001000
6.732900 0.000000
6.762000 0.000000
6.791200 0.000000
6.820400 0.000000
6.849600 0.000000
6.878800 0.000100
6.908000 0.002100
6.937200 0.027800
6.966400 0.193800
6.995600 0.719700
7.024800 1.429100
7.054000 1.521500
7.083100 0.869800
7.112300 0.276500
7.141500 0.098900
7.170700 0.150600
7.199900 0.203300
7.229100 0.147600
7.258300 0.056300
7.287500 0.011200
7.316700 0.001200
7.345900 0.000800
7.375000 0.011300
7.404200 0.085900
7.433400 0.341600
7.462600 0.712100
7.491800 0.779600
7.521000 0.448200
7.550200 0.135500
7.579400 0.028600
7.608600 0.070500
7.637800 0.349300
7.666900 0.987200
7.696100 1.637400
7.725300 1.732100
7.754500 1.373500
7.783700 1.109500
7.812900 0.997700
7.842100 0.992600
7.871300 1.434600
7.900500 1.959500
7.929700 1.927900
7.958800 1.566200
7.988000 1.162100
8.017200 0.711200
8.046400 0.340800
8.075600 0.348900
8.104800 0.913100
8.134000 1.564200
8.163200 1.439400
8.192400 0.818200
8.221600 0.717400
8.250700 1.232400
8.279900 1.663800
8.309100 1.686700
8.338300 1.508800
8.367500 1.197400
8.396700 0.807700
8.425900 0.701000
8.455100 0.891500
8.484300 1.093100
8.513500 1.685300
8.542700 2.559700
8.571800 2.387600
8.601000 1.200000
8.630200 0.318100
8.659400 0.044400
8.688600 0.007600
8.717800 0.047800
8.747000 0.282800
8.776200 0.926400
8.805400 1.762000
8.834600 2.161400
8.863700 2.044700
8.892900 1.708200
8.922100 1.169500
8.951300 0.604400
8.980500 0.436600
9.009700 0.738400
9.038900 1.273900
9.068100 1.878100
9.097300 2.485700
9.126500 2.882000
9.155600 2.754600
9.184800 2.471700
9.214000 2.573400
9.243200 2.328500
9.272400 1.337500
9.301600 0.580000
9.330800 0.726500
9.360000 1.447400
9.389200 1.881200
9.418400 2.110600
9.447500 2.972400
9.476700 3.729100
9.505900 3.105400
9.535100 1.897000
9.564300 1.421700
9.593500 1.230200
9.622700 0.711200
9.651900 0.313500
9.681100 0.415800
9.710300 0.854700
9.739500 1.371000
9.768600 2.066400
9.797800 2.534700
9.827000 2.011500
9.856200 1.211000
9.885400 0.944100
9.914600 0.743400
9.943800 0.356900
9.973000 0.091700
10.002200 0.012400
10.031400 0.000900
10.060500 0.000000
10.089700 0.000000
10.118900 0.000100
10.148100 0.002100
10.177300 0.030000
10.206500 0.228100
10.235700 0.922400
10.264900 1.998900
10.294100 2.336900
10.323300 1.480400
10.352400 0.509100
10.381600 0.094900
10.410800 0.009700
10.440000 0.003300
10.469200 0.028800
10.498400 0.164600
10.527600 0.535800
10.556800 1.010100
10.586000 1.101000
10.615200 0.681500
10.644300 0.233700
10.673500 0.043400
