set title 'mp-677074 - Density of States'
set xlabel 'Energy (eV)'
set ylabel 'DOS (states/eV)'
set grid
set xrange [-10:10]
set yrange [0:10.723]
set xzeroaxis lt -1
set terminal png size 800,600
set output 'mp-677074_dos_gnuplot.png'
plot '-' using 1:2 with lines title 'DOS'
-15.392600 0.000000
-15.369500 0.000000
-15.346300 0.000000
-15.323200 0.000000
-15.300100 0.000000
-15.277000 0.000000
-15.253900 0.000000
-15.230800 0.000000
-15.207700 0.000000
-15.184600 0.000000
-15.161500 0.000000
-15.138400 0.000000
-15.115300 0.000000
-15.092100 0.000000
-15.069000 0.000000
-15.045900 0.000000
-15.022800 0.000000
-14.999700 0.000000
-14.976600 0.000000
-14.953500 0.000000
-14.930400 0.000000
-14.907300 0.000000
-14.884200 0.000000
-14.861100 0.000000
-14.837900 0.000000
-14.814800 0.000000
-14.791700 0.000000
-14.768600 0.000000
-14.745500 0.000000
-14.722400 0.000000
-14.699300 0.000000
-14.676200 0.000000
-14.653100 0.000000
-14.630000 0.000000
-14.606800 0.000000
-14.583700 0.000000
-14.560600 0.000000
-14.537500 0.000000
-14.514400 0.000000
-14.491300 0.000000
-14.468200 0.000000
-14.445100 0.000000
-14.422000 0.000000
-14.398900 0.000000
-14.375800 0.000000
-14.352600 0.000000
-14.329500 0.000000
-14.306400 0.000000
-14.283300 0.000000
-14.260200 0.000000
-14.237100 0.000000
-14.214000 0.000000
-14.190900 0.000000
-14.167800 0.000000
-14.144700 0.000000
-14.121600 0.000000
-14.098400 0.000000
-14.075300 0.000000
-14.052200 0.000000
-14.029100 0.000000
-14.006000 0.000000
-13.982900 0.000000
-13.959800 0.000000
-13.936700 0.000000
-13.913600 0.000000
-13.890500 0.000000
-13.867400 0.000000
-13.844200 0.000000
-13.821100 0.000000
-13.798000 0.000000
-13.774900 0.000000
-13.751800 0.000000
-13.728700 0.000000
-13.705600 0.000000
-13.682500 0.000000
-13.659400 0.000000
-13.636300 0.000000
-13.613100 0.000000
-13.590000 0.000000
-13.566900 0.000000
-13.543800 0.000000
-13.520700 0.000000
-13.497600 0.000000
-13.474500 0.000000
-13.451400 0.000000
-13.428300 0.000000
-13.405200 0.000000
-13.382100 0.000000
-13.358900 0.000000
-13.335800 0.000000
-13.312700 0.000000
-13.289600 3.072900
-13.266500 16.582700
-13.243400 23.838800
-13.220300 19.196100
-13.197200 15.077700
-13.174100 14.904000
-13.151000 13.965500
-13.127900 11.743300
-13.104700 13.401100
-13.081600 30.112300
-13.058500 10.756100
-13.035400 0.000000
-13.012300 0.000000
-12.989200 0.000000
-12.966100 0.000000
-12.943000 0.000000
-12.919900 0.000000
-12.896800 0.000000
-12.873700 0.000000
-12.850500 0.000000
-12.827400 0.000000
-12.804300 0.000000
-12.781200 0.000000
-12.758100 0.000000
-12.735000 0.000000
-12.711900 0.000000
-12.688800 0.000000
-12.665700 0.000000
-12.642600 0.000000
-12.619400 0.000000
-12.596300 0.000000
-12.573200 0.000000
-12.550100 0.000000
-12.527000 0.000000
-12.503900 0.000000
-12.480800 0.000000
-12.457700 0.000000
-12.434600 0.000000
-12.411500 0.000000
-12.388400 0.000000
-12.365200 3.229500
-12.342100 11.799700
-12.319000 23.132900
-12.295900 14.021200
-12.272800 20.355700
-12.249700 22.375400
-12.226600 37.178400
-12.203500 53.291200
-12.180400 79.208700
-12.157300 116.194900
-12.134200 86.276200
-12.111000 67.969600
-12.087900 54.432200
-12.064800 50.129400
-12.041700 29.703700
-12.018600 12.522800
-11.995500 11.844600
-11.972400 11.314900
-11.949300 11.782700
-11.926200 7.321500
-11.903100 1.485800
-11.880000 1.619100
-11.856800 1.739200
-11.833700 1.874200
-11.810600 2.090700
-11.787500 2.377700
-11.764400 2.654100
-11.741300 2.888800
-11.718200 3.217100
-11.695100 3.682800
-11.672000 4.410900
-11.648900 5.751700
-11.625700 5.500500
-11.602600 4.336700
-11.579500 4.477200
-11.556400 4.535700
-11.533300 4.294400
-11.510200 4.188800
-11.487100 4.216500
-11.464000 4.283000
-11.440900 4.310000
-11.417800 4.313800
-11.394700 4.357900
-11.371500 4.411500
-11.348400 4.537200
-11.325300 4.748800
-11.302200 5.154400
-11.279100 5.592900
-11.256000 5.783900
-11.232900 6.096500
-11.209800 7.667800
-11.186700 9.756700
-11.163600 12.498300
-11.140500 10.104200
-11.117300 5.053900
-11.094200 0.000000
-11.071100 0.000000
-11.048000 0.000000
-11.024900 0.000000
-11.001800 0.000000
-10.978700 0.000000
-10.955600 0.000000
-10.932500 0.000000
-10.909400 0.000000
-10.886300 0.000000
-10.863100 0.000000
-10.840000 0.000000
-10.816900 0.000000
-10.793800 0.000000
-10.770700 0.000000
-10.747600 0.000000
-10.724500 0.000000
-10.701400 0.000000
-10.678300 0.000000
-10.655200 0.000000
-10.632000 0.000000
-10.608900 0.000000
-10.585800 0.000000
-10.562700 0.000000
-10.539600 0.000000
-10.516500 0.000000
-10.493400 0.000000
-10.470300 0.000000
-10.447200 0.000000
-10.424100 0.000000
-10.401000 0.000000
-10.377800 0.000000
-10.354700 0.000000
-10.331600 0.000000
-10.308500 0.000000
-10.285400 0.000000
-10.262300 0.000000
-10.239200 0.000000
-10.216100 0.000000
-10.193000 0.000000
-10.169900 0.000000
-10.146800 0.000000
-10.123600 0.000000
-10.100500 0.000000
-10.077400 0.000000
-10.054300 0.000000
-10.031200 0.000000
-10.008100 0.000000
-9.985000 0.000000
-9.961900 0.000000
-9.938800 0.000000
-9.915700 0.000000
-9.892600 0.000000
-9.869400 0.000000
-9.846300 0.000000
-9.823200 0.000000
-9.800100 0.000000
-9.777000 0.000000
-9.753900 0.000000
-9.730800 0.000000
-9.707700 0.000000
-9.684600 0.000000
-9.661500 0.000000
-9.638300 0.000000
-9.615200 0.000000
-9.592100 0.000000
-9.569000 0.000000
-9.545900 0.000000
-9.522800 0.000000
-9.499700 0.000000
-9.476600 0.000000
-9.453500 0.000000
-9.430400 0.000000
-9.407300 0.000000
-9.384100 0.000000
-9.361000 0.000000
-9.337900 0.000000
-9.314800 0.000000
-9.291700 0.000000
-9.268600 0.000000
-9.245500 0.000000
-9.222400 0.000000
-9.199300 0.000000
-9.176200 0.000000
-9.153100 0.000000
-9.129900 0.000000
-9.106800 0.000000
-9.083700 0.000000
-9.060600 0.000000
-9.037500 0.000000
-9.014400 0.000000
-8.991300 0.000000
-8.968200 0.000000
-8.945100 0.000000
-8.922000 0.000000
-8.898800 0.000000
-8.875700 0.000000
-8.852600 0.000000
-8.829500 0.000000
-8.806400 0.000000
-8.783300 0.000000
-8.760200 0.000000
-8.737100 0.000000
-8.714000 0.000000
-8.690900 0.000000
-8.667800 0.000000
-8.644600 0.000000
-8.621500 0.000000
-8.598400 0.000000
-8.575300 0.000000
-8.552200 0.000000
-8.529100 0.000000
-8.506000 0.000000
-8.482900 0.000000
-8.459800 0.000000
-8.436700 0.000000
-8.413600 0.000000
-8.390400 0.000000
-8.367300 0.000000
-8.344200 0.000000
-8.321100 0.000000
-8.298000 0.000000
-8.274900 0.000000
-8.251800 0.000000
-8.228700 0.000000
-8.205600 0.000000
-8.182500 0.000000
-8.159400 0.000000
-8.136200 0.000000
-8.113100 0.000000
-8.090000 0.000000
-8.066900 0.000000
-8.043800 0.000000
-8.020700 0.000000
-7.997600 0.000000
-7.974500 0.000000
-7.951400 0.000000
-7.928300 0.000000
-7.905100 0.000000
-7.882000 0.000000
-7.858900 0.000000
-7.835800 0.000000
-7.812700 0.000000
-7.789600 0.000000
-7.766500 0.000000
-7.743400 0.000000
-7.720300 0.000000
-7.697200 0.000000
-7.674100 0.000000
-7.650900 0.000000
-7.627800 0.000000
-7.604700 0.000000
-7.581600 0.000000
-7.558500 0.000000
-7.535400 0.000000
-7.512300 0.000000
-7.489200 0.000000
-7.466100 0.000000
-7.443000 0.000000
-7.419900 0.000000
-7.396700 0.000000
-7.373600 0.000000
-7.350500 0.000000
-7.327400 0.000000
-7.304300 0.000000
-7.281200 0.000000
-7.258100 0.000000
-7.235000 0.000000
-7.211900 0.000000
-7.188800 0.000000
-7.165700 0.000000
-7.142500 0.000000
-7.119400 0.000000
-7.096300 0.000000
-7.073200 0.000000
-7.050100 0.000000
-7.027000 0.000000
-7.003900 0.000000
-6.980800 0.000000
-6.957700 0.000000
-6.934600 0.000000
-6.911400 0.000000
-6.888300 0.000000
-6.865200 0.000000
-6.842100 0.000000
-6.819000 0.000000
-6.795900 0.000000
-6.772800 0.000000
-6.749700 0.000000
-6.726600 0.000000
-6.703500 0.000000
-6.680400 0.000000
-6.657200 0.000000
-6.634100 0.000000
-6.611000 0.000000
-6.587900 0.000000
-6.564800 0.000000
-6.541700 0.000000
-6.518600 0.000000
-6.495500 0.000000
-6.472400 0.000000
-6.449300 0.000000
-6.426200 0.000000
-6.403000 0.000000
-6.379900 0.000000
-6.356800 0.000000
-6.333700 0.000000
-6.310600 0.000000
-6.287500 0.000000
-6.264400 0.000000
-6.241300 0.000000
-6.218200 0.000000
-6.195100 0.000000
-6.172000 0.000000
-6.148800 0.000000
-6.125700 0.000000
-6.102600 0.000000
-6.079500 0.000000
-6.056400 0.000000
-6.033300 0.000000
-6.010200 0.000000
-5.987100 0.000000
-5.964000 0.000000
-5.940900 0.000000
-5.917700 0.000000
-5.894600 0.000000
-5.871500 0.000000
-5.848400 0.000000
-5.825300 0.000000
-5.802200 0.000000
-5.779100 0.000000
-5.756000 0.000000
-5.732900 0.000000
-5.709800 0.000000
-5.686700 0.000000
-5.663500 0.000000
-5.640400 0.000000
-5.617300 0.000000
-5.594200 0.000000
-5.571100 0.000000
-5.548000 0.000000
-5.524900 0.000000
-5.501800 0.000000
-5.478700 0.000000
-5.455600 0.000000
-5.432500 0.000000
-5.409300 0.000000
-5.386200 0.000000
-5.363100 0.000000
-5.340000 0.000000
-5.316900 0.000000
-5.293800 0.000000
-5.270700 0.000000
-5.247600 0.000000
-5.224500 0.000000
-5.201400 0.000000
-5.178300 0.000000
-5.155100 0.000000
-5.132000 0.000000
-5.108900 0.000000
-5.085800 0.000000
-5.062700 0.000000
-5.039600 0.000000
-5.016500 0.000000
-4.993400 0.000000
-4.970300 0.000000
-4.947200 0.000000
-4.924000 0.000000
-4.900900 0.000000
-4.877800 0.000000
-4.854700 0.000000
-4.831600 0.000000
-4.808500 0.000000
-4.785400 0.000000
-4.762300 0.000000
-4.739200 0.000000
-4.716100 0.000000
-4.693000 0.000000
-4.669800 0.000000
-4.646700 0.000000
-4.623600 0.000000
-4.600500 0.000000
-4.577400 0.000000
-4.554300 0.000000
-4.531200 0.000000
-4.508100 0.000000
-4.485000 0.000000
-4.461900 0.000000
-4.438800 0.000000
-4.415600 0.000000
-4.392500 0.000000
-4.369400 0.000000
-4.346300 0.000000
-4.323200 0.000000
-4.300100 0.000000
-4.277000 0.000000
-4.253900 0.219900
-4.230800 0.372300
-4.207700 0.412000
-4.184600 0.521300
-4.161400 0.627800
-4.138300 0.736200
-4.115200 0.871700
-4.092100 1.065500
-4.069000 1.208200
-4.045900 1.304700
-4.022800 1.411700
-3.999700 1.547200
-3.976600 1.705400
-3.953500 1.883900
-3.930300 2.090100
-3.907200 2.428500
-3.884100 2.895500
-3.861000 3.486900
-3.837900 4.289000
-3.814800 5.517400
-3.791700 5.226900
-3.768600 5.137300
-3.745500 4.948700
-3.722400 5.193500
-3.699300 4.467700
-3.676100 3.807300
-3.653000 3.523500
-3.629900 3.332700
-3.606800 3.003600
-3.583700 2.930000
-3.560600 2.340900
-3.537500 1.958500
-3.514400 1.606200
-3.491300 1.296900
-3.468200 1.200600
-3.445100 0.978200
-3.421900 1.022600
-3.398800 0.942700
-3.375700 1.082600
-3.352600 1.236600
-3.329500 1.784500
-3.306400 2.760900
-3.283300 3.192600
-3.260200 2.932200
-3.237100 2.680400
-3.214000 2.453800
-3.190800 2.002500
-3.167700 1.818600
-3.144600 1.628800
-3.121500 1.567600
-3.098400 1.528100
-3.075300 1.359100
-3.052200 1.197900
-3.029100 1.157100
-3.006000 1.162100
-2.982900 1.179800
-2.959800 1.254000
-2.936600 1.336800
-2.913500 1.304600
-2.890400 1.334600
-2.867300 1.359100
-2.844200 1.369600
-2.821100 1.380000
-2.798000 1.389900
-2.774900 1.419500
-2.751800 1.459200
-2.728700 1.491100
-2.705600 1.485200
-2.682400 1.503200
-2.659300 1.521500
-2.636200 1.533400
-2.613100 1.542700
-2.590000 1.519000
-2.566900 1.507400
-2.543800 1.509600
-2.520700 1.476200
-2.497600 1.442000
-2.474500 1.414300
-2.451400 1.479500
-2.428200 1.483500
-2.405100 1.427300
-2.382000 1.344400
-2.358900 1.258300
-2.335800 1.159800
-2.312700 0.989300
-2.289600 0.909100
-2.266500 0.826000
-2.243400 0.740000
-2.220300 0.694100
-2.197100 0.638900
-2.174000 0.586400
-2.150900 0.536600
-2.127800 0.489500
-2.104700 0.445200
-2.081600 0.481900
-2.058500 0.421400
-2.035400 0.367500
-2.012300 0.223200
-1.989200 0.213900
-1.966100 0.204700
-1.942900 0.195700
-1.919800 0.186900
-1.896700 0.178200
-1.873600 0.169700
-1.850500 0.160200
-1.827400 0.150300
-1.804300 0.141100
-1.781200 0.132600
-1.758100 0.127400
-1.735000 0.122700
-1.711900 0.118000
-1.688700 0.113200
-1.665600 0.108400
-1.642500 0.103700
-1.619400 0.098900
-1.596300 0.094200
-1.573200 0.089500
-1.550100 0.085700
-1.527000 0.079300
-1.503900 0.073200
-1.480800 0.067400
-1.457700 0.061900
-1.434500 0.056600
-1.411400 0.051600
-1.388300 0.047400
-1.365200 0.044100
-1.342100 0.040900
-1.319000 0.037800
-1.295900 0.034800
-1.272800 0.031900
-1.249700 0.029100
-1.226600 0.026400
-1.203400 0.023800
-1.180300 0.021400
-1.157200 0.019000
-1.134100 0.016800
-1.111000 0.014600
-1.087900 0.012600
-1.064800 0.010700
-1.041700 0.008800
-1.018600 0.007100
-0.995500 0.000000
-0.972400 0.000000
-0.949200 0.000000
-0.926100 0.000000
-0.903000 0.000000
-0.879900 0.000000
-0.856800 0.000000
-0.833700 0.000000
-0.810600 0.000000
-0.787500 0.000000
-0.764400 0.000000
-0.741300 0.000000
-0.718200 0.000000
-0.695000 0.000000
-0.671900 0.000000
-0.648800 0.000000
-0.625700 0.000000
-0.602600 0.000000
-0.579500 0.000000
-0.556400 0.000000
-0.533300 0.000000
-0.510200 0.000000
-0.487100 0.000000
-0.464000 0.000000
-0.440800 0.000000
-0.417700 0.000000
-0.394600 0.000000
-0.371500 0.000000
-0.348400 0.000000
-0.325300 0.000000
-0.302200 0.000000
-0.279100 0.000000
-0.256000 0.000000
-0.232900 0.000000
-0.209700 0.000000
-0.186600 0.000000
-0.163500 0.008600
-0.140400 0.032100
-0.117300 0.064500
-0.094200 0.090800
-0.071100 0.117100
-0.048000 0.146400
-0.024900 0.178800
-0.001800 0.214300
0.021300 0.251700
0.044500 0.287400
0.067600 0.322200
0.090700 0.649100
0.113800 0.637600
0.136900 0.728200
0.160000 0.824000
0.183100 0.924800
0.206200 0.973200
0.229300 1.004000
0.252400 1.100200
0.275500 1.192200
0.298700 1.282300
0.321800 1.361200
0.344900 1.454400
0.368000 1.561900
0.391100 1.682800
0.414200 1.807600
0.437300 1.934300
0.460400 2.044500
0.483500 2.107100
0.506600 2.166400
0.529700 2.225700
0.552900 2.330000
0.576000 2.455800
0.599100 2.662400
0.622200 2.817800
0.645300 2.942600
0.668400 2.998600
0.691500 2.946500
0.714600 3.048800
0.737700 3.345300
0.760800 3.521000
0.784000 3.411200
0.807100 4.053800
0.830200 4.284500
0.853300 4.465800
0.876400 4.669300
0.899500 4.911400
0.922600 4.462000
0.945700 4.734800
0.968800 5.730200
0.991900 9.748300
1.015000 3.571600
1.038200 3.095200
1.061300 3.013700
1.084400 2.863000
1.107500 2.674300
1.130600 2.596000
1.153700 2.539600
1.176800 2.521700
1.199900 2.567900
1.223000 2.575500
1.246100 2.460200
1.269200 2.350300
1.292400 2.292200
1.315500 2.192900
1.338600 2.100900
1.361700 2.007000
1.384800 1.914500
1.407900 1.823400
1.431000 1.851400
1.454100 1.858000
1.477200 1.928600
1.500300 1.994600
1.523400 2.075400
1.546600 2.436600
1.569700 2.565200
1.592800 2.513400
1.615900 2.992700
1.639000 3.196500
1.662100 2.725700
1.685200 2.184300
1.708300 2.277700
1.731400 2.758000
1.754500 2.762700
1.777700 2.776600
1.800800 2.831900
1.823900 2.898100
1.847000 3.046700
1.870100 4.016500
1.893200 4.213900
1.916300 3.651000
1.939400 3.542300
1.962500 3.461400
1.985600 3.461700
2.008700 3.435200
2.031900 3.392800
2.055000 3.545500
2.078100 3.792500
2.101200 3.991900
2.124300 4.374200
2.147400 4.352900
2.170500 4.293400
2.193600 4.434900
2.216700 4.344600
2.239800 4.266600
2.262900 4.842100
2.286100 5.195000
2.309200 4.685200
2.332300 4.868600
2.355400 4.737900
2.378500 4.627000
2.401600 5.580800
2.424700 6.388400
2.447800 4.725700
2.470900 4.603100
2.494000 4.479100
2.517100 4.427200
2.540300 4.345700
2.563400 4.217500
2.586500 4.234700
2.609600 4.435900
2.632700 4.185600
2.655800 3.686300
2.678900 3.344200
2.702000 3.065800
2.725100 2.861300
2.748200 2.897800
2.771400 2.959600
2.794500 3.502100
2.817600 4.034600
2.840700 5.229700
2.863800 5.395600
2.886900 5.226300
2.910000 5.286800
2.933100 5.906900
2.956200 6.567400
2.979300 6.109200
3.002400 6.197200
3.025600 5.870600
3.048700 4.730700
3.071800 2.717000
3.094900 0.993100
3.118000 0.767300
3.141100 0.597900
3.164200 0.412600
3.187300 0.297300
3.210400 0.190200
3.233500 0.228300
3.256600 0.272200
3.279800 0.322000
3.302900 0.438200
3.326000 0.514300
3.349100 0.607300
3.372200 0.732200
3.395300 0.913400
3.418400 1.137900
3.441500 1.416900
3.464600 1.721000
3.487700 1.883100
3.510900 1.862900
3.534000 1.946000
3.557100 2.016000
3.580200 2.232500
3.603300 2.255700
3.626400 2.194300
3.649500 2.268300
3.672600 2.337400
3.695700 2.391500
3.718800 2.442600
3.741900 2.474100
3.765100 2.489200
3.788200 2.488100
3.811300 2.498800
3.834400 2.511900
3.857500 2.523300
3.880600 2.590300
3.903700 2.572700
3.926800 2.485900
3.949900 2.375500
3.973000 2.290200
3.996100 2.175100
4.019300 1.935400
4.042400 1.744900
4.065500 1.617100
4.088600 1.516700
4.111700 1.440100
4.134800 1.361400
4.157900 1.275100
4.181000 1.156200
4.204100 1.054300
4.227200 0.985400
4.250300 0.923900
4.273500 0.865100
4.296600 0.800200
4.319700 0.746000
4.342800 0.720200
4.365900 0.676600
4.389000 0.625900
4.412100 0.576800
4.435200 0.529400
4.458300 0.483800
4.481400 0.482700
4.504600 0.428700
4.527700 0.377400
4.550800 0.328100
4.573900 0.280500
4.597000 0.250700
4.620100 0.033000
4.643200 0.022100
4.666300 0.012100
4.689400 0.004300
4.712500 0.000000
4.735600 0.000000
4.758800 0.005600
4.781900 0.009600
4.805000 0.013000
4.828100 0.016200
4.851200 0.019200
4.874300 0.046400
4.897400 0.062700
4.920500 0.080300
4.943600 0.099200
4.966700 0.119500
4.989800 0.141300
5.013000 0.164600
5.036100 0.182600
5.059200 0.195300
5.082300 0.207300
5.105400 0.623900
5.128500 0.500700
5.151600 0.554000
5.174700 0.605800
5.197800 0.624100
5.220900 0.665100
5.244000 0.687600
5.267200 0.733900
5.290300 0.781100
5.313400 0.845000
5.336500 1.095500
5.359600 1.128300
5.382700 1.261400
5.405800 1.509200
5.428900 1.597500
5.452000 1.581900
5.475100 1.488800
5.498300 1.376100
5.521400 1.315000
5.544500 1.154500
5.567600 1.160500
5.590700 1.167000
5.613800 1.172900
5.636900 1.178300
5.660000 1.183200
5.683100 1.187600
5.706200 1.191700
5.729300 1.194400
5.752500 1.203600
5.775600 1.204100
5.798700 1.199700
5.821800 1.192200
5.844900 1.185900
5.868000 1.176300
5.891100 1.156600
5.914200 1.117700
5.937300 1.115200
5.960400 1.184700
5.983500 1.174900
6.006700 1.167000
6.029800 1.161100
6.052900 1.156600
6.076000 1.099100
6.099100 1.101900
6.122200 1.106000
6.145300 1.111600
6.168400 1.119700
6.191500 1.133100
6.214600 1.148600
6.237700 1.165700
6.260900 1.184300
6.284000 1.204300
6.307100 1.225100
6.330200 1.247100
6.353300 1.294200
6.376400 1.301000
6.399500 1.285600
6.422600 1.272100
6.445700 1.265200
6.468800 1.264500
6.492000 1.270100
6.515100 1.333500
6.538200 1.308900
6.561300 1.319300
6.584400 1.342900
6.607500 1.362400
6.630600 1.381800
6.653700 1.426100
6.676800 1.438900
6.699900 1.418200
6.723000 1.408400
6.746200 1.420000
6.769300 1.422300
6.792400 1.475900
6.815500 1.635500
6.838600 1.815500
6.861700 2.104500
6.884800 2.392500
6.907900 3.356400
6.931000 3.783200
6.954100 3.349900
6.977200 3.408000
7.000400 3.164100
7.023500 2.942100
7.046600 2.959400
7.069700 2.970800
7.092800 3.064000
7.115900 3.105500
7.139000 3.120400
7.162100 3.323600
7.185200 3.106100
7.208300 2.843700
7.231400 2.895100
7.254600 2.704600
7.277700 2.477700
7.300800 2.227200
7.323900 2.196200
7.347000 2.146800
7.370100 2.047800
7.393200 1.971800
7.416300 1.976700
7.439400 2.001000
7.462500 2.035000
7.485700 2.067100
7.508800 2.088300
7.531900 2.117400
7.555000 2.175000
7.578100 2.317600
7.601200 2.554800
7.624300 2.895200
7.647400 3.162300
7.670500 3.253800
7.693600 3.273300
7.716700 3.254800
7.739900 3.216700
7.763000 3.171300
7.786100 3.176500
7.809200 3.208200
7.832300 3.190400
7.855400 3.136000
7.878500 3.252400
7.901600 2.832000
7.924700 2.488500
7.947800 2.240500
7.970900 2.128500
7.994100 1.996000
8.017200 1.935500
8.040300 1.871400
8.063400 1.814900
8.086500 1.672800
8.109600 1.699000
8.132700 1.728600
8.155800 1.750100
8.178900 1.755300
8.202000 1.734500
8.225100 1.736600
8.248300 1.762800
8.271400 1.784100
8.294500 1.761700
8.317600 1.753200
8.340700 1.746400
8.363800 1.717500
8.386900 1.675500
8.410000 1.633500
8.433100 1.611000
8.456200 1.496400
8.479400 1.413800
8.502500 1.379800
8.525600 1.358100
8.548700 1.349300
8.571800 1.382600
8.594900 1.408500
8.618000 1.444600
8.641100 1.496300
8.664200 1.561700
8.687300 1.649900
