set title 'mp-1014212 - Density of States'
set xlabel 'Energy (eV)'
set ylabel 'DOS (states/eV)'
set grid
set xrange [-10:10]
set yrange [0:0.541]
set xzeroaxis lt -1
set terminal png size 800,600
set output 'mp-1014212_dos_gnuplot.png'
plot '-' using 1:2 with lines title 'DOS'
-10.880100 0.000000
-10.807900 0.000000
-10.735700 0.000000
-10.663500 0.000000
-10.591300 0.000000
-10.519100 0.000000
-10.446800 0.000000
-10.374600 0.000000
-10.302400 0.000000
-10.230200 0.000000
-10.158000 0.000000
-10.085800 0.000000
-10.013600 0.000000
-9.941400 0.000000
-9.869100 0.000000
-9.796900 0.000000
-9.724700 0.000000
-9.652500 0.000000
-9.580300 0.000000
-9.508100 0.000000
-9.435900 0.000000
-9.363700 0.000000
-9.291400 0.000000
-9.219200 0.000000
-9.147000 0.000000
-9.074800 0.000000
-9.002600 0.000000
-8.930400 0.000000
-8.858200 0.000000
-8.786000 0.000000
-8.713700 0.000000
-8.641500 0.000000
-8.569300 0.000000
-8.497100 0.000000
-8.424900 0.000000
-8.352700 0.000000
-8.280500 0.000000
-8.208300 0.000000
-8.136000 0.000000
-8.063800 0.000000
-7.991600 0.000000
-7.919400 0.000000
-7.847200 0.000000
-7.775000 0.000000
-7.702800 0.000000
-7.630600 0.000000
-7.558300 0.000000
-7.486100 0.000000
-7.413900 0.000000
-7.341700 0.000000
-7.269500 0.000000
-7.197300 0.000000
-7.125100 0.000000
-7.052800 0.000000
-6.980600 0.000000
-6.908400 0.000000
-6.836200 0.000000
-6.764000 0.000000
-6.691800 0.000000
-6.619600 0.000000
-6.547400 0.000000
-6.475100 0.000000
-6.402900 0.000000
-6.330700 0.000000
-6.258500 0.000000
-6.186300 0.000000
-6.114100 0.000000
-6.041900 0.000000
-5.969700 0.000000
-5.897400 0.000000
-5.825200 0.000000
-5.753000 0.000000
-5.680800 0.000000
-5.608600 0.000000
-5.536400 0.000000
-5.464200 0.000000
-5.392000 0.000000
-5.319700 0.000000
-5.247500 0.000000
-5.175300 0.000000
-5.103100 0.000000
-5.030900 0.000000
-4.958700 0.000000
-4.886500 0.000000
-4.814300 0.000000
-4.742000 0.000000
-4.669800 0.000000
-4.597600 0.000000
-4.525400 0.000000
-4.453200 0.000000
-4.381000 0.000000
-4.308800 0.012100
-4.236600 0.029400
-4.164300 0.044400
-4.092100 0.049500
-4.019900 0.060300
-3.947700 0.065900
-3.875500 0.069200
-3.803300 0.075800
-3.731100 0.083800
-3.658900 0.087000
-3.586600 0.090500
-3.514400 0.094800
-3.442200 0.099500
-3.370000 0.104700
-3.297800 0.109000
-3.225600 0.111800
-3.153400 0.114900
-3.081200 0.117900
-3.008900 0.122200
-2.936700 0.126000
-2.864500 0.129600
-2.792300 0.132700
-2.720100 0.135300
-2.647900 0.138200
-2.575700 0.141400
-2.503400 0.144300
-2.431200 0.147000
-2.359000 0.150000
-2.286800 0.153300
-2.214600 0.156500
-2.142400 0.158800
-2.070200 0.161100
-1.998000 0.163600
-1.925700 0.166500
-1.853500 0.169000
-1.781300 0.171300
-1.709100 0.173700
-1.636900 0.176300
-1.564700 0.179100
-1.492500 0.182000
-1.420300 0.184100
-1.348000 0.186400
-1.275800 0.188700
-1.203600 0.190600
-1.131400 0.192600
-1.059200 0.194800
-0.987000 0.197100
-0.914800 0.199500
-0.842600 0.202000
-0.770300 0.204500
-0.698100 0.207100
-0.625900 0.208800
-0.553700 0.211000
-0.481500 0.212800
-0.409300 0.214700
-0.337100 0.216600
-0.264900 0.218600
-0.192600 0.220600
-0.120400 0.222600
-0.048200 0.224700
0.024000 0.227000
0.096200 0.229500
0.168400 0.231900
0.240600 0.233900
0.312800 0.235400
0.385100 0.237000
0.457300 0.238600
0.529500 0.240400
0.601700 0.242300
0.673900 0.244300
0.746100 0.246300
0.818300 0.248300
0.890500 0.250300
0.962800 0.252300
1.035000 0.254400
1.107200 0.256400
1.179400 0.258500
1.251600 0.260100
1.323800 0.261900
1.396000 0.263500
1.468300 0.265300
1.540500 0.267100
1.612700 0.268900
1.684900 0.270800
1.757100 0.272800
1.829300 0.275100
1.901500 0.277600
1.973700 0.280400
2.046000 0.283300
2.118200 0.286500
2.190400 0.290200
2.262600 0.294500
2.334800 0.299000
2.407000 0.306600
2.479200 0.314300
2.551400 0.325500
2.623700 0.330200
2.695900 0.332100
2.768100 0.328700
2.840300 0.325600
2.912500 0.323100
2.984700 0.324900
3.056900 0.317500
3.129100 0.309800
3.201400 0.296100
3.273600 0.284900
3.345800 0.279800
3.418000 0.277700
3.490200 0.269700
3.562400 0.267600
3.634600 0.270700
3.706800 0.279400
3.779100 0.294400
3.851300 0.302800
3.923500 0.303400
3.995700 0.312800
4.067900 0.312400
4.140100 0.308500
4.212300 0.309300
4.284500 0.311800
4.356800 0.318900
4.429000 0.326100
4.501200 0.338700
4.573400 0.334000
4.645600 0.334800
4.717800 0.369300
4.790000 0.342900
4.862200 0.337000
4.934500 0.327400
5.006700 0.312700
5.078900 0.311600
5.151100 0.315600
5.223300 0.350800
5.295500 0.335600
5.367700 0.341400
5.439900 0.358900
5.512200 0.368600
5.584400 0.372200
5.656600 0.375400
5.728800 0.376000
5.801000 0.380300
5.873200 0.366200
5.945400 0.360400
6.017700 0.362100
6.089900 0.362800
6.162100 0.361800
6.234300 0.462900
6.306500 0.390800
6.378700 0.374900
6.450900 0.375800
6.523100 0.369400
6.595400 0.372900
6.667600 0.374200
6.739800 0.371200
6.812000 0.372800
6.884200 0.378700
6.956400 0.380700
7.028600 0.383600
7.100800 0.383400
7.173100 0.382500
7.245300 0.383900
7.317500 0.386100
7.389700 0.387700
7.461900 0.396600
7.534100 0.399900
7.606300 0.405100
7.678500 0.408800
7.750800 0.411700
7.823000 0.446000
7.895200 0.419500
7.967400 0.415800
8.039600 0.411300
8.111800 0.414200
8.184000 0.415100
8.256200 0.417800
8.328500 0.418900
8.400700 0.418300
8.472900 0.420000
8.545100 0.422900
8.617300 0.430700
8.689500 0.425400
8.761700 0.427700
8.833900 0.442900
8.906200 0.444900
8.978400 0.452000
9.050600 0.457000
9.122800 0.466700
9.195000 0.476300
9.267200 0.485500
9.339400 0.489300
9.411600 0.491400
9.483900 0.484500
9.556100 0.478700
9.628300 0.474000
9.700500 0.472000
9.772700 0.470400
9.844900 0.471500
9.917100 0.467400
9.989300 0.461600
10.061600 0.456400
10.133800 0.453100
10.206000 0.451000
10.278200 0.449300
10.350400 0.447500
10.422600 0.447600
10.494800 0.451200
10.567100 0.442000
10.639300 0.439600
10.711500 0.436500
10.783700 0.433900
10.855900 0.432100
10.928100 0.430700
11.000300 0.429700
11.072500 0.430900
11.144800 0.431300
11.217000 0.435000
11.289200 0.433000
11.361400 0.430600
11.433600 0.430800
11.505800 0.437900
11.578000 0.435900
11.650200 0.436600
11.722500 0.432800
11.794700 0.432000
11.866900 0.431200
11.939100 0.430700
12.011300 0.430100
12.083500 0.456500
12.155700 0.439200
12.227900 0.441300
12.300200 0.441800
12.372400 0.441700
12.444600 0.442000
12.516800 0.443600
12.589000 0.446600
12.661200 0.451400
12.733400 0.463600
12.805600 0.479700
12.877900 0.470000
12.950100 0.466800
13.022300 0.466300
13.094500 0.476300
13.166700 0.475400
13.238900 0.477600
13.311100 0.480400
13.383300 0.484000
13.455600 0.488500
13.527800 0.489600
13.600000 0.491000
13.672200 0.495300
13.744400 0.491200
13.816600 0.493100
13.888800 0.496900
13.961000 0.501700
14.033300 0.504500
14.105500 0.515800
14.177700 0.512400
14.249900 0.513400
14.322100 0.513600
14.394300 0.514800
14.466500 0.516100
14.538800 0.516700
14.611000 0.516800
14.683200 0.519400
14.755400 0.520300
14.827600 0.525700
14.899800 0.535300
14.972000 0.534200
15.044200 0.524300
15.116500 0.518700
15.188700 0.511200
15.260900 0.511100
15.333100 0.510100
15.405300 0.510200
15.477500 0.511500
15.549700 0.514800
15.621900 0.517800
15.694200 0.523300
15.766400 0.529700
15.838600 0.531700
15.910800 0.535300
15.983000 0.540200
16.055200 0.546100
16.127400 0.553300
16.199600 0.561000
16.271900 0.570900
16.344100 0.583600
16.416300 0.598500
16.488500 0.615500
16.560700 0.643800
16.632900 0.687900
16.705100 0.728500
16.777300 0.733100
16.849600 0.722100
16.921800 0.704400
16.994000 0.693000
17.066200 0.680300
17.138400 0.665300
17.210600 0.652600
17.282800 0.649800
17.355000 0.687200
17.427300 0.663300
17.499500 0.605100
17.571700 0.546500
17.643900 0.493100
17.716100 0.452600
17.788300 0.421700
17.860500 0.395800
17.932700 0.373600
18.005000 0.358200
18.077200 0.345400
18.149400 0.343000
18.221600 0.341000
18.293800 0.340600
18.366000 0.340800
18.438200 0.337200
18.510400 0.336200
18.582700 0.341900
18.654900 0.349600
18.727100 0.359400
18.799300 0.370600
18.871500 0.383400
18.943700 0.389400
19.015900 0.400700
19.088200 0.418900
19.160400 0.457000
19.232600 0.466200
19.304800 0.483800
19.377000 0.511800
19.449200 0.540900
19.521400 0.573700
19.593600 0.603100
19.665900 0.628900
19.738100 0.649800
19.810300 0.670400
19.882500 0.676600
19.954700 0.665900
20.026900 0.646300
20.099100 0.637100
20.171300 0.604800
20.243600 0.574400
20.315800 0.555600
20.388000 0.547800
20.460200 0.510300
20.532400 0.489800
20.604600 0.470200
20.676800 0.462500
20.749000 0.472900
20.821300 0.468500
20.893500 0.474200
20.965700 0.502400
21.037900 0.552600
21.110100 0.601300
21.182300 0.656300
21.254500 0.730700
21.326700 0.804000
21.399000 0.856400
21.471200 0.880900
21.543400 0.881900
21.615600 0.867400
21.687800 0.855900
21.760000 0.839200
21.832200 0.817700
21.904400 0.829600
21.976700 0.831400
22.048900 0.820100
22.121100 0.841800
22.193300 0.775400
22.265500 0.730500
22.337700 0.690700
22.409900 0.652100
22.482100 0.627100
22.554400 0.612300
22.626600 0.598300
22.698800 0.587600
22.771000 0.582100
22.843200 0.582700
22.915400 0.588400
22.987600 0.592300
23.059800 0.602800
23.132100 0.617700
23.204300 0.569000
23.276500 0.555300
23.348700 0.513500
23.420900 0.501600
23.493100 0.481900
23.565300 0.471200
23.637600 0.459800
23.709800 0.453000
23.782000 0.456900
23.854200 0.457100
23.926400 0.456700
23.998600 0.460000
24.070800 0.469800
24.143000 0.490200
24.215300 0.515800
24.287500 0.540600
24.359700 0.586700
24.431900 0.637900
24.504100 0.686600
24.576300 0.714800
24.648500 0.720400
24.720700 0.727200
24.793000 0.742800
24.865200 0.720500
24.937400 0.703200
25.009600 0.696200
25.081800 0.691500
25.154000 0.695900
25.226200 0.676300
25.298400 0.662100
25.370700 0.657700
25.442900 0.655600
25.515100 0.652400
25.587300 0.652700
25.659500 0.677500
25.731700 0.668600
25.803900 0.651600
25.876100 0.646100
25.948400 0.645900
26.020600 0.647900
26.092800 0.656300
26.165000 0.645200
26.237200 0.635300
26.309400 0.625600
26.381600 0.616300
26.453800 0.614200
26.526100 0.609700
26.598300 0.608900
26.670500 0.609900
26.742700 0.612500
26.814900 0.611700
26.887100 0.614400
26.959300 0.613800
27.031500 0.614000
27.103800 0.615900
27.176000 0.615400
27.248200 0.628000
27.320400 0.634800
27.392600 0.640300
27.464800 0.668400
27.537000 0.687900
27.609300 0.705500
27.681500 0.739200
27.753700 0.750100
27.825900 0.762300
27.898100 0.772100
27.970300 0.785200
28.042500 0.787500
28.114700 0.796300
28.187000 0.796200
28.259200 0.803500
28.331400 0.805300
28.403600 0.810500
28.475800 0.823500
28.548000 0.836400
28.620200 0.837900
28.692400 0.828500
28.764700 0.815600
28.836900 0.811700
28.909100 0.803600
28.981300 0.797300
29.053500 0.793800
29.125700 0.796000
29.197900 0.799800
29.270100 0.800400
29.342400 0.805700
29.414600 0.822300
29.486800 0.830400
29.559000 0.860600
29.631200 0.857200
29.703400 0.857600
29.775600 0.839600
29.847800 0.820300
29.920100 0.811800
29.992300 0.792300
30.064500 0.777000
30.136700 0.761500
30.208900 0.743100
30.281100 0.622600
30.353300 0.596200
30.425500 0.568200
30.497800 0.526600
30.570000 0.485500
30.642200 0.460500
30.714400 0.446200
30.786600 0.440200
30.858800 0.416600
30.931000 0.411100
31.003200 0.409800
31.075500 0.426600
31.147700 0.399300
31.219900 0.375600
31.292100 0.370900
31.364300 0.366800
31.436500 0.387300
31.508700 0.358600
31.580900 0.344900
31.653200 0.346000
31.725400 0.358800
31.797600 0.362200
31.869800 0.360800
31.942000 0.363100
32.014200 0.366700
32.086400 0.377300
32.158700 0.369600
32.230900 0.376600
32.303100 0.384700
32.375300 0.392900
32.447500 0.408800
32.519700 0.423400
32.591900 0.439000
32.664100 0.474900
32.736400 0.502900
32.808600 0.530100
32.880800 0.561300
32.953000 0.605700
33.025200 0.661100
33.097400 0.699700
33.169600 0.718100
33.241800 0.719300
33.314100 0.705600
33.386300 0.700300
33.458500 0.678600
33.530700 0.674200
33.602900 0.684800
33.675100 0.698200
33.747300 0.715100
33.819500 0.716100
33.891800 0.718100
33.964000 0.698800
34.036200 0.674700
34.108400 0.690400
34.180600 0.580000
34.252800 0.544600
34.325000 0.568200
34.397200 0.620700
34.469500 0.683800
34.541700 0.736700
34.613900 0.789100
34.686100 0.828700
34.758300 0.852500
34.830500 0.845300
34.902700 0.851100
34.974900 0.788300
35.047200 0.744100
35.119400 0.717900
35.191600 0.705200
35.263800 0.669100
35.336000 0.666200
35.408200 0.738200
35.480400 0.734600
35.552600 0.709000
35.624900 0.712600
35.697100 0.689400
35.769300 0.646700
35.841500 0.592100
35.913700 0.561500
35.985900 0.549400
36.058100 0.542900
36.130300 0.526300
36.202600 0.530900
36.274800 0.553100
36.347000 0.577100
36.419200 0.592000
36.491400 0.612400
36.563600 0.643400
36.635800 0.660600
36.708100 0.670700
36.780300 0.686800
36.852500 0.700800
36.924700 0.720600
36.996900 0.740500
37.069100 0.785500
37.141300 0.793600
37.213500 0.793400
37.285800 0.799300
37.358000 0.775700
37.430200 0.785300
37.502400 0.775500
37.574600 0.769200
37.646800 0.744900
37.719000 0.710500
37.791200 0.663700
37.863500 0.641400
37.935700 0.603500
38.007900 0.590700
38.080100 0.583000
38.152300 0.571000
38.224500 0.561700
38.296700 0.558900
38.368900 0.555100
38.441200 0.550900
38.513400 0.549200
38.585600 0.556400
38.657800 0.556100
38.730000 0.565800
38.802200 0.581800
38.874400 0.592100
38.946600 0.598800
39.018900 0.605600
39.091100 0.602500
39.163300 0.604900
39.235500 0.610900
39.307700 0.610400
39.379900 0.614600
39.452100 0.620500
39.524300 0.632100
39.596600 0.637800
39.668800 0.642000
39.741000 0.645400
39.813200 0.653300
39.885400 0.662400
39.957600 0.674200
40.029800 0.677300
40.102000 0.691000
40.174300 0.709900
40.246500 0.718100
40.318700 0.675300
40.390900 0.671400
40.463100 0.678700
40.535300 0.684200
40.607500 0.688000
40.679800 0.690800
40.752000 0.708000
40.824200 0.748300
40.896400 0.675500
40.968600 0.657900
41.040800 0.644100
41.113000 0.604500
41.185200 0.606000
41.257500 0.612700
41.329700 0.618600
41.401900 0.627300
41.474100 0.641700
41.546300 0.656400
41.618500 0.663500
41.690700 0.669700
41.762900 0.679800
41.835200 0.695000
41.907400 0.696100
41.979600 0.718100
42.051800 0.734400
42.124000 0.748700
42.196200 0.766000
42.268400 0.775400
42.340600 0.779700
42.412900 0.796500
42.485100 0.817000
42.557300 0.844800
42.629500 0.892800
42.701700 0.912200
42.773900 0.937500
42.846100 0.911500
42.918300 0.882100
42.990600 0.864100
43.062800 0.843400
43.135000 0.830700
43.207200 0.821200
43.279400 0.807100
43.351600 0.798100
43.423800 0.804200
43.496000 0.803000
43.568300 0.804100
43.640500 0.801100
43.712700 0.784200
43.784900 0.768900
43.857100 0.770500
43.929300 0.774600
44.001500 0.773500
44.073700 0.771300
44.146000 0.766100
44.218200 0.756000
44.290400 0.761600
44.362600 0.743500
44.434800 0.729400
44.507000 0.718300
44.579200 0.698900
44.651400 0.679500
44.723700 0.675600
44.795900 0.694800
44.868100 0.760800
44.940300 0.836800
45.012500 0.929800
45.084700 0.925600
45.156900 0.879700
45.229200 0.867500
45.301400 0.857200
45.373600 0.854400
45.445800 0.849500
45.518000 0.838300
45.590200 0.832900
45.662400 0.812400
45.734600 0.793400
45.806900 0.775500
45.879100 0.758900
45.951300 0.740900
46.023500 0.717300
46.095700 0.696700
46.167900 0.687600
46.240100 0.676600
46.312300 0.668900
46.384600 0.664600
46.456800 0.663700
46.529000 0.674400
46.601200 0.689100
46.673400 0.702800
46.745600 0.718400
46.817800 0.732300
46.890000 0.728500
46.962300 0.719500
47.034500 0.720400
47.106700 0.701600
47.178900 0.693200
47.251100 0.685800
47.323300 0.677900
47.395500 0.675700
47.467700 0.673100
47.540000 0.671100
47.612200 0.669700
47.684400 0.669000
47.756600 0.667600
47.828800 0.672100
47.901000 0.670300
47.973200 0.662200
48.045400 0.669700
48.117700 0.661500
48.189900 0.670200
48.262100 0.712500
48.334300 0.739900
48.406500 0.781400
48.478700 0.806200
48.550900 0.803300
48.623100 0.794800
48.695400 0.811300
48.767600 0.831800
48.839800 0.842700
48.912000 0.859500
48.984200 0.850600
49.056400 0.881300
49.128600 0.843600
49.200800 0.861400
49.273100 0.769800
49.345300 0.772600
49.417500 0.802800
49.489700 0.853200
49.561900 0.855200
49.634100 0.864000
49.706300 0.895700
49.778600 0.930300
49.850800 0.894500
49.923000 0.920200
49.995200 0.942400
50.067400 1.025300
50.139600 1.147100
50.211800 1.260600
50.284000 1.286900
50.356300 1.349300
50.428500 1.396300
50.500700 1.348300
50.572900 1.186000
50.645100 1.137500
50.717300 1.107600
50.789500 1.119100
50.861700 1.141300
50.934000 1.068300
51.006200 0.815400
51.078400 0.733600
51.150600 0.691700
51.222800 0.658500
51.295000 0.619900
51.367200 0.605400
51.439400 0.597000
51.511700 0.588900
51.583900 0.597000
51.656100 0.615500
51.728300 0.644400
51.800500 0.671700
51.872700 0.712400
51.944900 0.742200
52.017100 0.767000
52.089400 0.782600
52.161600 0.784900
52.233800 0.766100
52.306000 0.762100
52.378200 0.766000
52.450400 0.770900
52.522600 0.754700
52.594800 0.758100
52.667100 0.774700
52.739300 0.778900
52.811500 0.740600
52.883700 0.722000
52.955900 0.717300
53.028100 0.710900
53.100300 0.698200
53.172500 0.691500
53.244800 0.693100
53.317000 0.694300
53.389200 0.680000
53.461400 0.661100
53.533600 0.652800
53.605800 0.644300
53.678000 0.640000
53.750300 0.638700
53.822500 0.642300
53.894700 0.649800
53.966900 0.661500
54.039100 0.672300
54.111300 0.696900
54.183500 0.725100
54.255700 0.735600
54.328000 0.760300
54.400200 0.769400
54.472400 0.768100
54.544600 0.770500
54.616800 0.786700
54.689000 0.807900
54.761200 0.829100
54.833400 0.849600
54.905700 0.868000
54.977900 0.868800
55.050100 0.862200
55.122300 0.855200
55.194500 0.857800
55.266700 0.884300
55.338900 0.946600
55.411100 0.898700
55.483400 0.823400
55.555600 0.791400
55.627800 0.772800
55.700000 0.764200
55.772200 0.759400
55.844400 0.762800
55.916600 0.784500
55.988800 0.882300
56.061100 0.898000
56.133300 0.807300
56.205500 0.776500
56.277700 0.769800
56.349900 0.773900
56.422100 0.774600
56.494300 0.777100
56.566500 0.783000
56.638800 0.794200
56.711000 0.805600
56.783200 0.811500
56.855400 0.819500
56.927600 0.824200
56.999800 0.839000
57.072000 0.842100
57.144200 0.859500
57.216500 0.871100
57.288700 0.891000
57.360900 0.905800
57.433100 0.957400
57.505300 0.898400
57.577500 0.841400
57.649700 0.820300
57.721900 0.754100
57.794200 0.749500
57.866400 0.750600
57.938600 0.742000
58.010800 0.737200
58.083000 0.742600
58.155200 0.764400
58.227400 0.795100
58.299700 0.839100
58.371900 0.833700
58.444100 0.861700
58.516300 0.951700
58.588500 0.968900
58.660700 0.969000
58.732900 0.952500
58.805100 0.961200
58.877400 0.951100
58.949600 0.944900
59.021800 0.916500
59.094000 0.892900
59.166200 0.855300
59.238400 0.829800
59.310600 0.800500
59.382800 0.776900
59.455100 0.758900
59.527300 0.745300
59.599500 0.753100
59.671700 0.742000
59.743900 0.741700
59.816100 0.771100
59.888300 0.785200
59.960500 0.800600
60.032800 0.897800
60.105000 0.866100
60.177200 0.975500
60.249400 0.998700
60.321600 0.969400
60.393800 0.926800
60.466000 0.864300
60.538200 0.819100
60.610500 0.798000
60.682700 0.789900
60.754900 0.786700
60.827100 0.769500
60.899300 0.743300
60.971500 0.746000
61.043700 0.761700
61.115900 0.782100
61.188200 0.841000
61.260400 0.898800
61.332600 0.953700
61.404800 1.057700
61.477000 1.085400
61.549200 1.099000
61.621400 1.076800
61.693600 1.053100
61.765900 1.032700
61.838100 1.019100
61.910300 1.015200
61.982500 1.016700
62.054700 1.019900
62.126900 1.027000
62.199100 1.017800
62.271300 0.993300
62.343600 0.992000
62.415800 0.979900
62.488000 0.956200
62.560200 0.987300
62.632400 1.001400
62.704600 0.998400
62.776800 1.005800
62.849100 0.985500
62.921300 0.966700
62.993500 0.969400
63.065700 0.988600
63.137900 1.002700
63.210100 1.014600
63.282300 1.023100
63.354500 0.989800
63.426800 0.973600
63.499000 0.965100
63.571200 0.942300
63.643400 0.904700
63.715600 0.888300
63.787800 0.891100
63.860000 0.883000
63.932200 0.868500
64.004500 0.834600
64.076700 0.808300
64.148900 0.793300
64.221100 0.790800
64.293300 0.815300
64.365500 0.805000
64.437700 0.773000
