set title 'mp-7761 - Density of States'
set xlabel 'Energy (eV)'
set ylabel 'DOS (states/eV)'
set grid
set xrange [-10:10]
set yrange [0:0.984]
set xzeroaxis lt -1
set terminal png size 800,600
set output 'mp-7761_dos_gnuplot.png'
plot '-' using 1:2 with lines title 'DOS'
-6.111300 0.000000
-6.092100 0.000000
-6.072900 0.000000
-6.053700 0.000000
-6.034500 0.000000
-6.015300 0.000000
-5.996100 0.000000
-5.976900 0.000000
-5.957700 0.000000
-5.938500 0.000000
-5.919300 0.000000
-5.900100 0.000000
-5.880900 0.000000
-5.861700 0.000000
-5.842500 0.000000
-5.823200 0.000000
-5.804000 0.000000
-5.784800 0.000000
-5.765600 0.000000
-5.746400 0.000000
-5.727200 0.000000
-5.708000 0.000000
-5.688800 0.000000
-5.669600 0.000000
-5.650400 0.000000
-5.631200 0.000000
-5.612000 0.000000
-5.592800 0.000000
-5.573600 0.000000
-5.554400 0.000000
-5.535200 0.000000
-5.516000 0.000000
-5.496800 0.000000
-5.477600 0.000000
-5.458400 0.000000
-5.439200 0.000000
-5.420000 0.000000
-5.400800 0.000000
-5.381600 0.000000
-5.362400 0.000000
-5.343200 0.000000
-5.323900 0.000000
-5.304700 0.000000
-5.285500 0.000000
-5.266300 0.000000
-5.247100 0.000000
-5.227900 0.000000
-5.208700 0.000000
-5.189500 0.000000
-5.170300 0.000000
-5.151100 0.000000
-5.131900 0.000000
-5.112700 0.000000
-5.093500 0.000000
-5.074300 0.000000
-5.055100 0.000000
-5.035900 0.000000
-5.016700 0.000000
-4.997500 0.000000
-4.978300 0.000000
-4.959100 0.000000
-4.939900 0.000000
-4.920700 0.000000
-4.901500 0.000000
-4.882300 0.000000
-4.863100 0.000000
-4.843900 0.000000
-4.824600 0.000000
-4.805400 0.000000
-4.786200 0.000000
-4.767000 0.000000
-4.747800 0.000000
-4.728600 0.000000
-4.709400 0.000000
-4.690200 0.000000
-4.671000 0.000000
-4.651800 0.000000
-4.632600 0.000000
-4.613400 0.000000
-4.594200 0.000000
-4.575000 0.000000
-4.555800 0.000000
-4.536600 0.000000
-4.517400 0.000000
-4.498200 0.000000
-4.479000 0.000000
-4.459800 0.000000
-4.440600 0.000000
-4.421400 0.000000
-4.402200 0.000000
-4.383000 0.000000
-4.363800 0.015700
-4.344600 0.028000
-4.325300 0.037300
-4.306100 0.046900
-4.286900 0.057900
-4.267700 0.064000
-4.248500 0.062100
-4.229300 0.067500
-4.210100 0.073200
-4.190900 0.079200
-4.171700 0.085400
-4.152500 0.089100
-4.133300 0.093300
-4.114100 0.096500
-4.094900 0.098200
-4.075700 0.099900
-4.056500 0.102400
-4.037300 0.106300
-4.018100 0.110500
-3.998900 0.114900
-3.979700 0.119500
-3.960500 0.124300
-3.941300 0.125600
-3.922100 0.127200
-3.902900 0.128800
-3.883700 0.130900
-3.864500 0.133300
-3.845300 0.135600
-3.826000 0.138100
-3.806800 0.140800
-3.787600 0.143500
-3.768400 0.146300
-3.749200 0.149200
-3.730000 0.152400
-3.710800 0.155400
-3.691600 0.158200
-3.672400 0.160300
-3.653200 0.161900
-3.634000 0.163300
-3.614800 0.165300
-3.595600 0.167200
-3.576400 0.169000
-3.557200 0.170700
-3.538000 0.172300
-3.518800 0.174600
-3.499600 0.177000
-3.480400 0.179700
-3.461200 0.182200
-3.442000 0.184800
-3.422800 0.186600
-3.403600 0.188800
-3.384400 0.191000
-3.365200 0.193100
-3.346000 0.195100
-3.326700 0.196600
-3.307500 0.198200
-3.288300 0.199800
-3.269100 0.201500
-3.249900 0.203300
-3.230700 0.205200
-3.211500 0.207200
-3.192300 0.209100
-3.173100 0.210900
-3.153900 0.212800
-3.134700 0.214600
-3.115500 0.216400
-3.096300 0.218100
-3.077100 0.219700
-3.057900 0.221500
-3.038700 0.223600
-3.019500 0.225700
-3.000300 0.227700
-2.981100 0.229700
-2.961900 0.231700
-2.942700 0.233800
-2.923500 0.235300
-2.904300 0.236800
-2.885100 0.238300
-2.865900 0.239800
-2.846700 0.241300
-2.827500 0.242800
-2.808200 0.244600
-2.789000 0.246400
-2.769800 0.248200
-2.750600 0.250200
-2.731400 0.252100
-2.712200 0.253700
-2.693000 0.255400
-2.673800 0.257000
-2.654600 0.258600
-2.635400 0.260200
-2.616200 0.261800
-2.597000 0.263500
-2.577800 0.265200
-2.558600 0.267000
-2.539400 0.268700
-2.520200 0.270700
-2.501000 0.272800
-2.481800 0.274900
-2.462600 0.276800
-2.443400 0.278300
-2.424200 0.279800
-2.405000 0.281500
-2.385800 0.283200
-2.366600 0.284900
-2.347400 0.286600
-2.328200 0.288400
-2.308900 0.290100
-2.289700 0.291700
-2.270500 0.293300
-2.251300 0.294700
-2.232100 0.296300
-2.212900 0.298000
-2.193700 0.299800
-2.174500 0.301600
-2.155300 0.303400
-2.136100 0.305200
-2.116900 0.307100
-2.097700 0.309000
-2.078500 0.310900
-2.059300 0.312800
-2.040100 0.314700
-2.020900 0.316700
-2.001700 0.318600
-1.982500 0.320600
-1.963300 0.322600
-1.944100 0.324400
-1.924900 0.326100
-1.905700 0.327900
-1.886500 0.329800
-1.867300 0.331900
-1.848100 0.334000
-1.828900 0.336000
-1.809600 0.337800
-1.790400 0.339700
-1.771200 0.341600
-1.752000 0.343500
-1.732800 0.345400
-1.713600 0.347400
-1.694400 0.349400
-1.675200 0.351400
-1.656000 0.353400
-1.636800 0.355500
-1.617600 0.357500
-1.598400 0.359500
-1.579200 0.361700
-1.560000 0.363900
-1.540800 0.366200
-1.521600 0.368600
-1.502400 0.371200
-1.483200 0.373700
-1.464000 0.376200
-1.444800 0.378800
-1.425600 0.381300
-1.406400 0.383900
-1.387200 0.386300
-1.368000 0.388900
-1.348800 0.391400
-1.329600 0.394000
-1.310300 0.396500
-1.291100 0.399000
-1.271900 0.401500
-1.252700 0.404100
-1.233500 0.406900
-1.214300 0.409900
-1.195100 0.413000
-1.175900 0.416000
-1.156700 0.419100
-1.137500 0.422300
-1.118300 0.425500
-1.099100 0.428800
-1.079900 0.432200
-1.060700 0.435700
-1.041500 0.439200
-1.022300 0.442700
-1.003100 0.446300
-0.983900 0.449900
-0.964700 0.453600
-0.945500 0.457300
-0.926300 0.461300
-0.907100 0.465700
-0.887900 0.470200
-0.868700 0.475000
-0.849500 0.480000
-0.830300 0.485200
-0.811000 0.490700
-0.791800 0.496300
-0.772600 0.502000
-0.753400 0.507800
-0.734200 0.513800
-0.715000 0.520000
-0.695800 0.526400
-0.676600 0.533000
-0.657400 0.539900
-0.638200 0.547600
-0.619000 0.556700
-0.599800 0.566900
-0.580600 0.577700
-0.561400 0.589300
-0.542200 0.602000
-0.523000 0.615600
-0.503800 0.630300
-0.484600 0.646000
-0.465400 0.663400
-0.446200 0.697000
-0.427000 0.720500
-0.407800 0.743400
-0.388600 0.765900
-0.369400 0.794400
-0.350200 0.779800
-0.331000 0.765000
-0.311700 0.753500
-0.292500 0.746200
-0.273300 0.739600
-0.254100 0.734100
-0.234900 0.729700
-0.215700 0.727900
-0.196500 0.736500
-0.177300 0.773500
-0.158100 0.751900
-0.138900 0.745100
-0.119700 0.735000
-0.100500 0.730700
-0.081300 0.718500
-0.062100 0.712500
-0.042900 0.706900
-0.023700 0.701100
-0.004500 0.694800
0.014700 0.688100
0.033900 0.681100
0.053100 0.675800
0.072300 0.673600
0.091500 0.679100
0.110700 0.674600
0.129900 0.672400
0.149100 0.668300
0.168300 0.687800
0.187500 0.680700
0.206800 0.681400
0.226000 0.678000
0.245200 0.669100
0.264400 0.658600
0.283600 0.646400
0.302800 0.649900
0.322000 0.642400
0.341200 0.622000
0.360400 0.605600
0.379600 0.590800
0.398800 0.571400
0.418000 0.503600
0.437200 0.467400
0.456400 0.434300
0.475600 0.400600
0.494800 0.373200
0.514000 0.347400
0.533200 0.331800
0.552400 0.312900
0.571600 0.271500
0.590800 0.255400
0.610000 0.247000
0.629200 0.239000
0.648400 0.231300
0.667600 0.224000
0.686800 0.217000
0.706100 0.210400
0.725300 0.204200
0.744500 0.198500
0.763700 0.193800
0.782900 0.190100
0.802100 0.186700
0.821300 0.183500
0.840500 0.180400
0.859700 0.177400
0.878900 0.174100
0.898100 0.169200
0.917300 0.162500
0.936500 0.159500
0.955700 0.157800
0.974900 0.157000
0.994100 0.154700
1.013300 0.150500
1.032500 0.146400
1.051700 0.142400
1.070900 0.138500
1.090100 0.134700
1.109300 0.131000
1.128500 0.127300
1.147700 0.124400
1.166900 0.121400
1.186100 0.118600
1.205400 0.116200
1.224600 0.114000
1.243800 0.111900
1.263000 0.109800
1.282200 0.107900
1.301400 0.106000
1.320600 0.104100
1.339800 0.102400
1.359000 0.099200
1.378200 0.096400
1.397400 0.094100
1.416600 0.092400
1.435800 0.090800
1.455000 0.089300
1.474200 0.087800
1.493400 0.086400
1.512600 0.084900
1.531800 0.083300
1.551000 0.081100
1.570200 0.078900
1.589400 0.076800
1.608600 0.074800
1.627800 0.072800
1.647000 0.070900
1.666200 0.069000
1.685400 0.067200
1.704700 0.065700
1.723900 0.064200
1.743100 0.062900
1.762300 0.061600
1.781500 0.060300
1.800700 0.059200
1.819900 0.057800
1.839100 0.056300
1.858300 0.054800
1.877500 0.053300
1.896700 0.051900
1.915900 0.050500
1.935100 0.049400
1.954300 0.048400
1.973500 0.047700
1.992700 0.047000
2.011900 0.046000
2.031100 0.044900
2.050300 0.043400
2.069500 0.041900
2.088700 0.040400
2.107900 0.039000
2.127100 0.037500
2.146300 0.036100
2.165500 0.034700
2.184700 0.034400
2.204000 0.033300
2.223200 0.032200
2.242400 0.031100
2.261600 0.030100
2.280800 0.029100
2.300000 0.028000
2.319200 0.027000
2.338400 0.026000
2.357600 0.025100
2.376800 0.024100
2.396000 0.023200
2.415200 0.023500
2.434400 0.022500
2.453600 0.021400
2.472800 0.020200
2.492000 0.018900
2.511200 0.017600
2.530400 0.016100
2.549600 0.014600
2.568800 0.013300
2.588000 0.012600
2.607200 0.011800
2.626400 0.010800
2.645600 0.009800
2.664800 0.008600
2.684000 0.007200
2.703300 0.005800
2.722500 0.000000
2.741700 0.000000
2.760900 0.000000
2.780100 0.000000
2.799300 0.000000
2.818500 0.000000
2.837700 0.000000
2.856900 0.000000
2.876100 0.010200
2.895300 0.026400
2.914500 0.049900
2.933700 0.085000
2.952900 0.085200
2.972100 0.096000
2.991300 0.107100
3.010500 0.118600
3.029700 0.130400
3.048900 0.143900
3.068100 0.181600
3.087300 0.185000
3.106500 0.194300
3.125700 0.202200
3.144900 0.208100
3.164100 0.208100
3.183300 0.214200
3.202600 0.220600
3.221800 0.227400
3.241000 0.234500
3.260200 0.243000
3.279400 0.255100
3.298600 0.265500
3.317800 0.273800
3.337000 0.280700
3.356200 0.288800
3.375400 0.295900
3.394600 0.313100
3.413800 0.314700
3.433000 0.319200
3.452200 0.326500
3.471400 0.334000
3.490600 0.340500
3.509800 0.340200
3.529000 0.346700
3.548200 0.353300
3.567400 0.360700
3.586600 0.370200
3.605800 0.379300
3.625000 0.387800
3.644200 0.395600
3.663400 0.401400
3.682600 0.415900
3.701800 0.404600
3.721100 0.411500
3.740300 0.419000
3.759500 0.427100
3.778700 0.435500
3.797900 0.444200
3.817100 0.453100
3.836300 0.462200
3.855500 0.471400
3.874700 0.480200
3.893900 0.488800
3.913100 0.499700
3.932300 0.508800
3.951500 0.517100
3.970700 0.524600
3.989900 0.531600
4.009100 0.540600
4.028300 0.553400
4.047500 0.566200
4.066700 0.581800
4.085900 0.593800
4.105100 0.606000
4.124300 0.619800
4.143500 0.635200
4.162700 0.651500
4.181900 0.668300
4.201100 0.705000
4.220400 0.731600
4.239600 0.745400
4.258800 0.756500
4.278000 0.767100
4.297200 0.778000
4.316400 0.789300
4.335600 0.801000
4.354800 0.838800
4.374000 0.873500
4.393200 0.894100
4.412400 0.775800
4.431600 0.758400
4.450800 0.749200
4.470000 0.740100
4.489200 0.730600
4.508400 0.721200
4.527600 0.712000
4.546800 0.702800
4.566000 0.694000
4.585200 0.692800
4.604400 0.677300
4.623600 0.662800
4.642800 0.649000
4.662000 0.633000
4.681200 0.620100
4.700400 0.608400
4.719700 0.597100
4.738900 0.586400
4.758100 0.573700
4.777300 0.561800
4.796500 0.554100
4.815700 0.547100
4.834900 0.540800
4.854100 0.534900
4.873300 0.529100
4.892500 0.522500
4.911700 0.518400
4.930900 0.515500
4.950100 0.512900
4.969300 0.510500
4.988500 0.508200
5.007700 0.505300
5.026900 0.501700
5.046100 0.502000
5.065300 0.501200
5.084500 0.499900
5.103700 0.500000
5.122900 0.497700
5.142100 0.485100
5.161300 0.481800
5.180500 0.481800
5.199700 0.482600
5.219000 0.493300
5.238200 0.497500
5.257400 0.501200
5.276600 0.504200
5.295800 0.506600
5.315000 0.504800
5.334200 0.510600
5.353400 0.512800
5.372600 0.515100
5.391800 0.517600
5.411000 0.520300
5.430200 0.522900
5.449400 0.522100
5.468600 0.523800
5.487800 0.524900
5.507000 0.525400
5.526200 0.525100
5.545400 0.525500
5.564600 0.525100
5.583800 0.527800
5.603000 0.528800
5.622200 0.530000
5.641400 0.531300
5.660600 0.532500
5.679800 0.534200
5.699000 0.535700
5.718300 0.543900
5.737500 0.545000
5.756700 0.546300
5.775900 0.547700
5.795100 0.549200
5.814300 0.551400
5.833500 0.554200
5.852700 0.557200
5.871900 0.551600
5.891100 0.552600
5.910300 0.554700
5.929500 0.557300
5.948700 0.559800
5.967900 0.562000
5.987100 0.565500
6.006300 0.570700
6.025500 0.580600
6.044700 0.569200
6.063900 0.567600
6.083100 0.571700
6.102300 0.572100
6.121500 0.565700
6.140700 0.565600
6.159900 0.565400
6.179100 0.565200
6.198300 0.564900
6.217600 0.573900
6.236800 0.570900
6.256000 0.574200
6.275200 0.581200
6.294400 0.590300
6.313600 0.595900
6.332800 0.599800
6.352000 0.603200
6.371200 0.606400
6.390400 0.613300
6.409600 0.615900
6.428800 0.621200
6.448000 0.620000
6.467200 0.623000
6.486400 0.630700
6.505600 0.636200
6.524800 0.639800
6.544000 0.626400
6.563200 0.627200
6.582400 0.627500
6.601600 0.627000
6.620800 0.626200
6.640000 0.625300
6.659200 0.625500
6.678400 0.626000
6.697600 0.626600
6.716800 0.627500
6.736100 0.626600
6.755300 0.627200
6.774500 0.629100
6.793700 0.640100
6.812900 0.621500
6.832100 0.620900
6.851300 0.620500
6.870500 0.632000
6.889700 0.630800
6.908900 0.625800
6.928100 0.627100
6.947300 0.627800
6.966500 0.627700
6.985700 0.627300
7.004900 0.626900
7.024100 0.632200
7.043300 0.629500
7.062500 0.628300
7.081700 0.626100
7.100900 0.624800
7.120100 0.624600
7.139300 0.625100
7.158500 0.626000
7.177700 0.627400
7.196900 0.629300
7.216100 0.628800
7.235400 0.628900
7.254600 0.628700
7.273800 0.628200
7.293000 0.627300
7.312200 0.627800
7.331400 0.628200
7.350600 0.630100
7.369800 0.634700
7.389000 0.626400
7.408200 0.626200
7.427400 0.628700
7.446600 0.628500
7.465800 0.628100
7.485000 0.627000
7.504200 0.626400
7.523400 0.626000
7.542600 0.625700
7.561800 0.625400
7.581000 0.625400
7.600200 0.625200
7.619400 0.625000
7.638600 0.624800
7.657800 0.624500
7.677000 0.624200
7.696200 0.623600
7.715400 0.623700
7.734700 0.623700
7.753900 0.624400
7.773100 0.646200
7.792300 0.633700
7.811500 0.632100
7.830700 0.629200
7.849900 0.628800
7.869100 0.629400
7.888300 0.642100
7.907500 0.635800
7.926700 0.638700
7.945900 0.639600
7.965100 0.639800
7.984300 0.640000
8.003500 0.641100
8.022700 0.642300
8.041900 0.642200
8.061100 0.634900
8.080300 0.632300
8.099500 0.631700
8.118700 0.630600
8.137900 0.629700
8.157100 0.629000
8.176300 0.629600
8.195500 0.628600
8.214700 0.628600
8.234000 0.628600
8.253200 0.628500
8.272400 0.628200
8.291600 0.628200
8.310800 0.628500
8.330000 0.628900
8.349200 0.629600
8.368400 0.630600
8.387600 0.630800
8.406800 0.631400
8.426000 0.632000
8.445200 0.632600
8.464400 0.633300
8.483600 0.634500
8.502800 0.638800
8.522000 0.676100
8.541200 0.651800
8.560400 0.647300
8.579600 0.644400
8.598800 0.643500
8.618000 0.643200
8.637200 0.646300
8.656400 0.645800
8.675600 0.644800
8.694800 0.647900
8.714000 0.653300
8.733300 0.655000
8.752500 0.646300
8.771700 0.640300
8.790900 0.640200
8.810100 0.640300
8.829300 0.640400
8.848500 0.640600
8.867700 0.640800
8.886900 0.641500
8.906100 0.642100
8.925300 0.642800
8.944500 0.643700
8.963700 0.644800
8.982900 0.646300
9.002100 0.644800
9.021300 0.644700
9.040500 0.645300
9.059700 0.646200
9.078900 0.646800
9.098100 0.647500
9.117300 0.655000
9.136500 0.659400
9.155700 0.660700
9.174900 0.656300
9.194100 0.656500
9.213300 0.656800
9.232600 0.657100
9.251800 0.657500
9.271000 0.658000
9.290200 0.658500
9.309400 0.659800
9.328600 0.660100
9.347800 0.662100
9.367000 0.667100
9.386200 0.670900
9.405400 0.682100
9.424600 0.709200
9.443800 0.702900
9.463000 0.668100
9.482200 0.668100
9.501400 0.668400
9.520600 0.668900
9.539800 0.669300
9.559000 0.669800
9.578200 0.670200
9.597400 0.670700
9.616600 0.670800
9.635800 0.675500
9.655000 0.682400
9.674200 0.686200
9.693400 0.684600
9.712600 0.685400
9.731800 0.686200
9.751100 0.687000
9.770300 0.687900
9.789500 0.688800
9.808700 0.689800
9.827900 0.690500
9.847100 0.690900
9.866300 0.692100
9.885500 0.693300
9.904700 0.693600
9.923900 0.692100
9.943100 0.689500
9.962300 0.686700
9.981500 0.683700
10.000700 0.680600
10.019900 0.665100
10.039100 0.660400
10.058300 0.655900
10.077500 0.651400
10.096700 0.649200
10.115900 0.655000
10.135100 0.655000
10.154300 0.646700
10.173500 0.644200
10.192700 0.640200
10.211900 0.641900
10.231100 0.642300
10.250400 0.638200
10.269600 0.638100
10.288800 0.639500
10.308000 0.639100
10.327200 0.638900
10.346400 0.636900
10.365600 0.635500
10.384800 0.633100
10.404000 0.631000
10.423200 0.631100
10.442400 0.631500
10.461600 0.632100
10.480800 0.632800
10.500000 0.633400
10.519200 0.634700
10.538400 0.635100
10.557600 0.636400
10.576800 0.637800
10.596000 0.639200
10.615200 0.640600
10.634400 0.641900
10.653600 0.643200
10.672800 0.644500
10.692000 0.645800
10.711200 0.647100
10.730400 0.649600
10.749700 0.652100
10.768900 0.653100
10.788100 0.661800
10.807300 0.675700
10.826500 0.668500
10.845700 0.672000
10.864900 0.675500
10.884100 0.679400
10.903300 0.682200
10.922500 0.686600
10.941700 0.691200
10.960900 0.696000
10.980100 0.700800
10.999300 0.705700
11.018500 0.709800
11.037700 0.715200
11.056900 0.720900
11.076100 0.726800
11.095300 0.732800
11.114500 0.739100
11.133700 0.745700
11.152900 0.752900
11.172100 0.760700
11.191300 0.769100
11.210500 0.778300
11.229700 0.790200
11.249000 0.803700
11.268200 0.817800
11.287400 0.833200
11.306600 0.849200
11.325800 0.867200
11.345000 0.888200
11.364200 0.914300
11.383400 0.960100
11.402600 1.014500
11.421800 1.069300
11.441000 1.121800
11.460200 1.172700
11.479400 1.222400
11.498600 1.268200
11.517800 1.256500
11.537000 1.261500
11.556200 1.268000
11.575400 1.261800
11.594600 1.243200
11.613800 1.227400
11.633000 1.207500
11.652200 1.184400
11.671400 1.166700
11.690600 1.147100
11.709800 1.116500
11.729000 1.079700
11.748300 1.030600
11.767500 0.979600
11.786700 0.893500
11.805900 0.797300
11.825100 0.743200
11.844300 0.751900
11.863500 0.733500
11.882700 0.722900
11.901900 0.711100
11.921100 0.698600
11.940300 0.688800
11.959500 0.669100
11.978700 0.632300
11.997900 0.615900
12.017100 0.602600
12.036300 0.578200
12.055500 0.563800
12.074700 0.552900
12.093900 0.543600
12.113100 0.536800
12.132300 0.528600
12.151500 0.519100
12.170700 0.508000
12.189900 0.494600
12.209100 0.481500
12.228300 0.469700
12.247600 0.462100
12.266800 0.456600
12.286000 0.452400
12.305200 0.449500
12.324400 0.444800
12.343600 0.440500
12.362800 0.435700
12.382000 0.429000
12.401200 0.423100
12.420400 0.418100
12.439600 0.408700
12.458800 0.401400
12.478000 0.395500
12.497200 0.389000
12.516400 0.382900
12.535600 0.377700
12.554800 0.373700
12.574000 0.370500
12.593200 0.368000
12.612400 0.365400
12.631600 0.362400
12.650800 0.359000
12.670000 0.355600
12.689200 0.351300
12.708400 0.343800
12.727600 0.341200
12.746800 0.339200
12.766100 0.338700
12.785300 0.335800
12.804500 0.331400
12.823700 0.328500
12.842900 0.325300
12.862100 0.323500
12.881300 0.321600
12.900500 0.319100
12.919700 0.316600
12.938900 0.313800
12.958100 0.310000
12.977300 0.310000
12.996500 0.300400
13.015700 0.297500
13.034900 0.294800
13.054100 0.292100
13.073300 0.289700
13.092500 0.287500
13.111700 0.282800
13.130900 0.281900
13.150100 0.281400
13.169300 0.280500
13.188500 0.280400
13.207700 0.278000
13.226900 0.275000
13.246100 0.273600
13.265400 0.270300
13.284600 0.263500
13.303800 0.260200
13.323000 0.257600
13.342200 0.255400
13.361400 0.254500
13.380600 0.253200
13.399800 0.251400
13.419000 0.249500
13.438200 0.247100
13.457400 0.244200
13.476600 0.244000
13.495800 0.242500
13.515000 0.239100
13.534200 0.239900
13.553400 0.237500
13.572600 0.235000
13.591800 0.232400
13.611000 0.229700
13.630200 0.240300
13.649400 0.235600
13.668600 0.222900
13.687800 0.220300
13.707000 0.212200
13.726200 0.172400
13.745400 0.173200
13.764700 0.174000
13.783900 0.175000
13.803100 0.176000
13.822300 0.177000
13.841500 0.178000
13.860700 0.179000
13.879900 0.180000
13.899100 0.181100
13.918300 0.182200
13.937500 0.183300
13.956700 0.184400
13.975900 0.185500
13.995100 0.186600
14.014300 0.187800
14.033500 0.188900
14.052700 0.190000
14.071900 0.191200
14.091100 0.192300
14.110300 0.193600
14.129500 0.194800
14.148700 0.196000
14.167900 0.197300
14.187100 0.198500
14.206300 0.200200
14.225500 0.201100
14.244700 0.202100
14.264000 0.202900
14.283200 0.203800
14.302400 0.205000
14.321600 0.206200
