set title 'mp-1215579 - Density of States'
set xlabel 'Energy (eV)'
set ylabel 'DOS (states/eV)'
set grid
set xrange [-10:10]
set yrange [0:65.014]
set xzeroaxis lt -1
set terminal png size 800,600
set output 'mp-1215579_dos_gnuplot.png'
plot '-' using 1:2 with lines title 'DOS'
-6.053800 0.000000
-6.034500 0.000000
-6.015100 0.000000
-5.995700 0.000000
-5.976400 0.000000
-5.957000 0.000000
-5.937600 0.000000
-5.918300 0.000000
-5.898900 0.000000
-5.879500 0.000000
-5.860200 0.000000
-5.840800 0.000000
-5.821500 0.000000
-5.802100 0.000000
-5.782700 0.000000
-5.763400 0.000000
-5.744000 0.000000
-5.724600 0.000000
-5.705300 0.000000
-5.685900 0.000000
-5.666500 0.000000
-5.647200 0.000000
-5.627800 0.000000
-5.608500 0.000000
-5.589100 0.000000
-5.569700 0.000000
-5.550400 0.000000
-5.531000 0.000000
-5.511600 0.000000
-5.492300 0.000000
-5.472900 0.000000
-5.453500 0.000000
-5.434200 0.000000
-5.414800 0.000000
-5.395500 0.000000
-5.376100 0.000000
-5.356700 0.000000
-5.337400 0.000000
-5.318000 0.000000
-5.298600 0.000000
-5.279300 0.000000
-5.259900 0.000000
-5.240600 0.000000
-5.221200 0.000000
-5.201800 0.000000
-5.182500 0.000000
-5.163100 0.000000
-5.143700 0.000000
-5.124400 0.000000
-5.105000 0.000000
-5.085600 0.000000
-5.066300 0.000000
-5.046900 0.000000
-5.027600 0.000000
-5.008200 0.000000
-4.988800 0.000000
-4.969500 0.000000
-4.950100 0.000000
-4.930700 0.000000
-4.911400 0.000000
-4.892000 0.000000
-4.872600 0.000000
-4.853300 0.000000
-4.833900 0.000000
-4.814600 0.000000
-4.795200 0.000000
-4.775800 0.000000
-4.756500 0.000000
-4.737100 0.000000
-4.717700 0.000000
-4.698400 0.000000
-4.679000 0.000000
-4.659600 0.000000
-4.640300 0.000000
-4.620900 0.000000
-4.601600 0.000000
-4.582200 0.000000
-4.562800 0.000000
-4.543500 0.000000
-4.524100 0.000000
-4.504700 0.000000
-4.485400 0.000000
-4.466000 0.000000
-4.446700 0.000000
-4.427300 0.000000
-4.407900 0.000000
-4.388600 0.000000
-4.369200 0.000000
-4.349800 0.000000
-4.330500 0.000000
-4.311100 0.000000
-4.291700 0.000700
-4.272400 0.041600
-4.253000 0.092800
-4.233700 0.144100
-4.214300 0.195300
-4.194900 0.246500
-4.175600 0.297700
-4.156200 0.348900
-4.136800 0.400100
-4.117500 0.451300
-4.098100 0.461300
-4.078700 0.284200
-4.059400 0.290900
-4.040000 0.297500
-4.020700 0.304200
-4.001300 0.310900
-3.981900 0.317600
-3.962600 0.324200
-3.943200 0.330900
-3.923800 0.337600
-3.904500 0.344300
-3.885100 0.350900
-3.865700 0.357600
-3.846400 0.364300
-3.827000 0.371000
-3.807700 0.377600
-3.788300 0.384300
-3.768900 0.391000
-3.749600 0.397700
-3.730200 0.408700
-3.710800 0.425200
-3.691500 0.441600
-3.672100 0.458100
-3.652700 0.474600
-3.633400 0.491100
-3.614000 0.507600
-3.594700 0.529200
-3.575300 0.563000
-3.555900 0.596900
-3.536600 0.630700
-3.517200 0.664600
-3.497800 0.698400
-3.478500 0.732300
-3.459100 3.536200
-3.439800 4.545600
-3.420400 5.401600
-3.401000 5.043300
-3.381700 5.138700
-3.362300 5.620500
-3.342900 5.829600
-3.323600 6.001300
-3.304200 4.942100
-3.284800 4.176900
-3.265500 4.039900
-3.246100 4.026400
-3.226800 4.080200
-3.207400 8.948100
-3.188000 11.352900
-3.168700 10.718000
-3.149300 9.048900
-3.129900 8.270200
-3.110600 9.469000
-3.091200 10.982700
-3.071800 6.542400
-3.052500 7.900600
-3.033100 5.342400
-3.013800 6.731700
-2.994400 23.090900
-2.975000 1.342600
-2.955700 4.933800
-2.936300 10.580000
-2.916900 12.848500
-2.897600 26.316500
-2.878200 59.104000
-2.858800 1.354200
-2.839500 24.244100
-2.820100 7.232900
-2.800800 19.642500
-2.781400 11.323800
-2.762000 14.093600
-2.742700 17.892800
-2.723300 22.337400
-2.703900 17.161300
-2.684600 12.325100
-2.665200 7.085000
-2.645800 6.680100
-2.626500 5.677100
-2.607100 14.087400
-2.587800 4.673100
-2.568400 4.320800
-2.549000 4.200400
-2.529700 4.080100
-2.510300 3.959700
-2.490900 3.839400
-2.471600 3.719000
-2.452200 3.982300
-2.432900 3.689300
-2.413500 3.421300
-2.394100 2.997400
-2.374800 2.551600
-2.355400 2.107100
-2.336000 0.425800
-2.316700 0.427900
-2.297300 0.430000
-2.277900 0.432000
-2.258600 0.434100
-2.239200 0.436200
-2.219900 0.438300
-2.200500 0.440300
-2.181100 0.442400
-2.161800 0.444500
-2.142400 0.446600
-2.123000 0.448700
-2.103700 0.450700
-2.084300 0.452800
-2.064900 0.454900
-2.045600 0.457000
-2.026200 0.459000
-2.006900 0.461100
-1.987500 0.463200
-1.968100 0.465300
-1.948800 0.467400
-1.929400 0.469400
-1.910000 0.471500
-1.890700 0.473600
-1.871300 0.475700
-1.851900 0.477700
-1.832600 0.479800
-1.813200 0.481900
-1.793900 0.484000
-1.774500 0.486000
-1.755100 0.488100
-1.735800 0.486800
-1.716400 0.480300
-1.697000 0.478900
-1.677700 0.490400
-1.658300 0.504700
-1.639000 0.521000
-1.619600 0.538600
-1.600200 0.557500
-1.580900 0.577700
-1.561500 0.599100
-1.542100 0.621400
-1.522800 0.644600
-1.503400 0.668800
-1.484000 0.693900
-1.464700 0.719900
-1.445300 0.747900
-1.426000 0.766300
-1.406600 0.773100
-1.387200 0.789000
-1.367900 0.804900
-1.348500 0.822400
-1.329100 0.840900
-1.309800 0.859600
-1.290400 0.878400
-1.271000 0.897700
-1.251700 0.917600
-1.232300 0.937900
-1.213000 0.958400
-1.193600 0.978900
-1.174200 0.999700
-1.154900 1.021200
-1.135500 1.043400
-1.116100 1.066200
-1.096800 1.089500
-1.077400 1.113500
-1.058000 1.174300
-1.038700 1.553800
-1.019300 1.806800
-1.000000 1.943700
-0.980600 2.048500
-0.961200 2.135100
-0.941900 2.255700
-0.922500 2.427000
-0.903100 2.246700
-0.883800 2.097600
-0.864400 2.370500
-0.845000 2.599000
-0.825700 3.039300
-0.806300 3.168100
-0.787000 3.438900
-0.767600 4.026100
-0.748200 4.827500
-0.728900 5.261500
-0.709500 5.689000
-0.690100 6.068700
-0.670800 6.399700
-0.651400 6.318300
-0.632100 6.279200
-0.612700 6.473600
-0.593300 6.596900
-0.574000 6.944900
-0.554600 7.483000
-0.535200 8.008200
-0.515900 8.574300
-0.496500 9.126200
-0.477100 9.682100
-0.457800 10.300800
-0.438400 10.869200
-0.419100 11.509700
-0.399700 11.995900
-0.380300 12.847300
-0.361000 12.396300
-0.341600 12.549700
-0.322200 12.716800
-0.302900 12.688800
-0.283500 12.669700
-0.264100 12.915700
-0.244800 13.325000
-0.225400 13.470000
-0.206100 14.455100
-0.186700 12.811000
-0.167300 12.369200
-0.148000 12.804600
-0.128600 12.177000
-0.109200 11.022700
-0.089900 9.728300
-0.070500 8.976800
-0.051100 9.421000
-0.031800 8.645200
-0.012400 8.353100
0.006900 8.692800
0.026300 9.148500
0.045700 10.577500
0.065000 8.934900
0.084400 8.578500
0.103800 7.973800
0.123100 8.014700
0.142500 8.973300
0.161900 8.621900
0.181200 7.267700
0.200600 7.779700
0.219900 8.163500
0.239300 8.266800
0.258700 8.460000
0.278000 8.689100
0.297400 8.691900
0.316800 8.678900
0.336100 8.689800
0.355500 10.447800
0.374800 10.067400
0.394200 7.155800
0.413600 5.376600
0.432900 4.807500
0.452300 4.265400
0.471700 3.612600
0.491000 3.604500
0.510400 8.258300
0.529800 7.854100
0.549100 6.544800
0.568500 7.100200
0.587800 9.275400
0.607200 8.836600
0.626600 8.697200
0.645900 8.859700
0.665300 9.658200
0.684700 9.798200
0.704000 8.926500
0.723400 7.764200
0.742800 7.502200
0.762100 7.605500
0.781500 8.149300
0.800800 8.068600
0.820200 8.484300
0.839600 9.158400
0.858900 10.650600
0.878300 12.465900
0.897700 12.502200
0.917000 11.929900
0.936400 11.763900
0.955800 15.401700
0.975100 12.299700
0.994500 13.064600
1.013800 11.714000
1.033200 10.887200
1.052600 12.353300
1.071900 11.671500
1.091300 13.438700
1.110700 11.193500
1.130000 11.635800
1.149400 12.283100
1.168800 11.926800
1.188100 11.703400
1.207500 11.706800
1.226800 11.577500
1.246200 9.235000
1.265600 9.243600
1.284900 11.092200
1.304300 11.579500
1.323700 13.889000
1.343000 14.186900
1.362400 14.761000
1.381700 14.122500
1.401100 12.784100
1.420500 12.224500
1.439800 12.337900
1.459200 12.346100
1.478600 12.035200
1.497900 11.393400
1.517300 10.458300
1.536700 9.989800
1.556000 9.622400
1.575400 9.564800
1.594700 9.215800
1.614100 8.929900
1.633500 8.546300
1.652800 8.025300
1.672200 8.274200
1.691600 8.259900
1.710900 8.395100
1.730300 8.156500
1.749700 8.066200
1.769000 8.696600
1.788400 7.644600
1.807700 7.583900
1.827100 7.327000
1.846500 7.056900
1.865800 6.976900
1.885200 7.305800
1.904600 8.093200
1.923900 8.908000
1.943300 9.537400
1.962700 11.846100
1.982000 11.111600
2.001400 10.296300
2.020700 9.628200
2.040100 9.598600
2.059500 9.770900
2.078800 10.067000
2.098200 10.368900
2.117600 10.570600
2.136900 10.183200
2.156300 8.840500
2.175600 8.661900
2.195000 8.708400
2.214400 9.171700
2.233700 9.323800
2.253100 8.947100
2.272500 9.429200
2.291800 12.891900
2.311200 9.515000
2.330600 8.362000
2.349900 8.010800
2.369300 9.382600
2.388600 10.099200
2.408000 10.620600
2.427400 11.084900
2.446700 9.811800
2.466100 8.737700
2.485500 8.457200
2.504800 7.981500
2.524200 7.496100
2.543600 7.644500
2.562900 7.859200
2.582300 8.061500
2.601600 7.962000
2.621000 8.176100
2.640400 8.201600
2.659700 8.522600
2.679100 8.176000
2.698500 7.804100
2.717800 7.826300
2.737200 7.947800
2.756600 8.054900
2.775900 8.117000
2.795300 8.255800
2.814600 8.457200
2.834000 8.575000
2.853400 8.662300
2.872700 8.761500
2.892100 8.235500
2.911500 8.029600
2.930800 7.990400
2.950200 7.875600
2.969600 7.550300
2.988900 7.299300
3.008300 7.020000
3.027600 6.844400
3.047000 6.826600
3.066400 6.817200
3.085700 6.837200
3.105100 6.889300
3.124500 6.925300
3.143800 6.992900
3.163200 6.896900
3.182500 7.833600
3.201900 10.285200
3.221300 12.503100
3.240600 16.329900
3.260000 9.878100
3.279400 7.726800
3.298700 9.272900
3.318100 7.839500
3.337500 6.563500
3.356800 5.482600
3.376200 5.818400
3.395500 5.177200
3.414900 5.182800
3.434300 5.221100
3.453600 5.273100
3.473000 6.154600
3.492400 8.457200
3.511700 11.546800
3.531100 11.774000
3.550500 8.777800
3.569800 6.665500
3.589200 2.914900
3.608500 2.808400
3.627900 2.698000
3.647300 2.585500
3.666600 2.409200
3.686000 1.876600
3.705400 1.872900
3.724700 1.863200
3.744100 1.855000
3.763500 1.840700
3.782800 1.818300
3.802200 1.780500
3.821500 1.719300
3.840900 1.663100
3.860300 1.620200
3.879600 1.594700
3.899000 1.567700
3.918400 1.522000
3.937700 1.486900
3.957100 1.444300
3.976500 1.422100
3.995800 1.405500
4.015200 1.396000
4.034500 1.390900
4.053900 1.387100
4.073300 1.384600
4.092600 1.383300
4.112000 1.383400
4.131400 1.385100
4.150700 1.388200
4.170100 1.392700
4.189400 1.398100
4.208800 1.403900
4.228200 1.405800
4.247500 1.406700
4.266900 1.406700
4.286300 1.406200
4.305600 1.404600
4.325000 1.400500
4.344400 1.395800
4.363700 1.391200
4.383100 1.386600
4.402400 1.381900
4.421800 1.377200
4.441200 1.372600
4.460500 1.368400
4.479900 1.364500
4.499300 1.360700
4.518600 1.357100
4.538000 1.353500
4.557400 1.350000
4.576700 1.346500
4.596100 1.343100
4.615400 1.339800
4.634800 1.336600
4.654200 1.333500
4.673500 1.330100
4.692900 1.326400
4.712300 1.322400
4.731600 1.318300
4.751000 1.314900
4.770400 1.322600
4.789700 1.371600
4.809100 1.465600
4.828400 1.598600
4.847800 1.781100
4.867200 1.577500
4.886500 1.715600
4.905900 1.382500
4.925300 1.314900
4.944600 1.276100
4.964000 1.255800
4.983300 1.252400
5.002700 1.260500
5.022100 1.276900
5.041400 1.301100
5.060800 1.327700
5.080200 1.381400
5.099500 1.425700
5.118900 1.443700
5.138300 1.464800
5.157600 1.494800
5.177000 1.552300
5.196300 1.656600
5.215700 1.591800
5.235100 1.552100
5.254400 1.545400
5.273800 1.535100
5.293200 1.517200
5.312500 1.494200
5.331900 1.470700
5.351300 1.446700
5.370600 1.421400
5.390000 1.394000
5.409300 1.355400
5.428700 1.300400
5.448100 1.250100
5.467400 1.218100
5.486800 1.194400
5.506200 1.177300
5.525500 1.170900
5.544900 1.169200
5.564300 1.167600
5.583600 1.166000
5.603000 1.164400
5.622300 1.162900
5.641700 1.161300
5.661100 1.158800
5.680400 1.156700
5.699800 1.154800
5.719200 1.152900
5.738500 1.150600
5.757900 1.146700
5.777300 1.143400
5.796600 1.140800
5.816000 1.138800
5.835300 1.137000
5.854700 1.135400
5.874100 1.133800
5.893400 1.132300
5.912800 1.130800
5.932200 1.129500
5.951500 1.128200
5.970900 1.127000
5.990200 1.126100
6.009600 1.125400
6.029000 1.124800
6.048300 1.124300
6.067700 1.123700
6.087100 1.124300
6.106400 2.175800
6.125800 1.061800
6.145200 1.067500
6.164500 1.072800
6.183900 1.077700
6.203200 1.082200
6.222600 1.087100
6.242000 1.093200
6.261300 1.101900
6.280700 1.109200
6.300100 1.115100
6.319400 1.120600
6.338800 1.247500
6.358200 1.466100
6.377500 1.623500
6.396900 1.872700
6.416200 2.381700
6.435600 1.823500
6.455000 1.426400
6.474300 1.411500
6.493700 1.396700
6.513100 1.382300
6.532400 1.368300
6.551800 1.354600
6.571200 1.341200
6.590500 1.328000
6.609900 1.314900
6.629200 1.301800
6.648600 1.288900
6.668000 1.277900
6.687300 1.271000
6.706700 1.267800
6.726100 1.264800
6.745400 1.261900
6.764800 1.259900
6.784200 1.259600
6.803500 1.261900
6.822900 1.266500
6.842200 1.270600
6.861600 1.274300
6.881000 1.284300
6.900300 1.292800
6.919700 1.313100
6.939100 1.338200
6.958400 1.354700
6.977800 1.361600
6.997100 1.358700
7.016500 1.350100
7.035900 1.340800
7.055200 1.330700
7.074600 1.319200
7.094000 1.306500
7.113300 1.293000
7.132700 1.278600
7.152100 1.263400
7.171400 1.249100
7.190800 1.238900
7.210100 1.232300
7.229500 1.228900
7.248900 1.228700
7.268200 1.231700
7.287600 1.241700
7.307000 1.269800
7.326300 1.282900
7.345700 1.225500
7.365100 1.150600
7.384400 1.126300
7.403800 1.112100
7.423100 1.110300
7.442500 1.110300
7.461900 1.110100
7.481200 1.109600
7.500600 1.108600
7.520000 1.106800
7.539300 1.107400
7.558700 1.111400
7.578100 1.118700
7.597400 1.129100
7.616800 1.141100
7.636100 1.142900
7.655500 1.138800
7.674900 1.134100
7.694200 1.128900
7.713600 1.122900
7.733000 1.115900
7.752300 1.107700
7.771700 1.098300
7.791100 1.087100
7.810400 1.078800
7.829800 1.073100
7.849100 1.067100
7.868500 1.070600
7.887900 1.103900
7.907200 1.123000
7.926600 1.127000
7.946000 1.136900
7.965300 1.147400
7.984700 1.162800
8.004000 1.181900
8.023400 1.200300
8.042800 1.219600
8.062100 1.240200
8.081500 1.262500
8.100900 1.291700
8.120200 1.332100
8.139600 1.382400
8.159000 1.460600
8.178300 1.692400
8.197700 3.710500
8.217000 1.177400
8.236400 1.208700
8.255800 1.235800
8.275100 1.261700
8.294500 1.297900
8.313900 1.337600
8.333200 1.361800
8.352600 1.367000
8.372000 1.360200
8.391300 1.340900
8.410700 1.306800
8.430000 1.265900
8.449400 1.258300
8.468800 1.252700
8.488100 1.243900
8.507500 1.243900
8.526900 1.230200
8.546200 1.212700
8.565600 1.191000
8.585000 1.165800
8.604300 1.148000
8.623700 1.131900
8.643000 1.115900
8.662400 1.101300
8.681800 1.089800
8.701100 1.086200
8.720500 1.092600
8.739900 1.104000
8.759200 1.120700
8.778600 1.142500
8.797900 1.169600
8.817300 1.201400
8.836700 1.233400
8.856000 1.261700
8.875400 1.289300
8.894800 1.316400
8.914100 1.342900
8.933500 1.368800
8.952900 1.405800
8.972200 1.466700
8.991600 1.509100
9.010900 1.536300
9.030300 1.553500
9.049700 1.558900
9.069000 1.552400
9.088400 1.530900
9.107800 1.482900
9.127100 1.413200
9.146500 1.329700
9.165900 1.305200
9.185200 1.472200
9.204600 1.476900
9.223900 1.316600
9.243300 1.087000
9.262700 1.040900
9.282000 1.025800
9.301400 1.008100
9.320800 0.988200
9.340100 0.972200
9.359500 0.957700
9.378900 0.941100
9.398200 0.922200
9.417600 0.900700
9.436900 1.150000
9.456300 1.330800
9.475700 1.211100
9.495000 1.216400
9.514400 1.216000
9.533800 1.192600
9.553100 1.162900
9.572500 1.135400
9.591900 1.107700
9.611200 1.075300
9.630600 1.040400
9.649900 1.007600
9.669300 0.981900
9.688700 0.963900
9.708000 0.951900
9.727400 0.923000
9.746800 0.863700
9.766100 0.854500
9.785500 0.846100
9.804800 0.838400
9.824200 0.825100
9.843600 0.806200
9.862900 0.782400
9.882300 0.753700
9.901700 0.716500
9.921000 0.689800
9.940400 0.670600
9.959800 0.654800
9.979100 0.655600
9.998500 0.667400
10.017800 0.679500
10.037200 0.691900
10.056600 0.704900
10.075900 0.719100
10.095300 0.734500
10.114700 0.751300
10.134000 0.769300
10.153400 0.788600
10.172800 0.809200
10.192100 0.831100
10.211500 0.854200
10.230800 0.875900
10.250200 0.890500
10.269600 0.900800
10.288900 0.938400
10.308300 1.007900
10.327700 1.149900
10.347000 1.606400
10.366400 1.582800
10.385800 1.511100
10.405100 1.442800
10.424500 1.384600
10.443800 1.352200
10.463200 1.300100
10.482600 1.249100
10.501900 1.199700
10.521300 1.152400
10.540700 1.106200
10.560000 1.058500
10.579400 1.009000
10.598800 0.958200
10.618100 0.906400
10.637500 0.853200
10.656800 0.789400
10.676200 0.734500
10.695600 0.807300
10.714900 0.867300
10.734300 0.983900
10.753700 1.296300
10.773000 1.196200
10.792400 1.106600
10.811700 1.034000
10.831100 1.016100
10.850500 1.021900
10.869800 1.066100
10.889200 1.107000
10.908600 1.260600
10.927900 1.283600
10.947300 1.321700
10.966700 1.356900
10.986000 1.374100
11.005400 1.364100
11.024700 1.334400
11.044100 1.323100
11.063500 1.307300
11.082800 1.279400
11.102200 1.272600
11.121600 1.273900
11.140900 1.281600
11.160300 1.295400
11.179700 1.314900
11.199000 1.338300
11.218400 1.365300
11.237700 1.401900
11.257100 1.599000
11.276500 1.519100
11.295800 1.555300
11.315200 1.560500
11.334600 1.504100
11.353900 1.420100
11.373300 1.340300
11.392700 1.264700
11.412000 1.199300
11.431400 1.167400
11.450700 1.141900
11.470100 1.118600
11.489500 1.097200
11.508800 1.078100
11.528200 1.063200
11.547600 1.067900
11.566900 1.086200
11.586300 1.098500
11.605600 1.123200
11.625000 1.152700
11.644400 1.169800
11.663700 1.181600
11.683100 1.192100
11.702500 1.201300
11.721800 1.217700
11.741200 1.247300
11.760600 1.292800
11.779900 1.364100
11.799300 1.489800
11.818600 1.616100
11.838000 1.685400
11.857400 1.723500
11.876700 1.750300
11.896100 1.801400
11.915500 1.866100
11.934800 1.907600
11.954200 1.916500
11.973600 1.913900
11.992900 1.890100
12.012300 1.898700
12.031600 1.887700
12.051000 1.853000
12.070400 1.809900
12.089700 1.771700
12.109100 1.732900
12.128500 1.705000
12.147800 1.671300
12.167200 1.634200
12.186600 1.587700
12.205900 1.529400
12.225300 1.459500
12.244600 1.389300
12.264000 1.327400
12.283400 1.259800
12.302700 1.227800
12.322100 1.219600
12.341500 1.217000
12.360800 1.241200
12.380200 1.270600
12.399600 1.287300
12.418900 1.296500
12.438300 1.305400
12.457600 1.314600
12.477000 1.330200
12.496400 1.351300
12.515700 1.371200
12.535100 1.351500
12.554500 1.326000
12.573800 1.328100
12.593200 1.334100
12.612500 1.343800
12.631900 1.360000
12.651300 1.368800
12.670600 1.370800
12.690000 1.367000
12.709400 1.357000
12.728700 1.342900
12.748100 1.339300
12.767500 1.335100
12.786800 1.342100
12.806200 1.357000
12.825500 1.377000
12.844900 1.402700
12.864300 1.433700
12.883600 1.470100
12.903000 1.511800
12.922400 1.559100
12.941700 1.615700
12.961100 1.653700
12.980500 1.638100
12.999800 1.647000
13.019200 1.663800
13.038500 1.675800
13.057900 1.684200
13.077300 1.685500
13.096600 1.638800
13.116000 1.604400
13.135400 1.583600
13.154700 1.594000
13.174100 1.649900
13.193500 1.696300
13.212800 1.679100
13.232200 1.611900
13.251500 1.611700
13.270900 1.633900
13.290300 1.648700
13.309600 1.680200
13.329000 1.686700
13.348400 1.717600
13.367700 1.935900
13.387100 2.398300
13.406500 2.529300
13.425800 2.483800
13.445200 2.395300
13.464500 2.311800
13.483900 2.255100
13.503300 2.213700
13.522600 2.163900
13.542000 2.123400
13.561400 2.095700
13.580700 2.080600
13.600100 2.074200
13.619400 2.085000
13.638800 2.137600
13.658200 2.233900
13.677500 2.141700
13.696900 2.150300
13.716300 2.168200
13.735600 2.191400
13.755000 2.213600
13.774400 2.226700
13.793700 2.233400
13.813100 2.231800
13.832400 2.225800
13.851800 2.218100
13.871200 2.198400
13.890500 2.167100
13.909900 2.131300
13.929300 2.094300
13.948600 2.058200
13.968000 2.022800
13.987400 1.983300
14.006700 1.932900
14.026100 1.881000
14.045400 1.827700
14.064800 1.785800
14.084200 1.759300
14.103500 1.716900
14.122900 1.694700
14.142300 1.696800
14.161600 1.711600
14.181000 1.730800
14.200400 1.751500
14.219700 1.773200
14.239100 1.795400
14.258400 1.818000
14.277800 1.868700
14.297200 1.975400
14.316500 2.038500
14.335900 2.053400
14.355300 2.027000
14.374600 1.991900
14.394000 1.994400
14.413400 1.993700
14.432700 1.998400
14.452100 2.030900
