set title 'mp-1229092 - Density of States'
set xlabel 'Energy (eV)'
set ylabel 'DOS (states/eV)'
set grid
set xrange [-10:10]
set yrange [0:10.851]
set xzeroaxis lt -1
set terminal png size 800,600
set output 'mp-1229092_dos_gnuplot.png'
plot '-' using 1:2 with lines title 'DOS'
-7.470500 0.000000
-7.437000 0.000000
-7.403600 0.000000
-7.370100 0.000000
-7.336600 0.000000
-7.303100 0.000000
-7.269600 0.000000
-7.236100 0.000000
-7.202600 0.000000
-7.169100 0.000000
-7.135600 0.000000
-7.102100 0.000000
-7.068600 0.000000
-7.035100 0.000000
-7.001600 0.000000
-6.968100 0.000000
-6.934600 0.000000
-6.901100 0.000000
-6.867700 0.000000
-6.834200 0.000000
-6.800700 0.000000
-6.767200 0.000000
-6.733700 0.000000
-6.700200 0.000000
-6.666700 0.000000
-6.633200 0.000000
-6.599700 0.000000
-6.566200 0.000000
-6.532700 0.000000
-6.499200 0.000000
-6.465700 0.000000
-6.432200 0.000000
-6.398700 0.000000
-6.365300 0.000000
-6.331800 0.000000
-6.298300 0.000000
-6.264800 0.000000
-6.231300 0.000000
-6.197800 0.000000
-6.164300 0.000000
-6.130800 0.000000
-6.097300 0.000000
-6.063800 0.000000
-6.030300 0.000000
-5.996800 0.000000
-5.963300 0.000000
-5.929800 0.000000
-5.896300 0.000000
-5.862800 0.000000
-5.829400 0.000000
-5.795900 0.000000
-5.762400 0.000000
-5.728900 0.000000
-5.695400 0.000000
-5.661900 0.000000
-5.628400 0.000000
-5.594900 0.000000
-5.561400 0.000000
-5.527900 0.000000
-5.494400 0.000000
-5.460900 0.000000
-5.427400 0.000000
-5.393900 0.000000
-5.360400 0.000000
-5.326900 0.000000
-5.293500 0.000000
-5.260000 0.000000
-5.226500 0.000000
-5.193000 0.000000
-5.159500 0.000000
-5.126000 0.000000
-5.092500 0.000000
-5.059000 0.000000
-5.025500 0.000000
-4.992000 0.000000
-4.958500 0.000000
-4.925000 0.000000
-4.891500 0.000000
-4.858000 0.000000
-4.824500 0.000000
-4.791100 0.000000
-4.757600 0.000000
-4.724100 0.000000
-4.690600 0.000000
-4.657100 0.000000
-4.623600 0.000000
-4.590100 0.000000
-4.556600 0.000000
-4.523100 0.000000
-4.489600 0.000000
-4.456100 0.000000
-4.422600 0.000100
-4.389100 0.009800
-4.355600 0.028300
-4.322100 0.051100
-4.288600 0.067400
-4.255200 0.071100
-4.221700 0.076600
-4.188200 0.084900
-4.154700 0.093800
-4.121200 0.101800
-4.087700 0.109600
-4.054200 0.118200
-4.020700 0.126200
-3.987200 0.132500
-3.953700 0.138100
-3.920200 0.142500
-3.886700 0.148000
-3.853200 0.154200
-3.819700 0.160700
-3.786200 0.167300
-3.752700 0.174200
-3.719300 0.181300
-3.685800 0.188800
-3.652300 0.196400
-3.618800 0.204200
-3.585300 0.212200
-3.551800 0.218900
-3.518300 0.227300
-3.484800 0.237000
-3.451300 0.247100
-3.417800 0.257500
-3.384300 0.273700
-3.350800 0.290500
-3.317300 0.300800
-3.283800 0.298300
-3.250300 0.297600
-3.216800 0.303400
-3.183400 0.309000
-3.149900 0.314600
-3.116400 0.319800
-3.082900 0.324800
-3.049400 0.329800
-3.015900 0.333600
-2.982400 0.337900
-2.948900 0.343200
-2.915400 0.350700
-2.881900 0.359200
-2.848400 0.368400
-2.814900 0.378200
-2.781400 0.388900
-2.747900 0.400500
-2.714400 0.413600
-2.681000 0.427800
-2.647500 0.443400
-2.614000 0.461100
-2.580500 0.481000
-2.547000 0.502700
-2.513500 0.526000
-2.480000 0.553000
-2.446500 0.920800
-2.413000 1.313600
-2.379500 1.436900
-2.346000 1.378600
-2.312500 1.382500
-2.279000 1.421500
-2.245500 1.526200
-2.212000 1.720400
-2.178500 2.100900
-2.145100 2.314200
-2.111600 2.475300
-2.078100 2.648500
-2.044600 3.093900
-2.011100 3.474100
-1.977600 3.723300
-1.944100 4.002400
-1.910600 4.328800
-1.877100 4.576400
-1.843600 4.489300
-1.810100 4.443900
-1.776600 4.573700
-1.743100 5.074300
-1.709600 5.350600
-1.676100 5.361600
-1.642600 5.277900
-1.609200 5.329200
-1.575700 5.274100
-1.542200 5.225300
-1.508700 5.139900
-1.475200 5.165200
-1.441700 5.163000
-1.408200 5.088400
-1.374700 4.877200
-1.341200 4.645500
-1.307700 4.045100
-1.274200 3.523500
-1.240700 3.336600
-1.207200 3.496400
-1.173700 3.787200
-1.140200 3.083600
-1.106800 2.901500
-1.073300 3.343400
-1.039800 3.918000
-1.006300 4.669500
-0.972800 5.813900
-0.939300 5.243500
-0.905800 5.280200
-0.872300 5.355400
-0.838800 5.528600
-0.805300 5.243800
-0.771800 4.613300
-0.738300 4.451700
-0.704800 4.766500
-0.671300 4.994400
-0.637800 5.204700
-0.604300 5.002300
-0.570900 5.338200
-0.537400 5.365800
-0.503900 5.418700
-0.470400 5.590000
-0.436900 6.175200
-0.403400 6.640800
-0.369900 7.252900
-0.336400 7.414200
-0.302900 9.864600
-0.269400 9.382800
-0.235900 9.759900
-0.202400 8.128600
-0.168900 6.557700
-0.135400 6.661800
-0.101900 6.423600
-0.068400 4.841700
-0.035000 4.355100
-0.001500 3.989000
0.032000 4.345000
0.065500 4.593500
0.099000 4.154700
0.132500 4.182000
0.166000 5.030700
0.199500 5.070100
0.233000 4.732300
0.266500 4.819000
0.300000 5.149200
0.333500 5.664000
0.367000 5.708600
0.400500 5.993000
0.434000 5.959500
0.467500 5.083200
0.500900 3.999200
0.534400 3.848300
0.567900 3.897900
0.601400 4.232400
0.634900 5.313000
0.668400 5.926300
0.701900 5.733300
0.735400 5.595200
0.768900 5.718300
0.802400 5.548800
0.835900 5.296100
0.869400 4.622200
0.902900 4.427100
0.936400 4.303600
0.969900 4.195900
1.003300 4.174800
1.036800 4.597000
1.070300 4.466100
1.103800 4.806700
1.137300 4.564900
1.170800 5.030300
1.204300 5.172500
1.237800 5.387300
1.271300 5.504900
1.304800 5.769100
1.338300 5.614100
1.371800 4.144300
1.405300 3.957800
1.438800 3.998100
1.472300 4.654200
1.505800 4.768600
1.539200 5.119800
1.572700 5.383800
1.606200 5.553500
1.639700 5.494900
1.673200 4.409500
1.706700 3.659500
1.740200 2.920100
1.773700 2.828000
1.807200 2.668900
1.840700 2.353000
1.874200 1.726900
1.907700 1.513200
1.941200 1.361300
1.974700 1.286300
2.008200 1.212200
2.041700 1.140800
2.075100 1.063900
2.108600 0.995700
2.142100 0.678000
2.175600 0.560600
2.209100 0.554600
2.242600 0.548800
2.276100 0.540600
2.309600 0.519600
2.343100 0.508500
2.376600 0.506300
2.410100 0.505900
2.443600 0.506600
2.477100 0.507700
2.510600 0.509100
2.544100 0.510600
2.577500 0.512100
2.611000 0.513900
2.644500 0.515800
2.678000 0.517800
2.711500 0.519900
2.745000 0.521800
2.778500 0.523400
2.812000 0.524800
2.845500 0.523600
2.879000 0.521600
2.912500 0.523000
2.946000 0.525000
2.979500 0.527100
3.013000 0.529100
3.046500 0.530900
3.080000 0.532200
3.113400 0.532200
3.146900 0.528600
3.180400 0.526700
3.213900 0.527200
3.247400 0.528600
3.280900 0.531300
3.314400 0.535200
3.347900 0.538900
3.381400 0.542700
3.414900 0.546500
3.448400 0.550100
3.481900 0.553400
3.515400 0.556600
3.548900 0.559600
3.582400 0.561800
3.615900 0.563200
3.649300 0.564300
3.682800 0.565900
3.716300 0.567600
3.749800 0.569300
3.783300 0.571100
3.816800 0.573100
3.850300 0.575500
3.883800 0.578300
3.917300 0.581600
3.950800 0.585300
3.984300 0.587700
4.017800 0.588700
4.051300 0.592100
4.084800 0.598200
4.118300 0.602800
4.151700 0.606300
4.185200 0.608600
4.218700 0.609200
4.252200 0.608600
4.285700 0.605700
4.319200 0.600000
4.352700 0.588300
4.386200 0.579200
4.419700 0.573800
4.453200 0.569300
4.486700 0.566300
4.520200 0.565700
4.553700 0.567500
4.587200 0.576100
4.620700 0.584300
4.654200 0.587400
4.687600 0.586000
4.721100 0.582000
4.754600 0.575500
4.788100 0.562200
4.821600 0.543300
4.855100 0.528900
4.888600 0.519200
4.922100 0.512800
4.955600 0.509200
4.989100 0.508500
5.022600 0.508400
5.056100 0.509000
5.089600 0.510100
5.123100 0.511200
5.156600 0.512500
5.190100 0.515000
5.223500 0.519400
5.257000 0.523600
5.290500 0.527700
5.324000 0.531900
5.357500 0.538900
5.391000 0.557200
5.424500 0.573700
5.458000 0.585500
5.491500 0.602200
5.525000 0.628300
5.558500 0.614000
5.592000 0.582700
5.625500 0.570900
5.659000 0.569900
5.692500 0.565100
5.726000 0.556400
5.759400 0.546500
5.792900 0.540900
5.826400 0.536700
5.859900 0.532400
5.893400 0.527500
5.926900 0.522000
5.960400 0.517800
5.993900 0.515500
6.027400 0.513900
6.060900 0.512400
6.094400 0.515600
6.127900 0.524300
6.161400 0.542100
6.194900 0.550900
6.228400 0.546600
6.261800 0.534200
6.295300 0.517700
6.328800 0.506700
6.362300 0.491300
6.395800 0.475400
6.429300 0.469800
6.462800 0.464400
6.496300 0.458900
6.529800 0.453300
6.563300 0.447600
6.596800 0.441700
6.630300 0.426500
6.663800 0.417900
6.697300 0.416100
6.730800 0.416400
6.764300 0.416800
6.797700 0.417300
6.831200 0.418900
6.864700 0.420100
6.898200 0.420500
6.931700 0.423300
6.965200 0.429800
6.998700 0.439700
7.032200 0.459100
7.065700 0.502400
7.099200 0.525400
7.132700 0.556800
7.166200 0.571900
7.199700 0.585300
7.233200 0.597200
7.266700 0.620400
7.300200 0.708800
7.333600 0.743000
7.367100 0.749200
7.400600 0.755100
7.434100 0.762300
7.467600 0.748300
7.501100 0.737100
7.534600 0.738900
7.568100 0.746100
7.601600 0.740000
7.635100 0.730600
7.668600 0.723300
7.702100 0.717100
7.735600 0.707700
7.769100 0.696400
7.802600 0.685600
7.836000 0.676600
7.869500 0.668900
7.903000 0.663300
7.936500 0.659100
7.970000 0.656100
8.003500 0.654100
8.037000 0.653100
8.070500 0.649000
8.104000 0.635700
8.137500 0.637200
8.171000 0.642100
8.204500 0.645300
8.238000 0.647800
8.271500 0.646400
8.305000 0.634900
8.338500 0.626800
8.371900 0.608800
8.405400 0.587800
8.438900 0.577200
8.472400 0.567000
8.505900 0.562500
8.539400 0.563000
8.572900 0.561400
8.606400 0.559400
8.639900 0.559000
8.673400 0.559000
8.706900 0.562500
8.740400 0.570800
8.773900 0.577100
8.807400 0.571600
8.840900 0.566600
8.874400 0.566400
8.907800 0.574500
8.941300 0.592700
8.974800 0.613300
9.008300 0.630700
9.041800 0.648900
9.075300 0.665700
9.108800 0.670800
9.142300 0.685000
9.175800 0.693200
9.209300 0.697500
9.242800 0.696700
9.276300 0.691200
9.309800 0.686300
9.343300 0.681600
9.376800 0.675700
9.410300 0.673200
9.443700 0.634000
9.477200 0.608900
9.510700 0.603400
9.544200 0.601600
9.577700 0.601500
9.611200 0.601600
9.644700 0.600900
9.678200 0.618300
9.711700 0.684000
9.745200 0.649500
9.778700 0.579900
9.812200 0.549900
9.845700 0.535300
9.879200 0.521500
9.912700 0.508600
9.946100 0.496800
9.979600 0.486500
10.013100 0.478600
10.046600 0.473200
10.080100 0.470500
10.113600 0.470600
10.147100 0.476100
10.180600 0.488800
10.214100 0.474400
10.247600 0.483600
10.281100 0.535100
10.314600 0.623400
10.348100 0.737100
10.381600 0.741600
10.415100 0.744200
10.448600 0.748200
10.482000 0.757700
10.515500 0.789600
10.549000 0.798300
10.582500 0.785100
10.616000 0.768000
10.649500 0.772100
10.683000 0.778100
10.716500 0.785200
10.750000 0.801200
10.783500 0.820300
10.817000 0.828700
10.850500 0.837900
10.884000 0.834300
10.917500 0.805800
10.951000 0.769900
10.984500 0.749200
11.017900 0.753900
11.051400 0.734100
11.084900 0.697200
11.118400 0.681100
11.151900 0.675800
11.185400 0.675800
11.218900 0.677900
11.252400 0.685700
11.285900 0.700000
11.319400 0.732500
11.352900 0.731000
11.386400 0.739200
11.419900 0.746600
11.453400 0.751300
11.486900 0.757400
11.520300 0.772000
11.553800 0.782000
11.587300 0.784100
11.620800 0.781300
11.654300 0.779700
11.687800 0.777300
11.721300 0.780500
11.754800 0.789300
11.788300 0.798900
11.821800 0.793400
11.855300 0.794900
11.888800 0.798900
11.922300 0.802400
11.955800 0.801000
11.989300 0.794800
12.022800 0.784600
12.056200 0.774800
12.089700 0.766700
12.123200 0.760200
12.156700 0.757600
12.190200 0.756400
12.223700 0.755600
12.257200 0.755400
12.290700 0.756100
12.324200 0.757900
12.357700 0.760700
12.391200 0.764800
12.424700 0.768400
12.458200 0.770600
12.491700 0.770700
12.525200 0.771900
12.558700 0.783700
12.592100 0.796800
12.625600 0.809400
12.659100 0.821100
12.692600 0.825200
12.726100 0.831300
12.759600 0.839200
12.793100 0.845200
12.826600 0.848600
12.860100 0.870100
12.893600 0.886500
12.927100 0.867500
12.960600 0.852900
12.994100 0.850800
13.027600 0.853300
13.061100 0.854500
13.094600 0.855500
13.128000 0.857100
13.161500 0.859300
13.195000 0.862300
13.228500 0.866100
13.262000 0.872700
13.295500 0.887900
13.329000 0.889500
13.362500 0.891200
13.396000 0.893200
13.429500 0.895000
13.463000 0.894900
13.496500 0.895200
13.530000 0.895900
13.563500 0.896500
13.597000 0.896200
13.630400 0.895700
13.663900 0.896100
13.697400 0.897300
13.730900 0.900700
13.764400 0.906700
13.797900 0.919800
13.831400 0.936300
13.864900 0.967300
13.898400 0.968200
13.931900 0.977000
13.965400 0.984400
13.998900 0.995900
14.032400 1.008500
14.065900 1.019700
14.099400 1.030900
14.132900 1.042000
14.166300 1.051400
14.199800 1.058200
14.233300 1.063800
14.266800 1.068500
14.300300 1.071600
14.333800 1.076300
14.367300 1.084400
14.400800 1.105800
14.434300 1.134600
14.467800 1.154800
14.501300 1.147200
14.534800 1.132700
14.568300 1.124900
14.601800 1.128200
14.635300 1.137100
14.668800 1.137700
14.702200 1.130400
14.735700 1.120800
14.769200 1.111700
14.802700 1.101500
14.836200 1.089500
14.869700 1.080300
14.903200 1.073900
14.936700 1.069200
14.970200 1.064300
15.003700 1.062300
15.037200 1.058400
15.070700 1.059100
15.104200 1.059300
15.137700 1.059900
15.171200 1.059000
15.204600 1.055900
15.238100 1.078600
15.271600 1.020000
15.305100 1.011100
15.338600 1.013000
15.372100 1.025400
15.405600 1.042700
15.439100 1.053700
15.472600 1.068300
15.506100 1.121700
15.539600 1.114800
15.573100 1.119000
15.606600 1.159100
15.640100 1.132800
15.673600 1.128000
15.707100 1.119100
15.740500 1.097700
15.774000 1.063400
15.807500 1.033700
15.841000 1.017800
15.874500 0.999700
15.908000 0.978300
15.941500 0.961100
15.975000 0.945500
16.008500 0.931400
16.042000 0.919600
16.075500 0.909400
16.109000 0.899800
16.142500 0.891800
16.176000 0.949700
16.209500 0.884500
16.243000 0.877600
16.276400 0.870300
16.309900 0.868900
16.343400 0.870500
16.376900 0.871900
16.410400 0.872100
16.443900 0.886100
16.477400 0.904800
16.510900 0.920800
16.544400 0.944800
16.577900 0.956800
16.611400 0.963600
16.644900 0.968500
16.678400 0.973200
16.711900 0.976500
16.745400 0.967500
16.778800 0.958200
16.812300 0.960900
16.845800 0.974800
16.879300 0.991100
16.912800 1.009000
16.946300 1.009400
16.979800 1.027300
17.013300 1.038000
17.046800 1.030100
17.080300 1.025600
17.113800 1.020700
17.147300 1.008900
17.180800 0.993800
17.214300 0.987800
17.247800 0.983400
17.281300 0.982000
17.314700 0.979600
17.348200 0.975600
17.381700 0.973100
17.415200 0.973800
17.448700 0.976100
17.482200 0.979900
17.515700 0.985300
17.549200 0.992700
17.582700 1.002000
17.616200 0.999300
17.649700 1.000600
17.683200 1.031600
17.716700 1.019600
17.750200 1.011000
17.783700 0.993700
17.817200 0.989900
17.850600 0.987300
17.884100 0.983700
17.917600 0.979200
17.951100 0.973500
17.984600 0.968200
18.018100 0.963300
18.051600 0.958300
18.085100 0.953700
18.118600 0.949600
18.152100 0.946200
18.185600 0.943500
18.219100 0.942000
18.252600 0.942400
18.286100 0.942000
18.319600 0.942000
18.353100 0.942900
18.386500 0.944300
18.420000 0.944700
18.453500 0.944200
18.487000 0.943400
18.520500 0.942800
18.554000 0.944600
18.587500 0.947500
18.621000 0.950800
18.654500 0.954300
18.688000 0.962100
18.721500 0.965600
18.755000 0.965700
18.788500 0.965500
18.822000 0.965700
18.855500 0.966400
18.888900 0.967700
18.922400 0.969400
18.955900 0.971800
18.989400 0.975700
19.022900 0.981200
19.056400 1.056700
19.089900 1.031800
19.123400 1.044900
19.156900 1.063700
19.190400 1.089200
19.223900 1.114700
19.257400 1.037600
19.290900 0.993000
19.324400 0.976800
19.357900 0.958400
19.391400 0.943300
19.424800 0.935100
19.458300 0.932700
19.491800 0.933400
19.525300 0.936200
19.558800 0.940600
19.592300 0.943300
19.625800 0.939600
19.659300 0.931400
19.692800 0.925000
19.726300 0.922500
19.759800 0.926800
19.793300 0.932100
19.826800 0.926700
19.860300 0.918200
19.893800 0.911700
19.927300 0.906900
19.960700 0.904900
19.994200 0.914200
20.027700 0.936100
20.061200 0.956900
20.094700 1.103500
20.128200 1.079500
20.161700 0.988800
20.195200 0.952700
20.228700 0.939000
20.262200 0.936700
20.295700 0.945300
20.329200 0.981800
20.362700 0.998600
20.396200 0.994900
20.429700 0.997300
20.463100 1.005300
20.496600 1.031500
20.530100 1.070000
20.563600 1.126300
20.597100 1.128000
20.630600 1.185100
20.664100 1.234500
20.697600 1.271800
20.731100 1.319600
20.764600 1.446300
20.798100 1.531700
20.831600 1.570400
20.865100 1.671700
20.898600 1.807000
20.932100 1.832500
20.965600 1.826800
20.999000 1.803600
21.032500 1.849300
21.066000 1.878900
21.099500 1.890500
21.133000 1.897300
21.166500 1.932700
21.200000 1.956900
21.233500 1.962800
21.267000 1.959900
21.300500 1.937600
21.334000 1.898100
21.367500 1.880100
21.401000 1.875300
21.434500 1.876200
21.468000 1.858900
21.501500 1.797700
21.534900 1.732300
21.568400 1.701500
21.601900 1.682200
21.635400 1.675300
21.668900 1.676500
21.702400 1.682500
21.735900 1.720600
21.769400 1.893900
21.802900 1.889800
21.836400 1.766700
21.869900 1.695000
21.903400 1.672500
21.936900 1.653700
21.970400 1.634300
22.003900 1.620800
22.037400 1.625700
22.070800 1.624600
22.104300 1.610600
22.137800 1.596700
22.171300 1.577200
22.204800 1.542800
22.238300 1.509900
22.271800 1.473100
22.305300 1.450400
22.338800 1.439600
22.372300 1.426600
22.405800 1.417800
22.439300 1.397000
22.472800 1.399000
22.506300 1.418200
22.539800 1.389300
22.573200 1.378600
22.606700 1.374700
22.640200 1.339000
22.673700 1.293800
22.707200 1.256500
22.740700 1.226500
22.774200 1.198700
22.807700 1.175500
22.841200 1.159400
22.874700 1.145800
22.908200 1.134300
22.941700 1.124800
22.975200 1.117200
23.008700 1.111800
23.042200 1.116400
23.075700 1.112700
23.109100 1.099200
23.142600 1.095600
23.176100 1.097600
23.209600 1.100200
23.243100 1.103600
23.276600 1.099700
23.310100 1.105500
23.343600 1.116600
23.377100 1.135500
23.410600 1.162600
23.444100 1.191600
23.477600 1.227400
23.511100 1.292300
23.544600 1.238200
23.578100 1.216500
23.611600 1.191300
23.645000 1.166100
23.678500 1.141000
23.712000 1.112300
23.745500 1.081000
23.779000 1.056100
23.812500 1.039500
23.846000 1.020200
23.879500 1.001500
23.913000 0.988000
23.946500 0.977200
23.980000 0.972500
24.013500 0.965500
24.047000 0.954100
24.080500 0.941100
24.114000 0.927200
24.147400 0.912900
24.180900 0.898200
24.214400 0.883000
24.247900 0.860900
24.281400 0.831400
24.314900 0.802600
24.348400 0.792100
24.381900 0.764500
24.415400 0.739000
24.448900 0.712000
24.482400 0.686000
24.515900 0.660800
24.549400 0.636800
24.582900 0.615000
24.616400 0.594700
24.649900 0.576400
24.683300 0.561200
24.716800 0.548700
24.750300 0.539400
24.783800 0.532900
24.817300 0.528500
24.850800 0.527300
24.884300 0.528200
24.917800 0.530500
24.951300 0.534400
24.984800 0.539200
25.018300 0.546200
25.051800 0.555200
25.085300 0.566300
25.118800 0.583100
25.152300 0.618300
25.185800 0.641400
25.219200 0.661100
25.252700 0.686800
25.286200 0.713300
25.319700 0.742200
25.353200 0.773500
25.386700 0.804600
25.420200 0.833300
25.453700 0.856700
25.487200 0.879100
25.520700 0.903900
25.554200 0.926900
25.587700 0.948700
25.621200 0.969200
25.654700 0.988500
25.688200 1.010700
25.721700 1.041700
25.755100 1.080100
25.788600 1.107300
25.822100 1.146200
25.855600 1.100500
25.889100 1.034800
25.922600 0.971100
25.956100 0.935400
25.989600 0.924400
26.023100 0.895800
26.056600 0.815500
26.090100 0.813200
26.123600 0.813000
26.157100 0.817800
26.190600 0.825100
26.224100 0.831700
26.257500 0.835800
26.291000 0.837900
26.324500 0.837100
26.358000 0.838900
26.391500 0.841100
26.425000 0.841700
26.458500 0.841400
26.492000 0.840900
26.525500 0.845400
26.559000 0.850500
26.592500 0.860800
26.626000 0.878900
26.659500 0.908300
26.693000 0.939800
26.726500 0.974600
26.760000 1.011300
26.793400 1.045900
26.826900 1.103500
26.860400 1.178300
26.893900 1.257500
26.927400 1.342400
26.960900 1.457500
26.994400 1.528600
27.027900 1.591400
27.061400 1.619800
27.094900 1.624800
27.128400 1.608800
27.161900 1.656600
27.195400 1.718500
27.228900 1.785700
27.262400 1.823500
27.295900 1.794900
27.329300 1.796300
27.362800 1.837500
27.396300 1.887000
27.429800 1.836800
27.463300 1.774600
27.496800 1.720400
27.530300 1.638000
27.563800 1.545200
27.597300 1.500900
27.630800 1.460200
27.664300 1.425400
27.697800 1.390800
27.731300 1.359600
27.764800 1.338900
