set title 'mp-1143 - Density of States'
set xlabel 'Energy (eV)'
set ylabel 'DOS (states/eV)'
set grid
set xrange [-10:10]
set yrange [0:16.199]
set xzeroaxis lt -1
set terminal png size 800,600
set output 'mp-1143_dos_gnuplot.png'
plot '-' using 1:2 with lines title 'DOS'
-16.798400 0.000000
-16.758500 0.000000
-16.718700 0.000000
-16.678800 0.000000
-16.639000 0.000000
-16.599100 0.000000
-16.559300 0.000000
-16.519500 0.000000
-16.479600 0.000000
-16.439800 0.000000
-16.399900 0.000000
-16.360100 0.000000
-16.320200 0.000000
-16.280400 0.000000
-16.240500 0.000000
-16.200700 0.000000
-16.160800 0.000000
-16.121000 0.000000
-16.081100 0.000000
-16.041300 0.000000
-16.001500 0.000000
-15.961600 0.000000
-15.921800 0.000000
-15.881900 0.000000
-15.842100 0.000000
-15.802200 0.000000
-15.762400 0.000000
-15.722500 0.000000
-15.682700 0.000000
-15.642800 0.000000
-15.603000 0.000000
-15.563100 0.000000
-15.523300 0.000000
-15.483500 0.000000
-15.443600 0.000000
-15.403800 0.000000
-15.363900 0.000000
-15.324100 0.000000
-15.284200 0.000000
-15.244400 0.000000
-15.204500 0.000000
-15.164700 0.000000
-15.124800 0.000000
-15.085000 0.000000
-15.045100 0.000000
-15.005300 0.000000
-14.965500 0.000000
-14.925600 0.000000
-14.885800 0.000000
-14.845900 0.000000
-14.806100 0.000000
-14.766200 0.000000
-14.726400 0.000000
-14.686500 0.000000
-14.646700 0.000000
-14.606800 0.000000
-14.567000 0.000000
-14.527100 0.000000
-14.487300 0.000000
-14.447400 0.000000
-14.407600 0.000000
-14.367800 0.000000
-14.327900 0.000000
-14.288100 0.000000
-14.248200 0.000000
-14.208400 0.000000
-14.168500 0.000000
-14.128700 0.000000
-14.088800 0.000000
-14.049000 0.000000
-14.009100 0.000000
-13.969300 0.000000
-13.929400 0.000000
-13.889600 0.000000
-13.849800 0.000000
-13.809900 0.000000
-13.770100 0.000000
-13.730200 0.000000
-13.690400 0.000000
-13.650500 0.000000
-13.610700 0.000000
-13.570800 0.000000
-13.531000 0.000000
-13.491100 0.000000
-13.451300 0.000000
-13.411400 0.000000
-13.371600 0.000000
-13.331800 0.000000
-13.291900 0.000000
-13.252100 0.000000
-13.212200 0.000000
-13.172400 0.020500
-13.132500 0.234300
-13.092700 0.427200
-13.052800 0.540900
-13.013000 0.631900
-12.973100 0.728300
-12.933300 0.784100
-12.893400 0.864100
-12.853600 0.948600
-12.813800 1.036600
-12.773900 1.106100
-12.734100 1.176200
-12.694200 1.247700
-12.654400 1.318100
-12.614500 1.385200
-12.574700 1.453600
-12.534800 1.537400
-12.495000 1.653600
-12.455100 1.777800
-12.415300 1.894000
-12.375400 2.010600
-12.335600 2.159100
-12.295700 2.505900
-12.255900 2.732800
-12.216100 3.183200
-12.176200 3.301100
-12.136400 2.964300
-12.096500 3.009900
-12.056700 2.552200
-12.016800 2.415700
-11.977000 1.906300
-11.937100 1.398400
-11.897300 0.807000
-11.857400 1.160700
-11.817600 2.745400
-11.777700 4.208700
-11.737900 4.626000
-11.698100 3.360700
-11.658200 3.071900
-11.618400 2.889000
-11.578500 2.708000
-11.538700 2.526100
-11.498800 2.361000
-11.459000 2.683800
-11.419100 2.582300
-11.379300 2.259000
-11.339400 1.826200
-11.299600 3.762900
-11.259700 4.519400
-11.219900 4.595100
-11.180100 4.411500
-11.140200 4.337300
-11.100400 5.387300
-11.060500 7.929200
-11.020700 10.004500
-10.980800 8.473400
-10.941000 8.243400
-10.901100 8.571200
-10.861300 10.287500
-10.821400 6.709400
-10.781600 5.740000
-10.741700 11.414500
-10.701900 9.901700
-10.662100 8.818100
-10.622200 10.835200
-10.582400 10.718300
-10.542500 6.848800
-10.502700 11.801200
-10.462800 8.295700
-10.423000 14.273900
-10.383100 22.788500
-10.343300 0.000000
-10.303400 0.000000
-10.263600 0.000000
-10.223700 0.000000
-10.183900 0.000000
-10.144000 0.000000
-10.104200 0.000000
-10.064400 0.000000
-10.024500 0.000000
-9.984700 0.000000
-9.944800 0.000000
-9.905000 0.000000
-9.865100 0.000000
-9.825300 0.000000
-9.785400 0.000000
-9.745600 0.000000
-9.705700 0.000000
-9.665900 0.000000
-9.626000 0.000000
-9.586200 0.000000
-9.546400 0.000000
-9.506500 0.000000
-9.466700 0.000000
-9.426800 0.000000
-9.387000 0.000000
-9.347100 0.000000
-9.307300 0.000000
-9.267400 0.000000
-9.227600 0.000000
-9.187700 0.000000
-9.147900 0.000000
-9.108000 0.000000
-9.068200 0.000000
-9.028400 0.000000
-8.988500 0.000000
-8.948700 0.000000
-8.908800 0.000000
-8.869000 0.000000
-8.829100 0.000000
-8.789300 0.000000
-8.749400 0.000000
-8.709600 0.000000
-8.669700 0.000000
-8.629900 0.000000
-8.590000 0.000000
-8.550200 0.000000
-8.510400 0.000000
-8.470500 0.000000
-8.430700 0.000000
-8.390800 0.000000
-8.351000 0.000000
-8.311100 0.000000
-8.271300 0.000000
-8.231400 0.000000
-8.191600 0.000000
-8.151700 0.000000
-8.111900 0.000000
-8.072000 0.000000
-8.032200 0.000000
-7.992300 0.000000
-7.952500 0.000000
-7.912700 0.000000
-7.872800 0.000000
-7.833000 0.000000
-7.793100 0.000000
-7.753300 0.000000
-7.713400 0.000000
-7.673600 0.000000
-7.633700 0.000000
-7.593900 0.000000
-7.554000 0.000000
-7.514200 0.000000
-7.474300 0.000000
-7.434500 0.000000
-7.394700 0.000000
-7.354800 0.000000
-7.315000 0.000000
-7.275100 0.000000
-7.235300 0.000000
-7.195400 0.000000
-7.155600 0.000000
-7.115700 0.000000
-7.075900 0.000000
-7.036000 0.000000
-6.996200 0.000000
-6.956300 0.000000
-6.916500 0.000000
-6.876700 0.000000
-6.836800 0.000000
-6.797000 0.000000
-6.757100 0.000000
-6.717300 0.000000
-6.677400 0.000000
-6.637600 0.000000
-6.597700 0.000000
-6.557900 0.000000
-6.518000 0.000000
-6.478200 0.000000
-6.438300 0.000000
-6.398500 0.000000
-6.358700 0.000000
-6.318800 0.000000
-6.279000 0.000000
-6.239100 0.000000
-6.199300 0.000000
-6.159400 0.000000
-6.119600 0.000000
-6.079700 0.000000
-6.039900 0.000000
-6.000000 0.000000
-5.960200 0.000000
-5.920300 0.000000
-5.880500 0.000000
-5.840600 0.000000
-5.800800 0.000000
-5.761000 0.000000
-5.721100 0.000000
-5.681300 0.000000
-5.641400 0.000000
-5.601600 0.000000
-5.561700 0.000000
-5.521900 0.000000
-5.482000 0.000000
-5.442200 0.000000
-5.402300 0.000000
-5.362500 0.000000
-5.322600 0.000000
-5.282800 0.000000
-5.243000 0.000000
-5.203100 0.000000
-5.163300 0.000000
-5.123400 0.000000
-5.083600 0.000000
-5.043700 0.000000
-5.003900 0.000000
-4.964000 0.000000
-4.924200 0.000000
-4.884300 0.000000
-4.844500 0.000000
-4.804600 0.000000
-4.764800 0.000000
-4.725000 0.000000
-4.685100 0.000000
-4.645300 0.000000
-4.605400 0.000000
-4.565600 0.000000
-4.525700 0.000000
-4.485900 0.000000
-4.446000 0.000000
-4.406200 0.000000
-4.366300 0.000000
-4.326500 0.000000
-4.286600 0.000000
-4.246800 0.000000
-4.207000 0.000000
-4.167100 0.000000
-4.127300 0.000000
-4.087400 0.000000
-4.047600 0.000000
-4.007700 0.000000
-3.967900 0.000000
-3.928000 0.000000
-3.888200 0.000000
-3.848300 0.000000
-3.808500 0.000000
-3.768600 0.000000
-3.728800 0.000000
-3.688900 0.000000
-3.649100 0.000000
-3.609300 0.000000
-3.569400 0.000000
-3.529600 0.000000
-3.489700 0.000000
-3.449900 0.000000
-3.410000 0.000000
-3.370200 0.000000
-3.330300 0.000000
-3.290500 0.000000
-3.250600 0.000000
-3.210800 0.000000
-3.170900 0.000000
-3.131100 0.000000
-3.091300 0.000000
-3.051400 0.000000
-3.011600 0.000000
-2.971700 0.000000
-2.931900 0.000000
-2.892000 0.000000
-2.852200 0.000000
-2.812300 0.000000
-2.772500 0.000000
-2.732600 0.000000
-2.692800 0.000000
-2.652900 0.000000
-2.613100 0.000000
-2.573300 0.000000
-2.533400 0.000000
-2.493600 0.000000
-2.453700 0.000000
-2.413900 0.000000
-2.374000 0.000000
-2.334200 0.000000
-2.294300 0.000000
-2.254500 0.000000
-2.214600 0.000000
-2.174800 0.000000
-2.134900 0.000000
-2.095100 0.000000
-2.055300 0.000000
-2.015400 0.000000
-1.975600 0.000000
-1.935700 0.000000
-1.895900 0.000000
-1.856000 0.000000
-1.816200 0.000000
-1.776300 0.000000
-1.736500 0.000000
-1.696600 0.000000
-1.656800 0.000000
-1.616900 0.000000
-1.577100 0.000000
-1.537200 0.000000
-1.497400 0.000000
-1.457600 0.000000
-1.417700 0.000000
-1.377900 0.000000
-1.338000 0.000000
-1.298200 0.000000
-1.258300 0.000000
-1.218500 0.000000
-1.178600 0.000000
-1.138800 0.000000
-1.098900 0.000000
-1.059100 0.000000
-1.019200 0.000000
-0.979400 0.000000
-0.939600 0.000000
-0.899700 0.000000
-0.859900 0.000000
-0.820000 0.490200
-0.780200 0.303200
-0.740300 0.398400
-0.700500 0.520600
-0.660600 0.669800
-0.620800 0.856600
-0.580900 1.126900
-0.541100 1.509800
-0.501200 2.061200
-0.461400 2.426000
-0.421600 2.594900
-0.381700 2.698800
-0.341900 2.636000
-0.302000 2.695300
-0.262200 3.346700
-0.222300 5.438500
-0.182500 6.762200
-0.142600 6.765300
-0.102800 6.703400
-0.062900 6.888000
-0.023100 6.096300
0.016800 4.945400
0.056600 4.054000
0.096400 4.771300
0.136300 5.232300
0.176100 5.880300
0.216000 6.413700
0.255800 5.243000
0.295700 5.064300
0.335500 4.912000
0.375400 4.584800
0.415200 4.155700
0.455100 3.578200
0.494900 3.170500
0.534800 2.963500
0.574600 2.947300
0.614400 3.056000
0.654300 3.828800
0.694100 5.463300
0.734000 2.993800
0.773800 2.189500
0.813700 2.027400
0.853500 3.423200
0.893400 7.074600
0.933200 5.345300
0.973100 5.410400
1.012900 4.468300
1.052800 3.794000
1.092600 3.892700
1.132500 3.920100
1.172300 4.906200
1.212100 5.007000
1.252000 5.413300
1.291800 4.355700
1.331700 1.860800
1.371500 1.188500
1.411400 1.273800
1.451200 1.507200
1.491100 1.890900
1.530900 2.832600
1.570800 5.067400
1.610600 6.028200
1.650500 6.480300
1.690300 6.125200
1.730100 5.647200
1.770000 5.105400
1.809800 4.462300
1.849700 3.390000
1.889500 3.846500
1.929400 4.556700
1.969200 5.430400
2.009100 8.030100
2.048900 9.735900
2.088800 5.655400
2.128600 2.936400
2.168500 2.176800
2.208300 2.377200
2.248100 2.665100
2.288000 3.055500
2.327800 3.433400
2.367700 3.874500
2.407500 3.960600
2.447400 3.865300
2.487200 4.680200
2.527100 4.849100
2.566900 2.764600
2.606800 2.327400
2.646600 2.127900
2.686500 3.605800
2.726300 5.552600
2.766100 5.899100
2.806000 4.924200
2.845800 4.683600
2.885700 4.537200
2.925500 3.608200
2.965400 3.135900
3.005200 3.069700
3.045100 3.420000
3.084900 3.827500
3.124800 4.102100
3.164600 4.302800
3.204500 4.143500
3.244300 4.093400
3.284200 4.536300
3.324000 4.708900
3.363800 5.056600
3.403700 4.646100
3.443500 5.110100
3.483400 9.125100
3.523200 10.919700
3.563100 11.249900
3.602900 7.467000
3.642800 6.801100
3.682600 6.628000
3.722500 5.298100
3.762300 5.535600
3.802200 6.005300
3.842000 7.253400
3.881800 5.346200
3.921700 4.620100
3.961500 4.999900
4.001400 6.415200
4.041200 8.338000
4.081100 9.699700
4.120900 9.752200
4.160800 6.940900
4.200600 6.363100
4.240500 6.741800
4.280300 7.334700
4.320200 7.516500
4.360000 8.229200
4.399800 10.918100
4.439700 8.886800
4.479500 11.797300
4.519400 11.269500
4.559200 14.726200
4.599100 11.586500
4.638900 8.946500
4.678800 7.827800
4.718600 8.753700
4.758500 6.371800
4.798300 3.528800
4.838200 5.696300
4.878000 11.132300
4.917800 13.291200
4.957700 4.404500
4.997500 3.613000
5.037400 3.337100
5.077200 9.129700
5.117100 12.662800
5.156900 9.738300
5.196800 9.068700
5.236600 8.612500
5.276500 8.459700
5.316300 7.643600
5.356200 8.740200
5.396000 8.181400
5.435900 9.250100
5.475700 9.816300
5.515500 13.840800
5.555400 11.783000
5.595200 13.337100
5.635100 6.143100
5.674900 4.786200
5.714800 3.843900
5.754600 3.748100
5.794500 0.000000
5.834300 0.000000
5.874200 0.000000
5.914000 0.000000
5.953900 0.000000
5.993700 0.000000
6.033500 0.000000
6.073400 0.000000
6.113200 0.000000
6.153100 0.000000
6.192900 0.000000
6.232800 0.000000
6.272600 0.000000
6.312500 0.000000
6.352300 0.000000
6.392200 0.000000
6.432000 0.000000
6.471900 0.000000
6.511700 0.000000
6.551500 0.000000
6.591400 0.000000
6.631200 0.000000
6.671100 0.000000
6.710900 0.000000
6.750800 0.000000
6.790600 0.000000
6.830500 0.000000
6.870300 0.000000
6.910200 0.000000
6.950000 0.000000
6.989900 0.000000
7.029700 0.000000
7.069500 0.000000
7.109400 0.000000
7.149200 0.000000
7.189100 0.000000
7.228900 0.000000
7.268800 0.000000
7.308600 0.000000
7.348500 0.000000
7.388300 0.000000
7.428200 0.000000
7.468000 0.000000
7.507900 0.000000
7.547700 0.000000
7.587600 0.000000
7.627400 0.000000
7.667200 0.000000
7.707100 0.000000
7.746900 0.000000
7.786800 0.000000
7.826600 0.000000
7.866500 0.000000
7.906300 0.000000
7.946200 0.000000
7.986000 0.000000
8.025900 0.000000
8.065700 0.000000
8.105600 0.000000
8.145400 0.000000
8.185200 0.000000
8.225100 0.000000
8.264900 0.000000
8.304800 0.000000
8.344600 0.000000
8.384500 0.000000
8.424300 0.000000
8.464200 0.000000
8.504000 0.000000
8.543900 0.000000
8.583700 0.000000
8.623600 0.000000
8.663400 0.000000
8.703200 0.000000
8.743100 0.000000
8.782900 0.000000
8.822800 0.000000
8.862600 0.000000
8.902500 0.000000
8.942300 0.000000
8.982200 0.000000
9.022000 0.000000
9.061900 0.000000
9.101700 0.000000
9.141600 0.000000
9.181400 0.000000
9.221200 0.000000
9.261100 0.000000
9.300900 0.000000
9.340800 0.000000
9.380600 0.000000
9.420500 0.000000
9.460300 0.000000
9.500200 0.000000
9.540000 0.000000
9.579900 0.000000
9.619700 0.000000
9.659600 0.000000
9.699400 0.000000
9.739300 0.000000
9.779100 0.000000
9.818900 0.000000
9.858800 0.000000
9.898600 0.000000
9.938500 0.000000
9.978300 0.000000
10.018200 0.000000
10.058000 0.000000
10.097900 0.000000
10.137700 0.000000
10.177600 0.000000
10.217400 0.000000
10.257300 0.000000
10.297100 0.000000
10.336900 0.000000
10.376800 0.000000
10.416600 0.000000
10.456500 0.000000
10.496300 0.000000
10.536200 0.000000
10.576000 0.000000
10.615900 0.000000
10.655700 0.000000
10.695600 0.000000
10.735400 0.000000
10.775300 0.000000
10.815100 0.000000
10.854900 0.000000
10.894800 0.000000
10.934600 0.000000
10.974500 0.000000
11.014300 0.000000
11.054200 0.000000
11.094000 0.000000
11.133900 0.000000
11.173700 0.000000
11.213600 0.000000
11.253400 0.000000
11.293300 0.000000
11.333100 0.000000
11.372900 0.000000
11.412800 0.000000
11.452600 0.000000
11.492500 0.000000
11.532300 0.000000
11.572200 0.000000
11.612000 0.000000
11.651900 0.000000
11.691700 0.000000
11.731600 0.000000
11.771400 0.000000
11.811300 0.000000
11.851100 0.004400
11.891000 0.014900
11.930800 0.025500
11.970600 0.036100
12.010500 0.046900
12.050300 0.057700
12.090200 0.068700
12.130000 0.079700
12.169900 0.090800
12.209700 0.102000
12.249600 0.113200
12.289400 0.124600
12.329300 0.132600
12.369100 0.140200
12.409000 0.148100
12.448800 0.156200
12.488600 0.164600
12.528500 0.173200
12.568300 0.182000
12.608200 0.191100
12.648000 0.200000
12.687900 0.208800
12.727700 0.217600
12.767600 0.226500
12.807400 0.235500
12.847300 0.244800
12.887100 0.254100
12.927000 0.263600
12.966800 0.273200
13.006600 0.282900
13.046500 0.292700
13.086300 0.302700
13.126200 0.312800
13.166000 0.323000
13.205900 0.333300
13.245700 0.344300
13.285600 0.357200
13.325400 0.370500
13.365300 0.384100
13.405100 0.398100
13.445000 0.412400
13.484800 0.427100
13.524600 0.442500
13.564500 0.458700
13.604300 0.475400
13.644200 0.492500
13.684000 0.510000
13.723900 0.528100
13.763700 0.547300
13.803600 0.571000
13.843400 0.595000
13.883300 0.618300
13.923100 0.640900
13.963000 0.662800
14.002800 0.684100
14.042700 0.704600
14.082500 0.724400
14.122300 0.743500
14.162200 0.761900
14.202000 0.779600
14.241900 0.796600
14.281700 0.812900
14.321600 0.828500
14.361400 0.881300
14.401300 0.941800
14.441100 1.041100
14.481000 1.154700
14.520800 1.264100
14.560700 1.394500
14.600500 1.498000
14.640300 1.574800
14.680200 1.636000
14.720000 1.714000
14.759900 1.828200
14.799700 1.968200
14.839600 2.068900
14.879400 1.961300
14.919300 1.980800
14.959100 2.602300
14.999000 3.791900
15.038800 4.004100
15.078700 4.288500
15.118500 4.238900
15.158300 3.962900
15.198200 3.420800
15.238000 3.549400
15.277900 4.190500
15.317700 4.655300
15.357600 5.411900
15.397400 5.397000
15.437300 5.717700
15.477100 5.351300
15.517000 5.048300
15.556800 4.545400
15.596700 4.280900
15.636500 3.583500
15.676300 3.285800
15.716200 3.230100
15.756000 3.225900
15.795900 3.666700
15.835700 4.429700
15.875600 9.477300
15.915400 7.139000
15.955300 4.498500
15.995100 3.669900
16.035000 4.008600
16.074800 4.156800
16.114700 3.944700
16.154500 4.029900
16.194400 4.132600
16.234200 4.218500
16.274000 4.295100
16.313900 4.643600
16.353700 4.925800
16.393600 5.440600
16.433400 4.682800
16.473300 4.642600
16.513100 4.657300
16.553000 4.007400
16.592800 3.608900
16.632700 3.407500
16.672500 3.458600
16.712400 3.653500
16.752200 3.876300
16.792000 4.017800
16.831900 4.067000
16.871700 3.991100
16.911600 4.032400
16.951400 3.972900
16.991300 3.862800
17.031100 4.042300
17.071000 4.710900
17.110800 4.725300
17.150700 4.503800
17.190500 4.551700
17.230400 4.387100
17.270200 3.509000
17.310000 3.251200
17.349900 3.094800
17.389700 2.992000
17.429600 3.220400
17.469400 2.753000
17.509300 3.118100
17.549100 4.173600
17.589000 4.645800
17.628800 4.601000
17.668700 4.567800
17.708500 4.338700
17.748400 2.527400
17.788200 1.980400
17.828000 1.803100
17.867900 2.043500
17.907700 2.839900
17.947600 3.822500
17.987400 4.405500
18.027300 4.183800
18.067100 3.958900
18.107000 4.607500
18.146800 5.612200
18.186700 6.030500
18.226500 5.425400
18.266400 3.566800
18.306200 3.138800
18.346100 2.500900
18.385900 2.353100
18.425700 2.544600
18.465600 3.095900
18.505400 5.782400
18.545300 6.746000
18.585100 10.856300
18.625000 6.827700
18.664800 6.105600
18.704700 5.701100
18.744500 5.205200
18.784400 4.446100
18.824200 4.632200
18.864100 5.914100
18.903900 5.794800
18.943700 5.573800
18.983600 6.406800
19.023400 7.510600
19.063300 7.347300
19.103100 3.871400
19.143000 3.988100
19.182800 5.051700
19.222700 5.512700
19.262500 5.742000
19.302400 6.134100
19.342200 6.744900
19.382100 7.316700
19.421900 7.532000
19.461700 7.334100
19.501600 6.610700
19.541400 4.181100
19.581300 3.794600
19.621100 3.353600
19.661000 3.003300
19.700800 2.850200
19.740700 2.514600
19.780500 2.396500
19.820400 2.272300
19.860200 2.084700
19.900100 1.672900
19.939900 1.575500
19.979700 1.717800
20.019600 2.249900
20.059400 5.284700
20.099300 6.625500
20.139100 6.471600
20.179000 5.375100
20.218800 5.486200
20.258700 5.897800
20.298500 7.309100
20.338400 7.990100
20.378200 9.711100
20.418100 7.487700
20.457900 8.300500
20.497700 11.467300
20.537600 7.433700
20.577400 8.199000
20.617300 10.132400
20.657100 14.443600
20.697000 7.602700
20.736800 6.138500
20.776700 5.854400
20.816500 4.819500
20.856400 4.448600
20.896200 4.229600
20.936100 4.320800
20.975900 4.628300
21.015800 4.780600
21.055600 4.882500
21.095400 5.412200
21.135300 6.331500
21.175100 5.867000
21.215000 6.100400
21.254800 6.840400
21.294700 6.637000
21.334500 4.668900
21.374400 5.837400
21.414200 7.473200
21.454100 7.658400
21.493900 7.366300
21.533800 7.123600
21.573600 6.580200
21.613400 5.955700
21.653300 3.367300
21.693100 2.573800
21.733000 2.278900
21.772800 2.056700
21.812700 1.687600
21.852500 1.455000
21.892400 1.338200
21.932200 1.214500
21.972100 1.673900
22.011900 1.851100
22.051800 1.884400
22.091600 1.986100
22.131400 2.144400
22.171300 2.350100
22.211100 2.563600
22.251000 2.770900
22.290800 2.973100
22.330700 4.690000
22.370500 5.180700
22.410400 5.658900
22.450200 6.439300
22.490100 3.968900
22.529900 3.651800
22.569800 3.597800
22.609600 3.270200
22.649400 3.150600
22.689300 3.134200
22.729100 3.073900
22.769000 2.976000
22.808800 2.876500
22.848700 2.769200
22.888500 2.650100
22.928400 2.525800
22.968200 2.469300
23.008100 2.454600
23.047900 2.970800
23.087800 3.140400
23.127600 2.813100
23.167500 2.729200
23.207300 2.654100
23.247100 2.591600
23.287000 2.699300
23.326800 2.858800
23.366700 3.101300
23.406500 3.536300
23.446400 4.223000
23.486200 6.429400
23.526100 3.783600
23.565900 3.461500
23.605800 3.238000
23.645600 3.080400
23.685500 2.990800
23.725300 2.985200
23.765100 2.978100
23.805000 2.979400
23.844800 2.861800
23.884700 2.630600
23.924500 2.473400
23.964400 2.449900
24.004200 2.464500
24.044100 2.517500
24.083900 2.581900
24.123800 2.621200
24.163600 2.642900
24.203500 3.225600
24.243300 2.765000
24.283100 2.443000
24.323000 1.724300
24.362800 1.484300
24.402700 1.494100
24.442500 1.503800
24.482400 1.535000
24.522200 1.563600
24.562100 2.199400
24.601900 1.822500
24.641800 1.765600
