set title 'mp-555760 - Density of States'
set xlabel 'Energy (eV)'
set ylabel 'DOS (states/eV)'
set grid
set xrange [-10:10]
set yrange [0:27.635]
set xzeroaxis lt -1
set terminal png size 800,600
set output 'mp-555760_dos_gnuplot.png'
plot '-' using 1:2 with lines title 'DOS'
-16.934200 0.000000
-16.917600 0.000000
-16.901000 0.000000
-16.884400 0.000000
-16.867900 0.000000
-16.851300 0.000000
-16.834700 0.000000
-16.818100 0.000000
-16.801600 0.000000
-16.785000 0.000000
-16.768400 0.000000
-16.751800 0.000000
-16.735200 0.000000
-16.718700 0.000000
-16.702100 0.000000
-16.685500 0.000000
-16.668900 0.000000
-16.652400 0.000000
-16.635800 0.000000
-16.619200 0.000000
-16.602600 0.000000
-16.586100 0.000000
-16.569500 0.000000
-16.552900 0.000000
-16.536300 0.000000
-16.519800 0.000000
-16.503200 0.000000
-16.486600 0.000000
-16.470000 0.000000
-16.453500 0.000000
-16.436900 0.000000
-16.420300 0.000000
-16.403700 0.000000
-16.387200 0.000000
-16.370600 0.000000
-16.354000 0.000000
-16.337400 0.000000
-16.320900 0.000000
-16.304300 0.000000
-16.287700 0.000000
-16.271100 0.000000
-16.254500 0.000000
-16.238000 0.000000
-16.221400 0.000000
-16.204800 0.000000
-16.188200 0.000000
-16.171700 0.000000
-16.155100 0.000000
-16.138500 0.000000
-16.121900 0.000000
-16.105400 0.000000
-16.088800 0.000000
-16.072200 0.000000
-16.055600 0.000000
-16.039100 0.000000
-16.022500 0.000000
-16.005900 0.000000
-15.989300 0.000000
-15.972800 0.000000
-15.956200 0.000000
-15.939600 0.000000
-15.923000 0.000000
-15.906500 0.000000
-15.889900 0.000000
-15.873300 0.000000
-15.856700 0.000000
-15.840200 0.000000
-15.823600 0.000000
-15.807000 0.000000
-15.790400 0.000000
-15.773900 0.000000
-15.757300 0.000000
-15.740700 0.000000
-15.724100 0.000000
-15.707500 0.000000
-15.691000 0.000000
-15.674400 0.000000
-15.657800 0.000000
-15.641200 0.000000
-15.624700 0.000000
-15.608100 0.000000
-15.591500 0.000000
-15.574900 0.000000
-15.558400 0.000000
-15.541800 0.000000
-15.525200 0.000000
-15.508600 0.000000
-15.492100 0.000000
-15.475500 0.000000
-15.458900 0.000000
-15.442300 0.000000
-15.425800 0.006400
-15.409200 0.927400
-15.392600 3.943100
-15.376000 4.094600
-15.359500 4.094700
-15.342900 9.474000
-15.326300 12.316600
-15.309700 12.316700
-15.293200 12.316800
-15.276600 12.317000
-15.260000 12.289100
-15.243400 11.494500
-15.226800 9.606800
-15.210300 9.606000
-15.193700 9.606200
-15.177100 5.337600
-15.160500 4.163400
-15.144000 4.163400
-15.127400 4.163400
-15.110800 4.163400
-15.094200 4.163400
-15.077700 4.163400
-15.061100 4.163500
-15.044500 4.163500
-15.027900 4.163500
-15.011400 4.163500
-14.994800 4.163500
-14.978200 4.163500
-14.961600 4.163500
-14.945100 4.163500
-14.928500 4.163500
-14.911900 4.163500
-14.895300 4.163500
-14.878800 4.163500
-14.862200 4.163500
-14.845600 4.163500
-14.829000 4.163600
-14.812500 4.163600
-14.795900 4.163600
-14.779300 4.163500
-14.762700 4.026900
-14.746100 3.639000
-14.729600 3.639000
-14.713000 3.639000
-14.696400 2.822400
-14.679800 2.651200
-14.663300 2.651200
-14.646700 2.651200
-14.630100 2.651200
-14.613500 2.651200
-14.597000 2.651200
-14.580400 2.651200
-14.563800 2.651200
-14.547200 2.651200
-14.530700 2.651200
-14.514100 2.651200
-14.497500 2.651200
-14.480900 2.651200
-14.464400 2.651200
-14.447800 2.651200
-14.431200 2.651200
-14.414600 2.651200
-14.398100 2.651200
-14.381500 2.651200
-14.364900 2.651200
-14.348300 2.651200
-14.331800 2.651200
-14.315200 2.651200
-14.298600 2.651200
-14.282000 2.651200
-14.265500 2.651200
-14.248900 2.651200
-14.232300 2.651200
-14.215700 2.651300
-14.199100 2.651300
-14.182600 2.651300
-14.166000 2.651300
-14.149400 2.651300
-14.132800 2.651300
-14.116300 2.651300
-14.099700 2.651300
-14.083100 2.651300
-14.066500 2.651300
-14.050000 2.651300
-14.033400 2.651300
-14.016800 2.651300
-14.000200 2.651300
-13.983700 2.033900
-13.967100 0.877600
-13.950500 0.877600
-13.933900 0.055100
-13.917400 1.848300
-13.900800 1.987000
-13.884200 1.987000
-13.867600 1.987000
-13.851100 1.987000
-13.834500 1.987000
-13.817900 1.987000
-13.801300 1.987000
-13.784800 1.987000
-13.768200 1.987000
-13.751600 1.987000
-13.735000 1.987000
-13.718400 1.987000
-13.701900 1.987000
-13.685300 1.987000
-13.668700 1.987000
-13.652100 1.987000
-13.635600 1.987000
-13.619000 1.987000
-13.602400 1.987000
-13.585800 1.987000
-13.569300 1.987000
-13.552700 1.987000
-13.536100 1.987000
-13.519500 1.987000
-13.503000 1.987000
-13.486400 1.987000
-13.469800 1.987000
-13.453200 1.987000
-13.436700 1.987000
-13.420100 1.987000
-13.403500 1.987000
-13.386900 1.987000
-13.370400 1.987000
-13.353800 1.987000
-13.337200 1.987000
-13.320600 1.987000
-13.304100 1.987000
-13.287500 1.987000
-13.270900 1.987000
-13.254300 1.987000
-13.237700 1.987000
-13.221200 1.987000
-13.204600 1.987000
-13.188000 1.987000
-13.171400 1.987000
-13.154900 1.987000
-13.138300 1.987000
-13.121700 1.987000
-13.105100 1.987000
-13.088600 1.987000
-13.072000 1.987000
-13.055400 1.987000
-13.038800 1.987000
-13.022300 1.987000
-13.005700 1.987000
-12.989100 1.987000
-12.972500 1.987000
-12.956000 1.982800
-12.939400 1.862700
-12.922800 1.862700
-12.906200 1.765100
-12.889700 1.660700
-12.873100 1.660000
-12.856500 1.660000
-12.839900 1.660000
-12.823400 1.660000
-12.806800 1.660000
-12.790200 1.660000
-12.773600 1.660000
-12.757100 1.660000
-12.740500 1.660000
-12.723900 1.660000
-12.707300 1.660000
-12.690700 1.660000
-12.674200 1.660000
-12.657600 1.660000
-12.641000 1.660000
-12.624400 1.660000
-12.607900 1.660000
-12.591300 1.660000
-12.574700 1.660000
-12.558100 1.660000
-12.541600 1.660000
-12.525000 1.660000
-12.508400 1.660000
-12.491800 1.660000
-12.475300 1.660000
-12.458700 1.660000
-12.442100 1.660000
-12.425500 1.660000
-12.409000 1.660000
-12.392400 1.660000
-12.375800 1.660000
-12.359200 1.660000
-12.342700 1.660000
-12.326100 1.660000
-12.309500 1.660000
-12.292900 1.660000
-12.276400 1.660000
-12.259800 1.660000
-12.243200 1.660000
-12.226600 1.660000
-12.210000 1.660000
-12.193500 1.660000
-12.176900 1.660000
-12.160300 1.660000
-12.143700 1.660000
-12.127200 1.660000
-12.110600 1.660000
-12.094000 1.660000
-12.077400 1.660000
-12.060900 1.660000
-12.044300 1.660000
-12.027700 1.660000
-12.011100 1.660000
-11.994600 1.660000
-11.978000 1.660000
-11.961400 1.660000
-11.944800 1.660000
-11.928300 1.660000
-11.911700 1.660000
-11.895100 1.660000
-11.878500 1.660000
-11.862000 1.660000
-11.845400 1.660000
-11.828800 1.660000
-11.812200 1.660000
-11.795700 1.660000
-11.779100 1.660000
-11.762500 1.660000
-11.745900 1.652500
-11.729300 1.650900
-11.712800 1.650900
-11.696200 1.654600
-11.679600 1.633800
-11.663000 1.633800
-11.646500 1.633800
-11.629900 1.633800
-11.613300 1.633800
-11.596700 1.633700
-11.580200 1.633700
-11.563600 1.633700
-11.547000 1.633700
-11.530400 1.633700
-11.513900 1.633700
-11.497300 1.633700
-11.480700 1.633700
-11.464100 1.633700
-11.447600 1.633700
-11.431000 1.633700
-11.414400 1.633700
-11.397800 1.633700
-11.381300 1.633700
-11.364700 1.633700
-11.348100 1.633700
-11.331500 1.633700
-11.315000 1.633700
-11.298400 1.633700
-11.281800 1.633700
-11.265200 1.633700
-11.248600 1.633700
-11.232100 1.633700
-11.215500 1.633700
-11.198900 1.633700
-11.182300 1.633700
-11.165800 1.633700
-11.149200 1.633600
-11.132600 1.633600
-11.116000 1.633600
-11.099500 1.633600
-11.082900 1.633600
-11.066300 1.633600
-11.049700 1.633600
-11.033200 1.633600
-11.016600 1.633600
-11.000000 1.633600
-10.983400 1.633600
-10.966900 1.633600
-10.950300 1.633600
-10.933700 1.633600
-10.917100 1.633600
-10.900600 1.633600
-10.884000 1.633600
-10.867400 1.633600
-10.850800 1.633600
-10.834300 1.633600
-10.817700 1.633600
-10.801100 1.633600
-10.784500 1.633600
-10.768000 1.633600
-10.751400 1.633600
-10.734800 1.633600
-10.718200 1.633600
-10.701600 1.633600
-10.685100 1.633600
-10.668500 1.633600
-10.651900 1.633600
-10.635300 1.633600
-10.618800 1.633600
-10.602200 1.633600
-10.585600 1.633600
-10.569000 1.633600
-10.552500 1.633600
-10.535900 1.633600
-10.519300 1.176800
-10.502700 0.530800
-10.486200 0.530800
-10.469600 0.530800
-10.453000 0.499700
-10.436400 0.339400
-10.419900 0.108400
-10.403300 0.464900
-10.386700 1.146400
-10.370100 1.725200
-10.353600 1.725200
-10.337000 1.725200
-10.320400 1.725200
-10.303800 1.725200
-10.287300 1.725200
-10.270700 1.725200
-10.254100 1.725200
-10.237500 1.725200
-10.220900 1.725100
-10.204400 1.725100
-10.187800 1.725100
-10.171200 1.725100
-10.154600 1.725100
-10.138100 1.725100
-10.121500 1.725100
-10.104900 1.725100
-10.088300 1.725100
-10.071800 1.725100
-10.055200 1.725100
-10.038600 1.725000
-10.022000 1.725000
-10.005500 1.725000
-9.988900 1.725000
-9.972300 1.725000
-9.955700 1.725000
-9.939200 1.725000
-9.922600 1.725000
-9.906000 1.725000
-9.889400 1.725000
-9.872900 1.725000
-9.856300 1.725000
-9.839700 1.725000
-9.823100 1.725000
-9.806600 1.724900
-9.790000 1.724900
-9.773400 1.724900
-9.756800 1.724900
-9.740200 1.724900
-9.723700 1.724900
-9.707100 1.724900
-9.690500 1.724900
-9.673900 1.724900
-9.657400 1.724900
-9.640800 1.724900
-9.624200 1.724900
-9.607600 1.724900
-9.591100 1.724900
-9.574500 1.724900
-9.557900 1.724900
-9.541300 1.724900
-9.524800 1.724900
-9.508200 1.724900
-9.491600 1.724900
-9.475000 1.724900
-9.458500 1.724900
-9.441900 1.724900
-9.425300 1.724900
-9.408700 1.724900
-9.392200 1.724900
-9.375600 1.724900
-9.359000 1.724900
-9.342400 1.724900
-9.325900 1.728100
-9.309300 1.741400
-9.292700 1.772700
-9.276100 1.783900
-9.259600 1.783900
-9.243000 1.796900
-9.226400 1.854100
-9.209800 1.870200
-9.193200 1.881300
-9.176700 1.905600
-9.160100 1.938200
-9.143500 1.955800
-9.126900 1.965800
-9.110400 1.968200
-9.093800 1.968200
-9.077200 1.968200
-9.060600 1.968200
-9.044100 1.968200
-9.027500 1.968200
-9.010900 1.968100
-8.994300 1.968100
-8.977800 1.968100
-8.961200 1.968100
-8.944600 1.968100
-8.928000 1.968100
-8.911500 1.968100
-8.894900 1.968100
-8.878300 1.968100
-8.861700 1.968100
-8.845200 1.968100
-8.828600 1.968100
-8.812000 1.968100
-8.795400 1.968100
-8.778900 1.968100
-8.762300 1.968100
-8.745700 1.968100
-8.729100 1.968100
-8.712500 1.968100
-8.696000 1.968100
-8.679400 1.968000
-8.662800 1.968000
-8.646200 1.968000
-8.629700 1.968000
-8.613100 1.968000
-8.596500 1.968000
-8.579900 1.968000
-8.563400 1.968000
-8.546800 1.968000
-8.530200 1.968000
-8.513600 1.968000
-8.497100 1.968000
-8.480500 1.968000
-8.463900 1.968000
-8.447300 1.968000
-8.430800 1.968000
-8.414200 1.968000
-8.397600 1.968000
-8.381000 1.968000
-8.364500 1.968000
-8.347900 1.967900
-8.331300 1.967900
-8.314700 2.017600
-8.298200 2.197100
-8.281600 2.516100
-8.265000 2.598800
-8.248400 2.599800
-8.231800 2.723000
-8.215300 3.086000
-8.198700 3.266400
-8.182100 3.293200
-8.165500 3.389200
-8.149000 3.556500
-8.132400 3.784700
-8.115800 3.915800
-8.099200 4.003200
-8.082700 4.047000
-8.066100 4.052600
-8.049500 4.052900
-8.032900 4.053100
-8.016400 4.053400
-7.999800 4.053700
-7.983200 4.054000
-7.966600 4.054200
-7.950100 4.054500
-7.933500 4.054900
-7.916900 4.055200
-7.900300 4.055500
-7.883800 4.055900
-7.867200 4.056200
-7.850600 4.056600
-7.834000 4.057000
-7.817500 4.057300
-7.800900 4.057700
-7.784300 3.979300
-7.767700 2.764800
-7.751200 2.765100
-7.734600 2.765500
-7.718000 1.927200
-7.701400 1.447600
-7.684800 1.191100
-7.668300 0.289700
-7.651700 0.000000
-7.635100 0.000000
-7.618500 0.000000
-7.602000 0.000000
-7.585400 0.000000
-7.568800 0.000000
-7.552200 0.000000
-7.535700 0.000000
-7.519100 0.000000
-7.502500 0.000000
-7.485900 0.000000
-7.469400 0.000000
-7.452800 0.000000
-7.436200 0.000000
-7.419600 0.000000
-7.403100 0.000000
-7.386500 0.000000
-7.369900 0.000000
-7.353300 0.000000
-7.336800 0.000000
-7.320200 0.000000
-7.303600 0.000000
-7.287000 0.000000
-7.270500 0.000000
-7.253900 0.000000
-7.237300 0.000000
-7.220700 0.000000
-7.204100 0.000000
-7.187600 0.000000
-7.171000 0.000000
-7.154400 0.000000
-7.137800 0.000000
-7.121300 0.000000
-7.104700 0.000000
-7.088100 0.000000
-7.071500 0.000000
-7.055000 0.000000
-7.038400 0.000000
-7.021800 0.000000
-7.005200 0.000000
-6.988700 0.000000
-6.972100 0.000000
-6.955500 0.000000
-6.938900 0.000000
-6.922400 0.000000
-6.905800 0.000000
-6.889200 0.000000
-6.872600 0.000000
-6.856100 0.000000
-6.839500 0.000000
-6.822900 0.000000
-6.806300 0.000000
-6.789800 0.000000
-6.773200 0.000000
-6.756600 0.000000
-6.740000 0.000000
-6.723400 0.000000
-6.706900 0.000000
-6.690300 0.000000
-6.673700 0.000000
-6.657100 0.000000
-6.640600 0.000000
-6.624000 0.000000
-6.607400 0.000000
-6.590800 0.000000
-6.574300 0.000000
-6.557700 0.000000
-6.541100 0.000000
-6.524500 0.000000
-6.508000 0.000000
-6.491400 0.000000
-6.474800 0.000000
-6.458200 0.000000
-6.441700 0.000000
-6.425100 0.000000
-6.408500 0.000000
-6.391900 0.000000
-6.375400 0.000000
-6.358800 0.000000
-6.342200 0.000000
-6.325600 0.000000
-6.309100 0.000000
-6.292500 0.000000
-6.275900 0.000000
-6.259300 0.000000
-6.242800 0.000000
-6.226200 0.000000
-6.209600 0.000000
-6.193000 0.000000
-6.176400 0.000000
-6.159900 0.000000
-6.143300 0.000000
-6.126700 0.000000
-6.110100 0.000000
-6.093600 0.000000
-6.077000 0.000000
-6.060400 0.000000
-6.043800 0.000000
-6.027300 0.000000
-6.010700 0.000000
-5.994100 0.000000
-5.977500 0.000000
-5.961000 0.000000
-5.944400 0.000000
-5.927800 0.000000
-5.911200 0.000000
-5.894700 0.000000
-5.878100 0.000000
-5.861500 0.000000
-5.844900 0.000000
-5.828400 0.000000
-5.811800 0.000000
-5.795200 0.000000
-5.778600 0.000000
-5.762100 0.000000
-5.745500 0.000000
-5.728900 0.000000
-5.712300 0.000000
-5.695700 0.000000
-5.679200 0.000000
-5.662600 0.000000
-5.646000 0.000000
-5.629400 0.000000
-5.612900 0.000000
-5.596300 0.000000
-5.579700 0.000000
-5.563100 0.000000
-5.546600 0.000000
-5.530000 0.000000
-5.513400 0.000000
-5.496800 0.000000
-5.480300 0.000000
-5.463700 0.000000
-5.447100 0.000000
-5.430500 0.000000
-5.414000 0.153900
-5.397400 1.573800
-5.380800 2.326300
-5.364200 2.942500
-5.347700 3.060300
-5.331100 3.189000
-5.314500 3.502600
-5.297900 4.001100
-5.281400 4.306900
-5.264800 4.462800
-5.248200 4.487700
-5.231600 4.487400
-5.215000 4.487100
-5.198500 4.486800
-5.181900 4.486600
-5.165300 4.486300
-5.148700 4.486100
-5.132200 4.485900
-5.115600 4.485700
-5.099000 4.485600
-5.082400 4.485500
-5.065900 4.485400
-5.049300 4.485300
-5.032700 4.485200
-5.016100 4.485200
-4.999600 4.472100
-4.983000 4.249200
-4.966400 3.972900
-4.949800 3.892300
-4.933300 3.741700
-4.916700 3.521100
-4.900100 3.454900
-4.883500 3.439900
-4.867000 3.396800
-4.850400 3.325500
-4.833800 3.226000
-4.817200 3.165700
-4.800700 3.133300
-4.784100 3.112800
-4.767500 3.104200
-4.750900 3.104000
-4.734300 3.104000
-4.717800 3.104100
-4.701200 3.104200
-4.684600 3.104300
-4.668000 3.104300
-4.651500 3.104400
-4.634900 3.104500
-4.618300 3.104600
-4.601700 3.104700
-4.585200 3.104800
-4.568600 3.104900
-4.552000 3.105000
-4.535400 3.105100
-4.518900 3.105200
-4.502300 3.105300
-4.485700 3.105500
-4.469100 3.105600
-4.452600 3.105700
-4.436000 3.105900
-4.419400 3.106000
-4.402800 3.106100
-4.386300 3.106300
-4.369700 3.106500
-4.353100 3.106600
-4.336500 3.608900
-4.320000 5.389300
-4.303400 7.786600
-4.286800 8.701600
-4.270200 14.173800
-4.253700 14.250400
-4.237100 14.393700
-4.220500 13.412600
-4.203900 13.070900
-4.187300 13.282600
-4.170800 10.209300
-4.154200 10.772400
-4.137600 14.034800
-4.121000 16.581600
-4.104500 18.797400
-4.087900 19.246600
-4.071300 16.905500
-4.054700 15.296000
-4.038200 14.428400
-4.021600 13.688700
-4.005000 12.996800
-3.988400 12.364500
-3.971900 11.554800
-3.955300 10.844700
-3.938700 11.034200
-3.922100 11.829500
-3.905600 12.758600
-3.889000 13.639300
-3.872400 12.153400
-3.855800 12.343000
-3.839300 11.932800
-3.822700 10.915900
-3.806100 9.292400
-3.789500 7.964500
-3.773000 6.513600
-3.756400 5.863500
-3.739800 5.800500
-3.723200 5.770100
-3.706600 5.735000
-3.690100 5.639100
-3.673500 5.472200
-3.656900 5.234300
-3.640300 4.911300
-3.623800 4.497300
-3.607200 4.115100
-3.590600 3.559700
-3.574000 2.957600
-3.557500 2.685600
-3.540900 2.770200
-3.524300 2.765300
-3.507700 1.823000
-3.491200 1.019900
-3.474600 0.673400
-3.458000 1.067900
-3.441400 1.169700
-3.424900 1.169600
-3.408300 1.198100
-3.391700 1.305900
-3.375100 1.493800
-3.358600 1.762000
-3.342000 2.110300
-3.325400 2.445300
-3.308800 2.703700
-3.292300 2.961200
-3.275700 3.145500
-3.259100 3.298400
-3.242500 3.419900
-3.225900 3.509900
-3.209400 3.568500
-3.192800 3.595700
-3.176200 3.598000
-3.159600 3.598400
-3.143100 3.598900
-3.126500 3.599400
-3.109900 3.600100
-3.093300 3.600800
-3.076800 3.601700
-3.060200 3.602600
-3.043600 3.603500
-3.027000 3.604600
-3.010500 3.605800
-2.993900 3.607000
-2.977300 3.608300
-2.960700 3.614100
-2.944200 3.630300
-2.927600 3.657000
-2.911000 3.694000
-2.894400 3.729200
-2.877900 3.754800
-2.861300 3.770700
-2.844700 3.776700
-2.828100 3.777600
-2.811600 3.757600
-2.795000 3.655100
-2.778400 3.630100
-2.761800 3.618700
-2.745300 3.594800
-2.728700 3.530600
-2.712100 3.509700
-2.695500 3.508200
-2.678900 3.506700
-2.662400 3.505200
-2.645800 3.503800
-2.629200 3.502500
-2.612600 3.501100
-2.596100 3.499900
-2.579500 3.498600
-2.562900 3.497500
-2.546300 3.514500
-2.529800 3.601400
-2.513200 3.761500
-2.496600 3.990000
-2.480000 4.216300
-2.463500 4.417100
-2.446900 4.592200
-2.430300 4.741800
-2.413700 4.868300
-2.397200 5.259700
-2.380600 5.692000
-2.364000 5.992800
-2.347400 6.162100
-2.330900 6.199900
-2.314300 6.106200
-2.297700 5.330700
-2.281100 4.670100
-2.264600 4.153400
-2.248000 3.741200
-2.231400 3.596200
-2.214800 3.829000
-2.198200 4.204700
-2.181700 4.640100
-2.165100 5.134900
-2.148500 5.653000
-2.131900 6.130900
-2.115400 6.425100
-2.098800 6.499800
-2.082200 6.602700
-2.065600 6.605900
-2.049100 6.367600
-2.032500 5.887900
-2.015900 5.166700
-1.999300 4.204600
-1.982800 3.205400
-1.966200 2.530000
-1.949600 1.760300
-1.933000 1.369400
-1.916500 1.089800
-1.899900 0.842200
-1.883300 0.626400
-1.866700 0.442500
-1.850200 0.290400
-1.833600 0.170300
-1.817000 0.082000
-1.800400 0.025600
-1.783900 0.001100
-1.767300 0.000000
-1.750700 0.000000
-1.734100 0.000000
-1.717500 5.946100
-1.701000 5.910400
-1.684400 5.962000
-1.667800 6.121700
-1.651200 6.530900
-1.634700 7.831600
-1.618100 10.186100
-1.601500 11.659000
-1.584900 12.364100
-1.568400 11.557500
-1.551800 10.133200
-1.535200 6.759300
-1.518600 5.047600
-1.502100 5.096500
-1.485500 5.135800
-1.468900 5.082600
-1.452300 5.190600
-1.435800 5.144300
-1.419200 4.898100
-1.402600 4.452000
-1.386000 4.296000
-1.369500 5.281500
-1.352900 5.708800
-1.336300 6.774600
-1.319700 6.701500
-1.303200 6.651000
-1.286600 6.622900
-1.270000 6.616600
-1.253400 6.616800
-1.236900 6.617000
-1.220300 6.617300
-1.203700 6.617600
-1.187100 6.618000
-1.170500 6.618400
-1.154000 6.618900
-1.137400 6.619400
-1.120800 6.620000
-1.104200 6.620100
-1.087700 6.614600
-1.071100 6.602100
-1.054500 6.582700
-1.037900 6.556400
-1.021400 6.523100
-1.004800 6.377400
-0.988200 6.138800
-0.971600 5.817500
-0.955100 5.656400
-0.938500 5.560100
-0.921900 5.528700
-0.905300 5.528800
-0.888800 5.524200
-0.872200 5.476700
-0.855600 5.378100
-0.839000 5.251100
-0.822500 5.215000
-0.805900 5.188700
-0.789300 5.172200
-0.772700 5.165600
-0.756200 5.165500
-0.739600 5.165700
-0.723000 5.165800
-0.706400 5.165900
-0.689800 5.166100
-0.673300 5.189100
-0.656700 5.392200
-0.640100 5.571900
-0.623500 5.666900
-0.607000 5.994600
-0.590400 5.994200
-0.573800 5.993700
-0.557200 5.993400
-0.540700 6.022300
-0.524100 6.105200
-0.507500 6.240500
-0.490900 6.324600
-0.474400 6.370800
-0.457800 6.404800
-0.441200 6.426700
-0.424600 6.436500
-0.408100 6.437000
-0.391500 6.436900
-0.374900 6.621800
-0.358300 6.790200
-0.341800 6.789300
-0.325200 6.788400
-0.308600 6.787600
-0.292000 7.224900
-0.275500 7.256300
-0.258900 7.255300
-0.242300 7.254300
-0.225700 7.253400
-0.209100 7.252600
-0.192600 7.286000
-0.176000 7.450700
-0.159400 7.752600
