set title 'mp-1226722 - Density of States'
set xlabel 'Energy (eV)'
set ylabel 'DOS (states/eV)'
set grid
set xrange [-10:10]
set yrange [0:29.572]
set xzeroaxis lt -1
set terminal png size 800,600
set output 'mp-1226722_dos_gnuplot.png'
plot '-' using 1:2 with lines title 'DOS'
-10.583100 0.000000
-10.554900 0.000000
-10.526700 0.000000
-10.498400 0.000000
-10.470200 0.000000
-10.442000 0.000000
-10.413800 0.000000
-10.385600 0.000000
-10.357400 0.000000
-10.329100 0.000000
-10.300900 0.000000
-10.272700 0.000000
-10.244500 0.000000
-10.216300 0.000000
-10.188100 0.000000
-10.159900 0.000000
-10.131600 0.000000
-10.103400 0.000000
-10.075200 0.000000
-10.047000 0.000000
-10.018800 0.000000
-9.990600 0.000000
-9.962400 0.000000
-9.934100 0.000000
-9.905900 0.000000
-9.877700 0.000000
-9.849500 0.000000
-9.821300 0.000000
-9.793100 0.000000
-9.764900 0.000000
-9.736600 0.000000
-9.708400 0.000000
-9.680200 0.000000
-9.652000 0.000000
-9.623800 0.000000
-9.595600 0.000000
-9.567300 0.000000
-9.539100 0.000000
-9.510900 0.000000
-9.482700 0.000000
-9.454500 0.000000
-9.426300 0.000000
-9.398100 0.000000
-9.369800 0.000000
-9.341600 0.000000
-9.313400 0.000000
-9.285200 0.000000
-9.257000 0.000000
-9.228800 0.000000
-9.200600 0.000000
-9.172300 0.000000
-9.144100 0.000000
-9.115900 0.000000
-9.087700 0.000000
-9.059500 0.000000
-9.031300 0.000000
-9.003000 0.000000
-8.974800 0.000000
-8.946600 0.000000
-8.918400 0.000000
-8.890200 0.000000
-8.862000 0.000000
-8.833800 0.000000
-8.805500 0.000000
-8.777300 0.000000
-8.749100 0.000000
-8.720900 0.000000
-8.692700 0.000000
-8.664500 0.000000
-8.636300 0.000000
-8.608000 0.000000
-8.579800 0.000000
-8.551600 0.000000
-8.523400 0.000000
-8.495200 0.000000
-8.467000 0.000000
-8.438700 0.000000
-8.410500 0.000000
-8.382300 0.000000
-8.354100 0.000000
-8.325900 0.000000
-8.297700 0.000000
-8.269500 0.000000
-8.241200 0.000000
-8.213000 0.000000
-8.184800 0.000000
-8.156600 0.000000
-8.128400 0.000100
-8.100200 0.001500
-8.072000 0.009200
-8.043700 0.031700
-8.015500 0.070200
-7.987300 0.120800
-7.959100 0.187000
-7.930900 0.265900
-7.902700 0.341400
-7.874500 0.399500
-7.846200 0.456900
-7.818000 0.500400
-7.789800 0.471500
-7.761600 0.453000
-7.733400 0.558400
-7.705200 0.682800
-7.676900 0.735900
-7.648700 0.813900
-7.620500 0.984500
-7.592300 1.203300
-7.564100 1.387400
-7.535900 1.528800
-7.507700 1.714300
-7.479400 1.890900
-7.451200 1.878900
-7.423000 1.712300
-7.394800 1.511700
-7.366600 1.199700
-7.338400 0.824500
-7.310200 0.657300
-7.281900 0.764000
-7.253700 1.011700
-7.225500 1.307900
-7.197300 1.528700
-7.169100 1.529300
-7.140900 1.281700
-7.112600 0.869100
-7.084400 0.533200
-7.056200 0.442200
-7.028000 0.462400
-6.999800 0.453800
-6.971600 0.463500
-6.943400 0.561100
-6.915100 0.689200
-6.886900 0.806300
-6.858700 1.029700
-6.830500 1.332500
-6.802300 1.448800
-6.774100 1.207800
-6.745900 0.750300
-6.717600 0.403200
-6.689400 0.307000
-6.661200 0.335300
-6.633000 0.362800
-6.604800 0.397400
-6.576600 0.446300
-6.548400 0.462200
-6.520100 0.492500
-6.491900 0.591100
-6.463700 0.684600
-6.435500 0.806300
-6.407300 1.095200
-6.379100 1.509400
-6.350800 1.739700
-6.322600 1.430600
-6.294400 0.750200
-6.266200 0.238600
-6.238000 0.064900
-6.209800 0.092500
-6.181600 0.220400
-6.153300 0.378100
-6.125100 0.504200
-6.096900 0.594500
-6.068700 0.701500
-6.040500 0.881300
-6.012300 1.239600
-5.984100 1.826900
-5.955800 2.222800
-5.927600 1.886000
-5.899400 1.158400
-5.871200 0.864700
-5.843000 1.104700
-5.814800 1.359100
-5.786500 1.252000
-5.758300 0.842600
-5.730100 0.406200
-5.701900 0.133000
-5.673700 0.027700
-5.645500 0.003500
-5.617300 0.000300
-5.589000 0.000000
-5.560800 0.000000
-5.532600 0.000000
-5.504400 0.000000
-5.476200 0.000000
-5.448000 0.000000
-5.419800 0.000000
-5.391500 0.000000
-5.363300 0.000000
-5.335100 0.000000
-5.306900 0.000000
-5.278700 0.000000
-5.250500 0.000000
-5.222200 0.000000
-5.194000 0.000000
-5.165800 0.000000
-5.137600 0.000000
-5.109400 0.000000
-5.081200 0.000000
-5.053000 0.000000
-5.024700 0.000000
-4.996500 0.000000
-4.968300 0.000000
-4.940100 0.000000
-4.911900 0.000000
-4.883700 0.000000
-4.855500 0.000000
-4.827200 0.000000
-4.799000 0.000000
-4.770800 0.000000
-4.742600 0.000000
-4.714400 0.000000
-4.686200 0.000000
-4.658000 0.000200
-4.629700 0.003200
-4.601500 0.036400
-4.573300 0.235900
-4.545100 0.900900
-4.516900 2.172500
-4.488700 3.631100
-4.460400 4.399000
-4.432200 3.686700
-4.404000 2.111700
-4.375800 1.487100
-4.347600 2.759700
-4.319400 5.304100
-4.291200 7.777100
-4.262900 9.293300
-4.234700 10.562400
-4.206500 13.457900
-4.178300 17.368900
-4.150100 19.564300
-4.121900 19.972200
-4.093700 20.603300
-4.065400 21.382700
-4.037200 22.156400
-4.009000 24.676700
-3.980800 26.883300
-3.952600 24.514000
-3.924400 19.882200
-3.896100 16.886100
-3.867900 13.881900
-3.839700 9.379100
-3.811500 5.459000
-3.783300 3.736400
-3.755100 3.507300
-3.726900 3.551200
-3.698600 3.370200
-3.670400 2.970200
-3.642200 2.395800
-3.614000 1.733800
-3.585800 1.180700
-3.557600 0.795600
-3.529400 0.473400
-3.501100 0.207300
-3.472900 0.059500
-3.444700 0.010500
-3.416500 0.001100
-3.388300 0.000100
-3.360100 0.000000
-3.331900 0.000000
-3.303600 0.000000
-3.275400 0.000000
-3.247200 0.000000
-3.219000 0.000000
-3.190800 0.000000
-3.162600 0.000000
-3.134300 0.000000
-3.106100 0.000000
-3.077900 0.000000
-3.049700 0.000000
-3.021500 0.000000
-2.993300 0.000000
-2.965100 0.000000
-2.936800 0.000000
-2.908600 0.000000
-2.880400 0.000000
-2.852200 0.000000
-2.824000 0.000000
-2.795800 0.000000
-2.767600 0.000000
-2.739300 0.000000
-2.711100 0.000000
-2.682900 0.000000
-2.654700 0.000000
-2.626500 0.000000
-2.598300 0.000000
-2.570000 0.000000
-2.541800 0.000000
-2.513600 0.000000
-2.485400 0.000000
-2.457200 0.000000
-2.429000 0.000000
-2.400800 0.000000
-2.372500 0.000000
-2.344300 0.000000
-2.316100 0.000000
-2.287900 0.000000
-2.259700 0.000000
-2.231500 0.000000
-2.203300 0.000000
-2.175000 0.000000
-2.146800 0.000000
-2.118600 0.000000
-2.090400 0.000000
-2.062200 0.000000
-2.034000 0.000000
-2.005700 0.000000
-1.977500 0.000000
-1.949300 0.000000
-1.921100 0.000000
-1.892900 0.000000
-1.864700 0.000000
-1.836500 0.000000
-1.808200 0.000000
-1.780000 0.000100
-1.751800 0.000900
-1.723600 0.007100
-1.695400 0.032300
-1.667200 0.082100
-1.639000 0.124900
-1.610700 0.138000
-1.582500 0.161300
-1.554300 0.213400
-1.526100 0.227700
-1.497900 0.187700
-1.469700 0.180500
-1.441500 0.249900
-1.413200 0.360100
-1.385000 0.407200
-1.356800 0.337800
-1.328600 0.264100
-1.300400 0.303900
-1.272200 0.439600
-1.243900 0.501200
-1.215700 0.369900
-1.187500 0.213800
-1.159300 0.214500
-1.131100 0.310600
-1.102900 0.384200
-1.074700 0.425500
-1.046400 0.481000
-1.018200 0.585700
-0.990000 0.659100
-0.961800 0.600200
-0.933600 0.544200
-0.905400 0.632900
-0.877200 0.672100
-0.848900 0.502300
-0.820700 0.329000
-0.792500 0.305000
-0.764300 0.323800
-0.736100 0.348100
-0.707900 0.458000
-0.679600 0.663800
-0.651400 0.846100
-0.623200 0.915600
-0.595000 0.904600
-0.566800 0.810000
-0.538600 0.678000
-0.510400 0.661600
-0.482100 0.838000
-0.453900 1.204500
-0.425700 1.639100
-0.397500 1.902300
-0.369300 1.825000
-0.341100 1.478400
-0.312900 1.190800
-0.284600 1.110500
-0.256400 1.028400
-0.228200 0.856800
-0.200000 0.770800
-0.171800 0.841900
-0.143600 0.996800
-0.115400 1.246600
-0.087100 1.536000
-0.058900 1.648900
-0.030700 1.542600
-0.002500 1.383900
0.025700 1.384300
0.053900 1.579500
0.082200 1.717900
0.110400 1.628300
0.138600 1.508700
0.166800 1.514100
0.195000 1.466400
0.223200 1.370600
0.251400 1.374100
0.279700 1.317000
0.307900 1.066500
0.336100 0.751100
0.364300 0.535700
0.392500 0.456700
0.420700 0.415500
0.448900 0.400400
0.477200 0.558200
0.505400 0.873700
0.533600 1.128900
0.561800 1.215800
0.590000 1.150500
0.618200 0.954700
0.646500 0.738900
0.674700 0.609800
0.702900 0.514400
0.731100 0.407700
0.759300 0.368500
0.787500 0.476700
0.815700 0.635300
0.844000 0.709800
0.872200 0.817100
0.900400 1.025100
0.928600 1.177600
0.956800 1.226100
0.985000 1.248400
1.013200 1.243300
1.041500 1.163800
1.069700 0.939400
1.097900 0.686800
1.126100 0.752200
1.154300 1.093800
1.182500 1.292400
1.210800 1.258600
1.239000 1.239300
1.267200 1.291100
1.295400 1.234700
1.323600 1.066300
1.351800 0.908800
1.380000 0.816900
1.408300 0.879600
1.436500 1.055000
1.464700 1.126900
1.492900 1.085500
1.521100 1.119900
1.549300 1.167100
1.577500 1.086400
1.605800 0.996800
1.634000 1.026600
1.662200 1.033800
1.690400 0.888100
1.718600 0.760900
1.746800 0.854100
1.775000 1.059800
1.803300 1.157400
1.831500 1.249800
1.859700 1.464300
1.887900 1.606200
1.916100 1.537400
1.944300 1.336400
1.972600 1.090600
2.000800 0.928900
2.029000 1.059900
2.057200 1.369000
2.085400 1.492600
2.113600 1.411800
2.141800 1.202700
2.170100 0.927300
2.198300 0.753700
2.226500 0.721900
2.254700 0.857100
2.282900 1.144200
2.311100 1.432400
2.339300 1.559900
2.367600 1.507600
2.395800 1.506500
2.424000 1.670100
2.452200 1.841400
2.480400 1.907300
2.508600 1.746400
2.536900 1.384400
2.565100 1.115500
2.593300 1.107100
2.621500 1.355400
2.649700 1.744300
2.677900 1.942700
2.706100 1.828500
2.734400 1.770800
2.762600 1.918700
2.790800 1.987700
2.819000 1.867900
2.847200 1.646100
2.875400 1.569700
2.903600 1.881500
2.931900 2.438200
2.960100 2.866300
2.988300 2.877000
3.016500 2.481500
3.044700 2.019700
3.072900 1.753200
3.101100 1.693600
3.129400 1.698200
3.157600 1.632800
3.185800 1.525900
3.214000 1.369600
3.242200 1.101500
3.270400 0.813100
3.298700 0.626600
3.326900 0.514200
3.355100 0.455800
3.383300 0.509400
3.411500 0.675800
3.439700 0.801700
3.467900 0.723900
3.496200 0.513600
3.524400 0.303600
3.552600 0.136600
3.580800 0.053700
3.609000 0.096200
3.637200 0.313900
3.665400 0.639700
3.693700 0.782000
3.721900 0.619700
3.750100 0.403700
3.778300 0.295400
3.806500 0.234100
3.834700 0.185700
3.863000 0.146100
3.891200 0.127300
3.919400 0.142900
3.947600 0.158300
3.975800 0.143400
4.004000 0.106700
4.032200 0.107000
4.060500 0.178900
4.088700 0.253900
4.116900 0.297200
4.145100 0.354400
4.173300 0.395600
4.201500 0.400500
4.229700 0.459300
4.258000 0.670600
4.286200 0.960800
4.314400 1.069100
4.342600 0.893000
4.370800 0.673900
4.399000 0.678600
4.427300 0.853300
4.455500 1.022500
4.483700 1.167700
4.511900 1.315100
4.540100 1.381000
4.568300 1.269900
4.596500 1.037800
4.624800 0.851300
4.653000 0.711400
4.681200 0.606800
4.709400 0.625400
4.737600 0.705300
4.765800 0.703600
4.794000 0.616500
4.822300 0.558600
4.850500 0.553900
4.878700 0.601200
4.906900 0.822900
4.935100 1.259000
4.963300 1.640400
4.991500 1.686400
5.019800 1.446800
5.048000 1.100600
5.076200 0.795700
5.104400 0.634500
5.132600 0.586800
5.160800 0.652300
5.189100 0.817800
5.217300 0.923400
5.245500 0.866000
5.273700 0.716100
5.301900 0.669500
5.330100 0.857600
5.358300 1.207900
5.386600 1.431500
5.414800 1.341800
5.443000 1.170400
5.471200 1.181300
5.499400 1.375900
5.527600 1.562100
5.555800 1.553300
5.584100 1.307800
5.612300 0.989200
5.640500 0.853600
5.668700 0.888100
5.696900 0.932400
5.725100 0.885000
5.753400 0.682800
5.781600 0.411000
5.809800 0.251400
5.838000 0.289600
5.866200 0.437100
5.894400 0.626600
5.922600 0.884500
5.950900 1.089200
5.979100 1.152300
6.007300 1.139100
6.035500 0.996100
6.063700 0.778700
6.091900 0.718600
6.120100 0.779800
6.148400 0.750900
6.176600 0.658500
6.204800 0.645800
6.233000 0.850200
6.261200 1.293800
6.289400 1.642800
6.317600 1.588900
6.345900 1.284800
6.374100 1.029200
6.402300 0.878900
6.430500 0.768000
6.458700 0.747700
6.486900 0.881100
6.515200 1.049100
6.543400 1.050000
6.571600 0.940000
6.599800 0.866100
6.628000 0.769200
6.656200 0.658900
6.684400 0.628600
6.712700 0.669900
6.740900 0.704100
6.769100 0.662500
6.797300 0.532500
6.825500 0.355300
6.853700 0.214300
6.881900 0.142400
6.910200 0.130700
6.938400 0.198700
6.966600 0.426700
6.994800 0.864400
7.023000 1.270900
7.051200 1.438600
7.079500 1.555000
7.107700 1.703300
7.135900 1.696800
7.164100 1.449400
7.192300 1.148300
7.220500 1.003900
7.248700 1.007700
7.277000 1.054500
7.305200 1.152800
7.333400 1.294500
7.361600 1.248500
7.389800 0.976400
7.418000 0.743800
7.446200 0.630900
7.474500 0.562800
7.502700 0.503800
7.530900 0.495000
7.559100 0.615800
7.587300 0.826800
7.615500 1.107700
7.643800 1.478100
7.672000 1.743700
7.700200 1.669300
7.728400 1.269000
7.756600 0.840500
7.784800 0.668200
7.813000 0.699000
7.841300 0.751700
7.869500 0.730300
7.897700 0.679800
7.925900 0.724800
7.954100 0.796700
7.982300 0.809800
8.010500 0.937300
8.038800 1.282200
8.067000 1.586800
8.095200 1.561100
8.123400 1.234300
8.151600 0.898200
8.179800 0.810700
8.208000 0.967800
8.236300 1.071900
8.264500 0.936400
8.292700 0.735300
8.320900 0.686900
8.349100 0.859400
8.377300 1.086400
8.405600 1.284700
8.433800 1.467200
8.462000 1.395400
8.490200 1.108400
8.518400 1.071900
8.546600 1.329100
8.574800 1.431400
8.603100 1.331800
8.631300 1.308600
8.659500 1.358400
8.687700 1.337600
8.715900 1.197200
8.744100 1.171600
8.772300 1.532300
8.800600 2.042500
8.828800 2.245000
8.857000 2.031600
8.885200 1.662300
8.913400 1.530500
8.941600 1.689100
8.969900 1.797600
8.998100 1.695000
9.026300 1.440700
9.054500 1.173000
9.082700 1.115300
9.110900 1.224000
9.139100 1.317400
9.167400 1.385100
9.195600 1.405000
9.223800 1.303600
9.252000 1.104700
9.280200 1.021300
9.308400 1.217200
9.336600 1.457700
9.364900 1.523100
9.393100 1.542700
9.421300 1.514900
9.449500 1.322700
9.477700 1.074500
9.505900 1.011700
9.534200 1.235700
9.562400 1.592600
9.590600 1.816600
9.618800 1.692100
9.647000 1.273800
9.675200 0.998300
9.703400 1.058800
9.731700 1.197300
9.759900 1.234700
9.788100 1.286300
9.816300 1.527500
9.844500 1.831700
9.872700 1.947100
9.900900 1.912000
9.929200 1.802400
9.957400 1.640900
9.985600 1.622100
10.013800 1.818700
10.042000 1.957300
10.070200 1.742000
10.098400 1.283700
10.126700 1.096300
10.154900 1.422300
10.183100 1.875000
10.211300 2.070000
10.239500 1.971400
10.267700 1.666700
10.296000 1.300100
10.324200 1.056700
10.352400 1.011400
10.380600 1.079300
10.408800 1.175200
10.437000 1.217400
10.465200 1.169100
10.493500 1.134900
10.521700 1.091200
10.549900 0.883300
10.578100 0.628400
10.606300 0.515000
10.634500 0.583200
10.662700 0.778600
10.691000 0.839300
10.719200 0.723500
10.747400 0.720600
10.775600 0.829500
10.803800 0.849300
10.832000 0.816800
10.860300 0.919000
10.888500 1.163900
10.916700 1.317100
10.944900 1.245300
10.973100 1.034100
11.001300 0.826300
11.029500 0.813400
11.057800 1.071100
11.086000 1.401800
11.114200 1.549300
11.142400 1.424800
11.170600 1.170000
11.198800 0.941100
11.227000 0.763900
11.255300 0.667200
11.283500 0.611000
11.311700 0.531100
11.339900 0.505800
11.368100 0.561700
11.396300 0.648400
11.424500 0.858800
11.452800 1.186000
11.481000 1.344400
11.509200 1.293500
11.537400 1.291800
11.565600 1.411900
11.593800 1.591300
11.622100 1.673900
11.650300 1.462800
11.678500 1.136200
11.706700 1.007300
11.734900 1.035300
11.763100 1.034000
11.791300 0.952300
11.819600 0.928700
11.847800 1.090400
11.876000 1.316200
11.904200 1.435600
11.932400 1.414100
11.960600 1.271600
11.988800 1.072100
12.017100 1.028000
12.045300 1.324200
12.073500 1.691100
12.101700 1.628500
12.129900 1.225900
12.158100 0.981800
12.186400 0.969900
12.214600 0.990600
12.242800 1.045500
12.271000 1.277800
12.299200 1.605300
12.327400 1.648700
12.355600 1.453200
12.383900 1.562400
12.412100 1.938400
12.440300 1.945100
12.468500 1.676200
12.496700 1.740300
12.524900 1.914400
12.553100 1.757000
12.581400 1.617800
12.609600 1.880700
12.637800 2.141400
12.666000 1.845000
12.694200 1.183300
12.722400 0.700300
12.750700 0.632600
12.778900 0.919700
12.807100 1.297700
12.835300 1.533300
12.863500 1.694100
12.891700 1.811900
12.919900 1.752200
12.948200 1.507200
12.976400 1.151700
13.004600 0.728100
13.032800 0.499000
13.061000 0.735800
13.089200 1.221900
13.117400 1.487800
13.145700 1.477300
13.173900 1.473900
13.202100 1.558400
13.230300 1.628500
13.258500 1.661900
13.286700 1.623100
13.314900 1.481300
13.343200 1.484400
13.371400 1.766500
13.399600 1.882300
13.427800 1.576700
13.456000 1.219700
13.484200 1.111400
13.512500 1.198500
13.540700 1.271400
13.568900 1.197100
13.597100 1.104700
13.625300 1.158900
13.653500 1.274900
13.681700 1.373500
13.710000 1.578100
13.738200 1.952300
13.766400 2.292600
13.794600 2.248000
13.822800 1.830000
13.851000 1.476100
13.879200 1.358800
13.907500 1.217200
13.935700 0.923700
13.963900 0.760600
13.992100 0.926000
14.020300 1.162100
14.048500 1.186600
14.076800 1.169600
14.105000 1.404300
14.133200 1.891900
14.161400 2.357300
14.189600 2.441100
14.217800 2.087100
14.246000 1.659500
14.274300 1.495200
14.302500 1.572000
14.330700 1.681400
14.358900 1.760000
14.387100 1.755900
14.415300 1.554000
14.443500 1.348600
14.471800 1.440800
14.500000 1.687000
14.528200 1.677300
14.556400 1.444700
14.584600 1.364100
14.612800 1.552800
14.641000 1.681700
14.669300 1.447400
14.697500 1.243400
14.725700 1.581200
14.753900 2.204400
14.782100 2.447900
14.810300 2.213300
14.838600 1.981400
14.866800 2.041500
14.895000 2.239500
14.923200 2.163100
14.951400 1.711000
14.979600 1.351200
15.007800 1.540400
15.036100 2.054300
15.064300 2.206100
15.092500 1.802200
15.120700 1.311800
15.148900 1.160300
15.177100 1.403500
15.205300 1.854100
15.233600 2.117900
15.261800 2.022700
15.290000 1.861500
15.318200 1.886500
15.346400 1.981100
15.374600 1.883600
15.402900 1.665900
15.431100 1.747100
15.459300 2.127200
15.487500 2.224100
15.515700 1.866400
15.543900 1.579400
15.572100 1.700800
15.600400 1.878700
15.628600 1.764400
15.656800 1.572700
15.685000 1.548000
15.713200 1.644300
15.741400 1.715800
15.769600 1.680900
15.797900 1.619600
15.826100 1.582800
15.854300 1.562400
15.882500 1.574600
15.910700 1.600200
15.938900 1.660500
15.967200 1.812400
15.995400 2.000600
16.023600 2.047600
16.051800 1.953300
16.080000 1.858800
16.108200 1.756200
16.136400 1.557500
16.164700 1.385100
16.192900 1.515400
16.221100 1.946200
16.249300 2.315900
16.277500 2.352900
16.305700 2.237100
16.333900 2.252300
16.362200 2.361500
16.390400 2.349100
16.418600 2.093800
16.446800 1.695000
16.475000 1.422000
16.503200 1.402100
16.531400 1.486000
16.559700 1.469400
16.587900 1.412700
16.616100 1.599100
16.644300 2.067000
16.672500 2.325800
16.700700 2.090200
16.729000 1.739600
16.757200 1.551300
16.785400 1.472100
16.813600 1.530100
16.841800 1.754200
16.870000 1.987000
16.898200 2.033100
16.926500 1.848000
16.954700 1.488500
16.982900 1.045800
17.011100 0.755700
17.039300 0.813600
17.067500 1.093400
17.095700 1.388800
17.124000 1.592000
17.152200 1.510300
17.180400 1.234500
17.208600 1.225400
17.236800 1.624500
17.265000 2.139700
17.293300 2.490200
17.321500 2.569200
17.349700 2.400400
17.377900 2.088200
17.406100 1.900800
17.434300 2.086200
17.462500 2.451800
17.490800 2.635500
17.519000 2.561400
17.547200 2.433600
17.575400 2.413900
17.603600 2.336200
17.631800 2.041200
17.660000 1.780500
17.688300 1.798000
17.716500 1.875800
17.744700 1.728900
17.772900 1.463000
17.801100 1.263400
17.829300 1.068600
17.857500 0.955900
17.885800 1.367700
17.914000 2.401700
17.942200 3.176800
17.970400 2.886900
17.998600 2.081100
18.026800 1.717400
18.055100 1.818800
18.083300 1.871000
18.111500 1.684300
18.139700 1.485300
18.167900 1.439400
18.196100 1.526100
18.224300 1.666400
18.252600 1.758600
18.280800 1.708600
18.309000 1.580000
18.337200 1.640500
18.365400 1.890400
18.393600 2.040500
18.421800 1.956300
18.450100 1.724700
18.478300 1.532300
18.506500 1.464100
18.534700 1.415800
18.562900 1.381400
18.591100 1.370500
18.619400 1.303600
18.647600 1.365000
18.675800 1.714300
18.704000 2.038000
18.732200 2.125800
18.760400 2.230400
18.788600 2.347800
18.816900 2.295300
18.845100 2.195100
18.873300 2.055400
18.901500 1.781100
18.929700 1.670200
18.957900 1.982600
18.986100 2.422100
19.014400 2.502400
19.042600 2.171900
19.070800 1.801900
19.099000 1.726900
19.127200 1.853700
