set title 'mp-556005 - Density of States'
set xlabel 'Energy (eV)'
set ylabel 'DOS (states/eV)'
set grid
set xrange [-10:10]
set yrange [0:230.537]
set xzeroaxis lt -1
set terminal png size 800,600
set output 'mp-556005_dos_gnuplot.png'
plot '-' using 1:2 with lines title 'DOS'
-12.541600 0.000000
-12.525800 0.000000
-12.510000 0.000000
-12.494200 0.000000
-12.478400 0.000000
-12.462600 0.000000
-12.446800 0.000000
-12.431000 0.000000
-12.415200 0.000000
-12.399400 0.000000
-12.383600 0.000000
-12.367800 0.000000
-12.352000 0.000000
-12.336200 0.000000
-12.320400 0.000000
-12.304700 0.000000
-12.288900 0.000000
-12.273100 0.000000
-12.257300 0.000000
-12.241500 0.000000
-12.225700 0.000000
-12.209900 0.000000
-12.194100 0.000000
-12.178300 0.000000
-12.162500 0.000000
-12.146700 0.000000
-12.130900 0.000000
-12.115100 0.000000
-12.099300 0.000000
-12.083500 0.000000
-12.067700 0.000000
-12.052000 0.000000
-12.036200 0.000000
-12.020400 0.000000
-12.004600 0.000000
-11.988800 0.000000
-11.973000 0.000000
-11.957200 0.000000
-11.941400 0.000000
-11.925600 0.000000
-11.909800 0.000000
-11.894000 0.000000
-11.878200 0.000000
-11.862400 0.000000
-11.846600 0.000000
-11.830800 0.000000
-11.815000 0.000000
-11.799200 0.000000
-11.783500 0.000000
-11.767700 0.000000
-11.751900 0.000000
-11.736100 0.000000
-11.720300 0.000000
-11.704500 0.000000
-11.688700 0.000000
-11.672900 0.000000
-11.657100 0.000000
-11.641300 0.000000
-11.625500 0.000000
-11.609700 0.000000
-11.593900 0.000000
-11.578100 0.000000
-11.562300 0.000000
-11.546500 0.000000
-11.530800 0.000000
-11.515000 0.000000
-11.499200 0.000000
-11.483400 0.000000
-11.467600 0.000000
-11.451800 0.000000
-11.436000 0.000000
-11.420200 0.000000
-11.404400 0.000000
-11.388600 0.000000
-11.372800 0.000000
-11.357000 0.000000
-11.341200 0.000000
-11.325400 0.000000
-11.309600 0.000000
-11.293800 0.000000
-11.278000 0.000000
-11.262300 0.000000
-11.246500 0.000000
-11.230700 0.000000
-11.214900 0.000000
-11.199100 0.000000
-11.183300 0.000000
-11.167500 0.000000
-11.151700 0.000000
-11.135900 0.000000
-11.120100 0.000000
-11.104300 0.021400
-11.088500 0.256900
-11.072700 0.492400
-11.056900 0.727900
-11.041100 0.963400
-11.025300 1.198900
-11.009600 1.434400
-10.993800 1.669800
-10.978000 1.946500
-10.962200 1.566200
-10.946400 2.106300
-10.930600 2.646400
-10.914800 3.186400
-10.899000 3.726500
-10.883200 4.266600
-10.867400 4.806700
-10.851600 4.389200
-10.835800 3.645600
-10.820000 3.740100
-10.804200 3.834600
-10.788400 3.929000
-10.772600 4.023500
-10.756800 4.118000
-10.741100 4.208100
-10.725300 4.293100
-10.709500 4.378200
-10.693700 4.463200
-10.677900 5.059700
-10.662100 5.839000
-10.646300 6.621200
-10.630500 7.411800
-10.614700 8.193800
-10.598900 8.975700
-10.583100 8.753100
-10.567300 7.972900
-10.551500 8.159500
-10.535700 8.356100
-10.519900 8.568800
-10.504100 8.781500
-10.488400 8.994200
-10.472600 9.207000
-10.456800 9.419700
-10.441000 9.632400
-10.425200 9.845100
-10.409400 10.057800
-10.393600 10.651300
-10.377800 11.131800
-10.362000 11.989600
-10.346200 13.439300
-10.330400 15.068800
-10.314600 17.074800
-10.298800 20.895300
-10.283000 20.912100
-10.267200 20.460000
-10.251400 20.899700
-10.235600 23.709600
-10.219900 23.154800
-10.204100 24.132200
-10.188300 23.938600
-10.172500 24.575200
-10.156700 26.054000
-10.140900 24.474000
-10.125100 25.848200
-10.109300 29.053400
-10.093500 38.211400
-10.077700 31.228800
-10.061900 24.084900
-10.046100 21.229000
-10.030300 25.171200
-10.014500 22.546800
-9.998700 26.506000
-9.982900 44.339200
-9.967200 24.611200
-9.951400 23.720100
-9.935600 6.956300
-9.919800 7.578200
-9.904000 51.518700
-9.888200 0.000000
-9.872400 0.000000
-9.856600 0.000000
-9.840800 0.000000
-9.825000 0.000000
-9.809200 0.000000
-9.793400 0.000000
-9.777600 0.000000
-9.761800 0.000000
-9.746000 0.000000
-9.730200 0.000000
-9.714400 0.000000
-9.698700 0.000000
-9.682900 0.000000
-9.667100 0.000000
-9.651300 0.000000
-9.635500 0.000000
-9.619700 0.000000
-9.603900 0.000000
-9.588100 0.000000
-9.572300 0.000000
-9.556500 0.000000
-9.540700 0.000000
-9.524900 0.000000
-9.509100 0.000000
-9.493300 0.000000
-9.477500 0.000000
-9.461700 0.000000
-9.445900 0.000000
-9.430200 0.000000
-9.414400 0.000000
-9.398600 0.000000
-9.382800 0.000000
-9.367000 0.000000
-9.351200 0.000000
-9.335400 0.000000
-9.319600 0.000000
-9.303800 0.000000
-9.288000 0.000000
-9.272200 0.000000
-9.256400 0.000000
-9.240600 0.000000
-9.224800 0.000000
-9.209000 0.000000
-9.193200 0.000000
-9.177500 0.000000
-9.161700 0.000000
-9.145900 0.000000
-9.130100 0.000000
-9.114300 0.000000
-9.098500 0.000000
-9.082700 0.000000
-9.066900 0.000000
-9.051100 0.000000
-9.035300 0.000000
-9.019500 0.000000
-9.003700 0.000000
-8.987900 0.000000
-8.972100 0.000000
-8.956300 0.000000
-8.940500 0.000000
-8.924700 0.000000
-8.909000 0.000000
-8.893200 0.000000
-8.877400 0.000000
-8.861600 0.000000
-8.845800 0.000000
-8.830000 0.000000
-8.814200 0.000000
-8.798400 0.000000
-8.782600 0.000000
-8.766800 0.000000
-8.751000 0.000000
-8.735200 0.000000
-8.719400 0.000000
-8.703600 0.000000
-8.687800 0.000000
-8.672000 0.000000
-8.656300 0.000000
-8.640500 0.000000
-8.624700 0.000000
-8.608900 0.000000
-8.593100 0.000000
-8.577300 0.000000
-8.561500 0.000000
-8.545700 0.000000
-8.529900 0.000000
-8.514100 0.000000
-8.498300 0.000000
-8.482500 0.000000
-8.466700 0.000000
-8.450900 0.000000
-8.435100 0.000000
-8.419300 0.000000
-8.403500 0.000000
-8.387800 0.000000
-8.372000 0.000000
-8.356200 0.000000
-8.340400 0.000000
-8.324600 0.000000
-8.308800 0.000000
-8.293000 0.000000
-8.277200 0.000000
-8.261400 0.000000
-8.245600 0.000000
-8.229800 0.000000
-8.214000 0.000000
-8.198200 0.000000
-8.182400 0.000000
-8.166600 0.000000
-8.150800 0.000000
-8.135100 0.000000
-8.119300 0.000000
-8.103500 0.000000
-8.087700 0.000000
-8.071900 0.000000
-8.056100 0.000000
-8.040300 0.000000
-8.024500 0.000000
-8.008700 0.000000
-7.992900 0.000000
-7.977100 0.000000
-7.961300 0.000000
-7.945500 0.000000
-7.929700 0.000000
-7.913900 0.000000
-7.898100 0.000000
-7.882300 0.000000
-7.866600 0.000000
-7.850800 0.000000
-7.835000 0.000000
-7.819200 0.000000
-7.803400 0.000000
-7.787600 0.000000
-7.771800 0.000000
-7.756000 0.000000
-7.740200 0.000000
-7.724400 0.000000
-7.708600 0.000000
-7.692800 0.000000
-7.677000 0.000000
-7.661200 0.000000
-7.645400 0.000000
-7.629600 0.000000
-7.613900 0.000000
-7.598100 0.000000
-7.582300 0.000000
-7.566500 0.000000
-7.550700 0.000000
-7.534900 0.000000
-7.519100 0.000000
-7.503300 0.000000
-7.487500 0.000000
-7.471700 0.000000
-7.455900 0.000000
-7.440100 0.000000
-7.424300 0.000000
-7.408500 0.000000
-7.392700 0.000000
-7.376900 0.000000
-7.361100 0.000000
-7.345400 0.000000
-7.329600 0.000000
-7.313800 0.000000
-7.298000 0.000000
-7.282200 0.000000
-7.266400 0.000000
-7.250600 0.000000
-7.234800 0.000000
-7.219000 0.000000
-7.203200 0.000000
-7.187400 0.000000
-7.171600 0.000000
-7.155800 0.000000
-7.140000 0.000000
-7.124200 0.000000
-7.108400 0.000000
-7.092600 0.000000
-7.076900 0.000000
-7.061100 0.000000
-7.045300 0.000000
-7.029500 0.000000
-7.013700 0.000000
-6.997900 0.000000
-6.982100 0.000000
-6.966300 0.000000
-6.950500 0.000000
-6.934700 0.000000
-6.918900 0.000000
-6.903100 0.000000
-6.887300 0.000000
-6.871500 0.000000
-6.855700 0.000000
-6.839900 0.000000
-6.824200 0.000000
-6.808400 0.000000
-6.792600 0.000000
-6.776800 0.000000
-6.761000 0.000000
-6.745200 0.000000
-6.729400 0.000000
-6.713600 0.000000
-6.697800 0.000000
-6.682000 0.000000
-6.666200 0.000000
-6.650400 0.000000
-6.634600 0.000000
-6.618800 0.000000
-6.603000 0.000000
-6.587200 0.000000
-6.571400 0.000000
-6.555700 0.000000
-6.539900 0.000000
-6.524100 0.000000
-6.508300 0.000000
-6.492500 0.000000
-6.476700 0.000000
-6.460900 0.000000
-6.445100 0.000000
-6.429300 0.000000
-6.413500 0.000000
-6.397700 0.000000
-6.381900 0.000000
-6.366100 0.000000
-6.350300 0.000000
-6.334500 0.000000
-6.318700 0.000000
-6.303000 0.000000
-6.287200 0.000000
-6.271400 0.000000
-6.255600 0.000000
-6.239800 0.000000
-6.224000 0.000000
-6.208200 0.000000
-6.192400 0.000000
-6.176600 0.000000
-6.160800 0.000000
-6.145000 0.000000
-6.129200 0.000000
-6.113400 0.000000
-6.097600 0.000000
-6.081800 0.000000
-6.066000 0.000000
-6.050200 0.000000
-6.034500 0.000000
-6.018700 0.000000
-6.002900 0.000000
-5.987100 0.000000
-5.971300 0.000000
-5.955500 0.000000
-5.939700 0.000000
-5.923900 0.000000
-5.908100 0.000000
-5.892300 0.000000
-5.876500 0.000000
-5.860700 0.000000
-5.844900 0.000000
-5.829100 0.000000
-5.813300 0.000000
-5.797500 0.000000
-5.781800 0.000000
-5.766000 0.000000
-5.750200 0.000000
-5.734400 0.000000
-5.718600 0.000000
-5.702800 0.000000
-5.687000 0.000000
-5.671200 0.000000
-5.655400 0.000000
-5.639600 0.000000
-5.623800 0.000000
-5.608000 0.000000
-5.592200 0.000000
-5.576400 0.000000
-5.560600 0.000000
-5.544800 0.000000
-5.529000 0.000000
-5.513300 0.000000
-5.497500 0.000000
-5.481700 0.000000
-5.465900 0.000000
-5.450100 0.000000
-5.434300 0.000000
-5.418500 0.000000
-5.402700 0.000000
-5.386900 0.000000
-5.371100 0.000000
-5.355300 0.000000
-5.339500 0.000000
-5.323700 0.000000
-5.307900 0.000000
-5.292100 0.000000
-5.276300 0.000000
-5.260600 0.000000
-5.244800 0.000000
-5.229000 0.000000
-5.213200 0.000000
-5.197400 0.000000
-5.181600 0.000000
-5.165800 0.000000
-5.150000 0.000000
-5.134200 0.000000
-5.118400 0.000000
-5.102600 0.000000
-5.086800 0.000000
-5.071000 0.000000
-5.055200 0.000000
-5.039400 0.000000
-5.023600 0.000000
-5.007800 0.000000
-4.992100 0.000000
-4.976300 0.000000
-4.960500 0.000000
-4.944700 0.000000
-4.928900 0.000000
-4.913100 0.000000
-4.897300 0.000000
-4.881500 0.000000
-4.865700 0.000000
-4.849900 0.000000
-4.834100 0.000000
-4.818300 0.000000
-4.802500 0.000000
-4.786700 0.000000
-4.770900 0.000000
-4.755100 0.000000
-4.739400 0.000000
-4.723600 0.000000
-4.707800 0.000000
-4.692000 0.000000
-4.676200 0.000000
-4.660400 0.000000
-4.644600 0.000000
-4.628800 0.000000
-4.613000 0.000000
-4.597200 0.000000
-4.581400 0.000000
-4.565600 0.000000
-4.549800 0.000000
-4.534000 0.000000
-4.518200 0.000000
-4.502400 0.000000
-4.486600 0.000000
-4.470900 0.000000
-4.455100 0.000000
-4.439300 0.000000
-4.423500 87.564400
-4.407700 54.733100
-4.391900 85.797200
-4.376100 100.205000
-4.360300 78.962400
-4.344500 106.996100
-4.328700 124.077700
-4.312900 147.681700
-4.297100 159.903100
-4.281300 151.896900
-4.265500 173.944300
-4.249700 152.462400
-4.233900 165.052300
-4.218100 127.760400
-4.202400 122.696500
-4.186600 129.644600
-4.170800 79.448400
-4.155000 88.698100
-4.139200 108.779100
-4.123400 85.186300
-4.107600 118.758900
-4.091800 73.476400
-4.076000 65.141100
-4.060200 71.186700
-4.044400 61.997600
-4.028600 35.417900
-4.012800 73.345700
-3.997000 42.944000
-3.981200 79.467600
-3.965400 126.952500
-3.949700 109.542300
-3.933900 209.579000
-3.918100 158.264500
-3.902300 143.949000
-3.886500 134.816800
-3.870700 127.153900
-3.854900 160.074200
-3.839100 104.592800
-3.823300 76.137700
-3.807500 55.852400
-3.791700 41.001400
-3.775900 39.547500
-3.760100 44.359000
-3.744300 43.194600
-3.728500 20.943300
-3.712700 22.482300
-3.696900 38.439300
-3.681200 41.103100
-3.665400 58.164900
-3.649600 19.412100
-3.633800 20.546700
-3.618000 25.922800
-3.602200 25.492600
-3.586400 16.834100
-3.570600 11.880900
-3.554800 7.345800
-3.539000 0.000000
-3.523200 0.000000
-3.507400 0.000000
-3.491600 0.000000
-3.475800 0.000000
-3.460000 0.000000
-3.444200 0.000000
-3.428500 0.000000
-3.412700 0.000000
-3.396900 0.000000
-3.381100 0.000000
-3.365300 0.000000
-3.349500 0.000000
-3.333700 0.000000
-3.317900 0.000000
-3.302100 0.000000
-3.286300 0.000000
-3.270500 0.000000
-3.254700 0.000000
-3.238900 0.062200
-3.223100 0.175000
-3.207300 0.287900
-3.191500 0.400800
-3.175700 0.513700
-3.160000 0.626500
-3.144200 0.739400
-3.128400 0.852300
-3.112600 0.965200
-3.096800 1.078100
-3.081000 1.190900
-3.065200 1.303800
-3.049400 0.879200
-3.033600 0.905200
-3.017800 0.931300
-3.002000 0.957300
-2.986200 1.850900
-2.970400 6.664400
-2.954600 2.773700
-2.938800 2.961500
-2.923000 3.214300
-2.907300 5.353500
-2.891500 7.492800
-2.875700 9.632100
-2.859900 5.868900
-2.844100 6.194800
-2.828300 6.520700
-2.812500 6.890900
-2.796700 11.708900
-2.780900 16.527000
-2.765100 10.797800
-2.749300 12.036000
-2.733500 13.274300
-2.717700 13.671100
-2.701900 15.120600
-2.686100 14.345600
-2.670300 13.368600
-2.654500 12.391600
-2.638800 5.415600
-2.623000 8.634000
-2.607200 10.980000
-2.591400 13.325900
-2.575600 12.157900
-2.559800 22.917000
-2.544000 9.673900
-2.528200 9.520100
-2.512400 9.109100
-2.496600 10.585000
-2.480800 12.060900
-2.465000 9.034700
-2.449200 8.999800
-2.433400 8.964900
-2.417600 8.930000
-2.401800 8.895000
-2.386100 8.860100
-2.370300 11.840000
-2.354500 16.580100
-2.338700 12.603200
-2.322900 13.721700
-2.307100 14.840100
-2.291300 16.910600
-2.275500 25.440600
-2.259700 21.748500
-2.243900 16.243600
-2.228100 11.290400
-2.212300 9.585200
-2.196500 5.382700
-2.180700 5.414800
-2.164900 5.447000
-2.149100 5.479100
-2.133300 5.511200
-2.117600 5.543300
-2.101800 5.575400
-2.086000 5.607500
-2.070200 5.639600
-2.054400 5.671700
-2.038600 5.703800
-2.022800 5.735900
-2.007000 5.768000
-1.991200 5.800100
-1.975400 5.832300
-1.959600 5.864400
-1.943800 4.906200
-1.928000 4.834900
-1.912200 4.763500
-1.896400 4.692100
-1.880600 4.620700
-1.864900 4.549300
-1.849100 4.301500
-1.833300 4.244800
-1.817500 4.188200
-1.801700 4.131500
-1.785900 3.873800
-1.770100 3.840300
-1.754300 3.806700
-1.738500 3.773200
-1.722700 3.741900
-1.706900 3.716200
-1.691100 3.692700
-1.675300 3.669200
-1.659500 3.645700
-1.643700 3.622200
-1.627900 3.598800
-1.612100 3.575300
-1.596400 3.551800
-1.580600 3.528300
-1.564800 3.504800
-1.549000 3.385500
-1.533200 3.373700
-1.517400 3.361900
-1.501600 3.350200
-1.485800 3.338400
-1.470000 3.326600
-1.454200 3.314900
-1.438400 3.992600
-1.422600 4.064400
-1.406800 4.136200
-1.391000 4.208100
-1.375200 4.279300
-1.359400 4.348000
-1.343600 4.416700
-1.327900 4.485400
-1.312100 4.554000
-1.296300 4.622700
-1.280500 4.691400
-1.264700 4.760000
-1.248900 4.828400
-1.233100 4.896000
-1.217300 4.963600
-1.201500 5.031200
-1.185700 5.098700
-1.169900 5.794900
-1.154100 5.900500
-1.138300 8.275900
-1.122500 16.147800
-1.106700 13.023600
-1.090900 9.898800
-1.075200 7.347700
-1.059400 5.947700
-1.043600 5.965900
-1.027800 5.981800
-1.012000 5.997700
-0.996200 6.013600
-0.980400 10.580800
-0.964600 9.326100
-0.948800 8.071300
-0.933000 6.816500
-0.917200 6.274900
-0.901400 5.631800
-0.885600 5.693200
-0.869800 5.754600
-0.854000 5.816100
-0.838200 5.877500
-0.822400 5.938900
-0.806700 6.000400
-0.790900 6.061800
-0.775100 6.123200
-0.759300 9.169300
-0.743500 13.163500
-0.727700 16.395200
-0.711900 18.508600
-0.696100 13.979900
-0.680300 10.822400
-0.664500 9.068800
-0.648700 9.069200
-0.632900 10.941200
-0.617100 14.145700
-0.601300 16.571400
-0.585500 17.946000
-0.569700 16.305600
-0.554000 14.719500
-0.538200 13.133500
-0.522400 11.547400
-0.506600 9.243000
-0.490800 8.777900
-0.475000 8.537600
-0.459200 10.124400
-0.443400 9.816700
-0.427600 10.493800
-0.411800 10.339800
-0.396000 10.189000
-0.380200 10.067200
-0.364400 10.126600
-0.348600 10.185900
-0.332800 10.335500
-0.317000 10.426200
-0.301200 10.628500
-0.285500 10.830800
-0.269700 10.853500
-0.253900 11.010300
-0.238100 11.167100
-0.222300 11.323900
-0.206500 11.480700
-0.190700 10.941900
-0.174900 12.366000
-0.159100 12.576800
-0.143300 12.851400
-0.127500 13.927800
-0.111700 14.238900
-0.095900 14.550000
-0.080100 14.861200
-0.064300 15.172300
-0.048500 15.398100
-0.032800 15.495700
-0.017000 13.572000
-0.001200 13.506300
0.014600 13.396500
0.030400 13.293400
0.046200 14.306700
0.062000 14.262200
0.077800 14.217800
0.093600 13.228900
0.109400 13.146500
0.125200 13.064100
0.141000 12.981700
0.156800 12.899300
0.172600 12.826400
0.188400 13.046000
0.204200 15.052200
0.220000 15.316500
0.235700 15.622600
0.251500 15.828300
0.267300 16.130500
0.283100 16.593700
0.298900 17.058800
0.314700 17.276800
0.330500 17.459600
0.346300 17.570000
0.362100 17.652600
0.377900 17.387400
0.393700 15.235700
0.409500 14.860300
0.425300 14.484900
0.441100 36.695800
0.456900 14.211000
0.472700 17.612000
0.488400 16.965700
0.504200 16.321300
0.520000 15.676900
0.535800 16.753500
0.551600 16.691900
0.567400 16.630300
0.583200 16.568700
0.599000 16.507000
0.614800 16.445400
0.630600 16.383800
0.646400 17.853500
0.662200 17.238500
0.678000 17.161000
0.693800 17.083600
0.709600 16.998400
0.725400 16.643300
0.741200 16.962100
0.756900 16.867000
0.772700 17.243600
0.788500 17.420600
0.804300 17.665500
0.820100 17.942600
0.835900 17.588500
0.851700 17.778900
0.867500 15.481500
0.883300 14.970900
0.899100 14.706600
0.914900 14.343400
0.930700 13.980100
0.946500 13.616900
0.962300 13.253600
0.978100 13.246000
0.993900 13.034100
1.009600 12.822200
1.025400 13.134300
1.041200 12.848800
1.057000 12.563400
1.072800 12.278000
1.088600 11.132500
1.104400 10.796100
1.120200 10.477200
1.136000 10.158300
1.151800 9.857800
1.167600 9.593800
1.183400 9.339700
1.199200 9.542400
1.215000 9.239900
1.230800 8.937400
1.246600 8.634900
1.262400 8.111800
1.278100 7.570100
1.293900 7.215200
1.309700 6.918400
1.325500 6.621600
1.341300 6.162700
1.357100 5.878900
1.372900 5.642600
1.388700 5.429600
1.404500 5.216600
1.420300 5.003700
1.436100 4.829800
1.451900 4.723100
1.467700 4.609400
1.483500 4.456800
1.499300 4.304200
1.515100 4.151600
1.530900 3.999100
1.546600 4.559300
1.562400 4.601300
1.578200 4.346100
1.594000 4.090800
1.609800 3.835600
1.625600 3.580400
1.641400 3.325100
1.657200 3.069900
1.673000 2.814700
1.688800 3.110100
1.704600 2.782600
1.720400 2.455100
1.736200 2.624100
1.752000 2.296700
1.767800 2.001800
1.783600 1.707000
1.799300 1.412100
1.815100 1.117300
1.830900 0.822400
1.846700 0.553000
1.862500 0.307400
1.878300 0.061800
1.894100 0.000000
1.909900 0.000000
1.925700 0.000000
1.941500 0.000000
1.957300 0.000000
1.973100 0.000000
1.988900 0.000000
2.004700 0.000000
2.020500 0.000000
2.036300 0.000000
2.052100 0.000000
2.067800 0.000000
2.083600 0.000000
2.099400 0.000000
2.115200 0.000000
2.131000 0.000000
2.146800 0.000000
2.162600 0.000000
2.178400 0.000000
2.194200 0.000000
2.210000 0.000000
2.225800 0.000000
2.241600 0.000000
2.257400 0.000000
2.273200 0.000000
2.289000 0.000000
2.304800 0.000000
2.320500 0.000000
2.336300 0.000000
2.352100 0.000000
2.367900 0.000000
2.383700 0.000000
2.399500 0.000000
2.415300 0.000000
2.431100 0.000000
2.446900 0.000000
2.462700 0.000000
2.478500 0.000000
2.494300 0.000000
2.510100 0.000000
2.525900 0.000000
2.541700 0.000000
2.557500 0.000000
2.573300 0.000000
2.589000 0.000000
2.604800 0.000000
2.620600 0.000000
2.636400 0.000000
2.652200 0.000000
2.668000 0.000000
2.683800 0.000000
2.699600 0.000000
2.715400 0.000000
2.731200 0.000000
2.747000 0.000000
2.762800 0.000000
2.778600 0.000000
2.794400 0.000000
2.810200 0.000000
2.826000 0.000000
2.841700 0.000000
2.857500 0.000000
2.873300 0.000000
2.889100 0.000000
2.904900 0.000000
2.920700 0.000000
2.936500 0.000000
2.952300 0.000000
2.968100 0.000000
2.983900 0.000000
2.999700 0.000000
3.015500 0.000000
3.031300 0.000000
3.047100 0.000000
3.062900 0.000000
3.078700 0.000000
3.094500 0.000000
3.110200 0.000000
3.126000 0.000000
3.141800 0.000000
3.157600 0.000000
3.173400 0.000000
3.189200 0.000000
3.205000 0.000000
3.220800 0.000000
3.236600 0.000000
3.252400 0.000000
3.268200 0.000000
3.284000 0.000000
3.299800 0.000000
3.315600 0.000000
3.331400 0.000000
3.347200 0.000000
3.362900 0.000000
3.378700 0.000000
3.394500 0.000000
3.410300 0.000000
3.426100 0.000000
3.441900 0.000000
3.457700 0.000000
3.473500 0.000000
3.489300 0.000000
3.505100 0.000000
3.520900 0.000000
3.536700 0.000000
3.552500 0.000000
3.568300 0.000000
3.584100 0.000000
3.599900 0.000000
3.615700 0.000000
3.631400 0.000000
3.647200 0.000000
3.663000 0.000000
3.678800 0.000000
