set title 'mp-1184425 - Density of States'
set xlabel 'Energy (eV)'
set ylabel 'DOS (states/eV)'
set grid
set xrange [-10:10]
set yrange [0:2.976]
set xzeroaxis lt -1
set terminal png size 800,600
set output 'mp-1184425_dos_gnuplot.png'
plot '-' using 1:2 with lines title 'DOS'
-14.357000 0.000000
-14.336700 0.000000
-14.316400 0.000000
-14.296100 0.000000
-14.275800 0.000000
-14.255600 0.000000
-14.235300 0.000000
-14.215000 0.000000
-14.194700 0.000000
-14.174400 0.000000
-14.154100 0.000000
-14.133900 0.000000
-14.113600 0.000000
-14.093300 0.000000
-14.073000 0.000000
-14.052700 0.000000
-14.032400 0.000000
-14.012200 0.000000
-13.991900 0.000000
-13.971600 0.000000
-13.951300 0.000000
-13.931000 0.000000
-13.910700 0.000000
-13.890500 0.000000
-13.870200 0.000000
-13.849900 0.000000
-13.829600 0.000000
-13.809300 0.000000
-13.789000 0.000000
-13.768800 0.000000
-13.748500 0.000000
-13.728200 0.000000
-13.707900 0.000000
-13.687600 0.000000
-13.667300 0.000000
-13.647100 0.000000
-13.626800 0.000000
-13.606500 0.000000
-13.586200 0.000000
-13.565900 0.000000
-13.545600 0.000000
-13.525400 0.000000
-13.505100 0.000000
-13.484800 0.000000
-13.464500 0.000000
-13.444200 0.000000
-13.423900 0.000000
-13.403700 0.000000
-13.383400 0.000000
-13.363100 0.000000
-13.342800 0.000000
-13.322500 0.000000
-13.302200 0.000000
-13.282000 0.000000
-13.261700 0.000000
-13.241400 0.000000
-13.221100 0.000000
-13.200800 0.000000
-13.180500 0.000000
-13.160300 0.000000
-13.140000 0.000000
-13.119700 0.000000
-13.099400 0.000000
-13.079100 0.000000
-13.058800 0.000000
-13.038600 0.000000
-13.018300 0.000000
-12.998000 0.000000
-12.977700 0.000000
-12.957400 0.000000
-12.937100 0.000000
-12.916900 0.000000
-12.896600 0.000000
-12.876300 0.000000
-12.856000 0.000000
-12.835700 0.000000
-12.815400 0.000000
-12.795200 0.000000
-12.774900 0.000000
-12.754600 0.000000
-12.734300 0.000000
-12.714000 0.000000
-12.693700 0.000000
-12.673500 0.000000
-12.653200 0.000000
-12.632900 0.000000
-12.612600 0.000000
-12.592300 0.000000
-12.572000 0.000000
-12.551800 0.000000
-12.531500 0.000000
-12.511200 25.061700
-12.490900 241.682700
-12.470600 55.828700
-12.450300 17.126700
-12.430100 0.000000
-12.409800 0.000000
-12.389500 0.000000
-12.369200 0.000000
-12.348900 0.000000
-12.328600 0.000000
-12.308400 0.000000
-12.288100 0.000000
-12.267800 0.000000
-12.247500 0.000000
-12.227200 0.000000
-12.206900 0.000000
-12.186700 0.000000
-12.166400 0.000000
-12.146100 0.000000
-12.125800 0.000000
-12.105500 0.000000
-12.085200 0.000000
-12.065000 0.000000
-12.044700 0.000000
-12.024400 0.000000
-12.004100 0.000000
-11.983800 0.000000
-11.963500 0.000000
-11.943300 0.000000
-11.923000 0.000000
-11.902700 0.000000
-11.882400 0.000000
-11.862100 0.000000
-11.841800 0.000000
-11.821600 0.000000
-11.801300 0.000000
-11.781000 0.000000
-11.760700 0.000000
-11.740400 0.000000
-11.720100 0.000000
-11.699900 0.000000
-11.679600 0.000000
-11.659300 0.000000
-11.639000 0.000000
-11.618700 0.000000
-11.598400 0.000000
-11.578200 0.000000
-11.557900 0.000000
-11.537600 0.000000
-11.517300 0.000000
-11.497000 0.000000
-11.476700 0.000000
-11.456500 0.000000
-11.436200 0.000000
-11.415900 0.000000
-11.395600 0.000000
-11.375300 0.000000
-11.355000 0.000000
-11.334800 0.000000
-11.314500 0.000000
-11.294200 0.000000
-11.273900 0.000000
-11.253600 0.000000
-11.233300 0.000000
-11.213100 0.000000
-11.192800 0.000000
-11.172500 0.000000
-11.152200 0.000000
-11.131900 0.000000
-11.111600 0.000000
-11.091400 0.000000
-11.071100 0.000000
-11.050800 0.000000
-11.030500 0.000000
-11.010200 0.000000
-10.989900 0.000000
-10.969700 0.000000
-10.949400 0.000000
-10.929100 0.000000
-10.908800 0.000000
-10.888500 0.000000
-10.868200 0.000000
-10.848000 0.000000
-10.827700 0.000000
-10.807400 0.000000
-10.787100 0.000000
-10.766800 0.000000
-10.746500 0.000000
-10.726300 0.000000
-10.706000 0.000000
-10.685700 0.000000
-10.665400 0.000000
-10.645100 0.000000
-10.624800 0.000000
-10.604600 0.000000
-10.584300 0.000000
-10.564000 0.000000
-10.543700 0.000000
-10.523400 45.130200
-10.503100 218.761600
-10.482900 164.174600
-10.462600 98.207900
-10.442300 193.797500
-10.422000 93.384200
-10.401700 44.437100
-10.381400 236.634200
-10.361200 200.735500
-10.340900 174.912300
-10.320600 0.000000
-10.300300 0.000000
-10.280000 0.000000
-10.259700 0.000000
-10.239500 0.000000
-10.219200 0.000000
-10.198900 0.000000
-10.178600 0.000000
-10.158300 0.000000
-10.138000 0.000000
-10.117800 0.000000
-10.097500 0.000000
-10.077200 0.000000
-10.056900 0.000000
-10.036600 0.000000
-10.016300 0.000000
-9.996100 0.000000
-9.975800 0.000000
-9.955500 0.000000
-9.935200 0.000000
-9.914900 0.000000
-9.894600 0.000000
-9.874400 0.000000
-9.854100 0.000000
-9.833800 0.000000
-9.813500 0.000000
-9.793200 0.000000
-9.772900 0.000000
-9.752700 0.000000
-9.732400 0.000000
-9.712100 0.000000
-9.691800 0.000000
-9.671500 0.000000
-9.651200 0.000000
-9.631000 0.000000
-9.610700 0.000000
-9.590400 0.000000
-9.570100 0.000000
-9.549800 0.000000
-9.529500 0.000000
-9.509300 0.000000
-9.489000 0.000000
-9.468700 0.000000
-9.448400 0.000000
-9.428100 0.000000
-9.407800 0.000000
-9.387600 0.000000
-9.367300 0.000000
-9.347000 0.000000
-9.326700 0.000000
-9.306400 0.000000
-9.286100 0.000000
-9.265900 0.000000
-9.245600 0.000000
-9.225300 0.000000
-9.205000 0.000000
-9.184700 0.000000
-9.164400 0.000000
-9.144200 0.000000
-9.123900 0.000000
-9.103600 0.000000
-9.083300 0.000000
-9.063000 0.000000
-9.042700 0.000000
-9.022500 0.000000
-9.002200 0.000000
-8.981900 0.000000
-8.961600 0.000000
-8.941300 0.000000
-8.921000 0.000000
-8.900800 0.000000
-8.880500 0.000000
-8.860200 0.000000
-8.839900 0.000000
-8.819600 0.000000
-8.799300 0.000000
-8.779100 0.000000
-8.758800 0.000000
-8.738500 0.000000
-8.718200 0.000000
-8.697900 0.000000
-8.677600 0.000000
-8.657400 0.000000
-8.637100 0.000000
-8.616800 0.000000
-8.596500 0.000000
-8.576200 0.000000
-8.555900 0.000000
-8.535700 0.000000
-8.515400 0.000000
-8.495100 0.000000
-8.474800 0.000000
-8.454500 0.000000
-8.434200 0.000000
-8.414000 0.000000
-8.393700 0.000000
-8.373400 0.000000
-8.353100 0.000000
-8.332800 0.000000
-8.312500 0.000000
-8.292300 0.000000
-8.272000 0.000000
-8.251700 0.000000
-8.231400 0.000000
-8.211100 0.000000
-8.190800 0.000000
-8.170600 0.000000
-8.150300 0.000000
-8.130000 0.000000
-8.109700 0.000000
-8.089400 0.000000
-8.069100 0.000000
-8.048900 0.000000
-8.028600 0.000000
-8.008300 0.000000
-7.988000 0.000000
-7.967700 0.000000
-7.947400 0.000000
-7.927200 0.000000
-7.906900 0.000000
-7.886600 0.000000
-7.866300 0.000000
-7.846000 0.000000
-7.825700 0.000000
-7.805500 0.000000
-7.785200 0.000000
-7.764900 0.000000
-7.744600 0.000000
-7.724300 0.000000
-7.704000 0.000000
-7.683800 0.000000
-7.663500 0.000000
-7.643200 0.000000
-7.622900 0.000000
-7.602600 0.000000
-7.582300 0.000000
-7.562100 0.000000
-7.541800 0.000000
-7.521500 0.000000
-7.501200 0.000000
-7.480900 0.000000
-7.460600 0.000000
-7.440400 0.000000
-7.420100 0.000000
-7.399800 0.000000
-7.379500 0.000000
-7.359200 0.000000
-7.338900 0.000000
-7.318700 0.000000
-7.298400 0.000000
-7.278100 0.000000
-7.257800 0.000000
-7.237500 0.000000
-7.217200 0.000000
-7.197000 0.000000
-7.176700 0.000000
-7.156400 0.000000
-7.136100 0.000000
-7.115800 0.000000
-7.095500 0.000000
-7.075300 0.000000
-7.055000 0.000000
-7.034700 0.000000
-7.014400 0.000000
-6.994100 0.000000
-6.973800 0.000000
-6.953600 0.000000
-6.933300 0.000000
-6.913000 0.000000
-6.892700 0.000000
-6.872400 0.000000
-6.852100 0.000000
-6.831900 0.000000
-6.811600 0.000000
-6.791300 0.000000
-6.771000 0.000000
-6.750700 0.000000
-6.730400 0.000000
-6.710200 0.000000
-6.689900 0.000000
-6.669600 0.000000
-6.649300 0.000000
-6.629000 0.000000
-6.608700 0.000600
-6.588500 0.017900
-6.568200 0.059200
-6.547900 0.124500
-6.527600 0.162100
-6.507300 0.168600
-6.487000 0.187600
-6.466800 0.210200
-6.446500 0.236400
-6.426200 0.265700
-6.405900 0.291200
-6.385600 0.304800
-6.365300 0.305600
-6.345100 0.315900
-6.324800 0.324300
-6.304500 0.337300
-6.284200 0.350800
-6.263900 0.364800
-6.243600 0.379300
-6.223400 0.395000
-6.203100 0.411800
-6.182800 0.429800
-6.162500 0.438600
-6.142200 0.446100
-6.121900 0.455400
-6.101700 0.463900
-6.081400 0.471600
-6.061100 0.478600
-6.040800 0.485600
-6.020500 0.493600
-6.000200 0.506300
-5.980000 0.517800
-5.959700 0.529700
-5.939400 0.541800
-5.919100 0.554200
-5.898800 0.567000
-5.878500 0.579200
-5.858300 0.590000
-5.838000 0.599400
-5.817700 0.606500
-5.797400 0.613200
-5.777100 0.620900
-5.756800 0.629600
-5.736600 0.639200
-5.716300 0.649600
-5.696000 0.660100
-5.675700 0.670400
-5.655400 0.680600
-5.635100 0.690600
-5.614900 0.701300
-5.594600 0.712400
-5.574300 0.723800
-5.554000 0.735500
-5.533700 0.747600
-5.513400 0.759900
-5.493200 0.772400
-5.472900 0.785800
-5.452600 0.798600
-5.432300 0.811600
-5.412000 0.824000
-5.391700 0.837200
-5.371500 0.850600
-5.351200 0.864700
-5.330900 0.879800
-5.310600 0.896200
-5.290300 0.913800
-5.270000 0.932100
-5.249800 0.951200
-5.229500 0.971200
-5.209200 0.992300
-5.188900 1.014900
-5.168600 1.039000
-5.148300 1.066500
-5.128100 1.100200
-5.107800 1.139400
-5.087500 1.184600
-5.067200 1.236600
-5.046900 1.290300
-5.026600 1.336300
-5.006400 1.376800
-4.986100 1.412000
-4.965800 1.449200
-4.945500 1.506000
-4.925200 1.566000
-4.904900 1.577700
-4.884700 1.544900
-4.864400 1.506000
-4.844100 1.455900
-4.823800 1.424800
-4.803500 1.413900
-4.783200 1.418200
-4.763000 1.422100
-4.742700 1.425400
-4.722400 1.430000
-4.702100 1.426500
-4.681800 1.413900
-4.661500 1.394100
-4.641300 1.455400
-4.621000 1.442400
-4.600700 1.479300
-4.580400 1.528300
-4.560100 1.602700
-4.539800 1.660700
-4.519600 1.659800
-4.499300 1.639300
-4.479000 1.594000
-4.458700 1.536700
-4.438400 1.457400
-4.418100 1.260700
-4.397900 0.958700
-4.377600 0.802800
-4.357300 0.699800
-4.337000 0.601300
-4.316700 0.565700
-4.296400 0.617100
-4.276200 0.558300
-4.255900 0.301000
-4.235600 0.174400
-4.215300 0.072300
-4.195000 0.001000
-4.174700 0.000000
-4.154500 0.000000
-4.134200 0.000000
-4.113900 0.000000
-4.093600 0.000000
-4.073300 0.000000
-4.053000 0.000000
-4.032700 0.000000
-4.012500 0.000000
-3.992200 0.000000
-3.971900 0.000000
-3.951600 0.000000
-3.931300 0.000000
-3.911000 0.000000
-3.890800 0.000000
-3.870500 0.000000
-3.850200 0.000000
-3.829900 0.000000
-3.809600 0.000000
-3.789300 0.000000
-3.769100 0.000000
-3.748800 0.000000
-3.728500 0.000000
-3.708200 0.000000
-3.687900 0.000000
-3.667600 0.000000
-3.647400 0.000000
-3.627100 0.000000
-3.606800 0.000000
-3.586500 0.000000
-3.566200 0.000000
-3.545900 0.000000
-3.525700 0.000000
-3.505400 0.000000
-3.485100 0.000000
-3.464800 0.000000
-3.444500 0.000000
-3.424200 0.000000
-3.404000 0.164600
-3.383700 0.266600
-3.363400 0.201900
-3.343100 0.228700
-3.322800 0.258200
-3.302500 0.290500
-3.282300 0.325500
-3.262000 0.363200
-3.241700 0.403700
-3.221400 0.446900
-3.201100 0.508100
-3.180800 0.581500
-3.160600 0.578700
-3.140300 0.580400
-3.120000 0.596100
-3.099700 0.620600
-3.079400 0.645600
-3.059100 0.666600
-3.038900 0.683600
-3.018600 0.696700
-2.998300 0.715300
-2.978000 0.742700
-2.957700 0.772000
-2.937400 0.802800
-2.917200 0.884300
-2.896900 0.941700
-2.876600 1.002700
-2.856300 1.067400
-2.836000 1.139900
-2.815700 1.198600
-2.795500 1.275000
-2.775200 1.360300
-2.754900 1.452700
-2.734600 1.608300
-2.714300 1.733700
-2.694000 1.889600
-2.673800 2.073200
-2.653500 2.326000
-2.633200 2.271900
-2.612900 2.156300
-2.592600 2.098600
-2.572300 2.049500
-2.552100 2.019000
-2.531800 2.007700
-2.511500 1.908500
-2.491200 1.821000
-2.470900 1.768700
-2.450600 1.752300
-2.430400 1.827300
-2.410100 1.840700
-2.389800 1.716700
-2.369500 1.593500
-2.349200 1.469000
-2.328900 1.377400
-2.308700 1.331200
-2.288400 1.071600
-2.268100 0.959400
-2.247800 0.912000
-2.227500 0.903400
-2.207200 0.889500
-2.187000 0.879600
-2.166700 0.873800
-2.146400 0.874400
-2.126100 0.895500
-2.105800 0.926400
-2.085500 0.956200
-2.065300 0.978100
-2.045000 0.989000
-2.024700 0.994500
-2.004400 1.004300
-1.984100 1.015300
-1.963800 1.026900
-1.943600 1.039100
-1.923300 1.051900
-1.903000 1.081600
-1.882700 1.128300
-1.862400 1.175700
-1.842100 1.221900
-1.821900 1.265100
-1.801600 1.305300
-1.781300 1.342500
-1.761000 1.345500
-1.740700 1.319500
-1.720400 1.267100
-1.700200 1.270700
-1.679900 1.273000
-1.659600 1.271800
-1.639300 1.267500
-1.619000 1.260800
-1.598700 1.251900
-1.578500 1.246900
-1.558200 1.308800
-1.537900 1.410900
-1.517600 1.305300
-1.497300 1.312200
-1.477000 1.316100
-1.456800 1.317800
-1.436500 1.319200
-1.416200 1.322700
-1.395900 1.334000
-1.375600 1.352400
-1.355300 1.354000
-1.335100 1.352800
-1.314800 1.353800
-1.294500 1.359900
-1.274200 1.365400
-1.253900 1.370300
-1.233600 1.374400
-1.213400 1.378800
-1.193100 1.382900
-1.172800 1.386400
-1.152500 1.390700
-1.132200 1.416500
-1.111900 1.467200
-1.091700 1.441900
-1.071400 1.447800
-1.051100 1.450000
-1.030800 1.455000
-1.010500 1.459900
-0.990200 1.464300
-0.970000 1.468000
-0.949700 1.495300
-0.929400 1.496000
-0.909100 1.497200
-0.888800 1.500200
-0.868500 1.504600
-0.848300 1.509500
-0.828000 1.513700
-0.807700 1.520000
-0.787400 1.531400
-0.767100 1.546500
-0.746800 1.562300
-0.726600 1.578400
-0.706300 1.594100
-0.686000 1.606500
-0.665700 1.613500
-0.645400 1.619100
-0.625100 1.650300
-0.604900 1.655200
-0.584600 1.661500
-0.564300 1.671100
-0.544000 1.678700
-0.523700 1.685500
-0.503400 1.695800
-0.483200 1.706300
-0.462900 1.716100
-0.442600 1.725600
-0.422300 1.736900
-0.402000 1.749200
-0.381700 1.761300
-0.361500 1.741700
-0.341200 1.746500
-0.320900 1.750900
-0.300600 1.755400
-0.280300 1.757200
-0.260000 1.760300
-0.239800 1.764200
-0.219500 1.768800
-0.199200 1.739600
-0.178900 1.715300
-0.158600 1.700200
-0.138300 1.712100
-0.118100 1.711800
-0.097800 1.704900
-0.077500 1.695700
-0.057200 1.676900
-0.036900 1.650000
-0.016600 1.622500
0.003600 1.596500
0.023900 1.570300
0.044200 1.544700
0.064500 1.516100
0.084800 1.487500
0.105100 1.459500
0.125300 1.460400
0.145600 1.407200
0.165900 1.365600
0.186200 1.326700
0.206500 1.285400
0.226800 1.239800
0.247000 1.195500
0.267300 1.165100
0.287600 1.148100
0.307900 1.137200
0.328200 1.122600
0.348500 1.097600
0.368700 1.066900
0.389000 1.039000
0.409300 1.011800
0.429600 0.996900
0.449900 0.985900
0.470200 0.975100
0.490400 0.957000
0.510700 0.940400
0.531000 0.925900
0.551300 0.912000
0.571600 0.898500
0.591900 0.885100
0.612100 0.871900
0.632400 0.859000
0.652700 0.846300
0.673000 0.834800
0.693300 0.824200
0.713600 0.866100
0.733800 0.843400
0.754100 0.844400
0.774400 0.841800
0.794700 0.835600
0.815000 0.829500
0.835300 0.823600
0.855500 0.819600
0.875800 0.840400
0.896100 0.845100
0.916400 0.839500
0.936700 0.855000
0.957000 0.881500
0.977200 0.916100
0.997500 0.884900
1.017800 0.883500
1.038100 0.881500
1.058400 0.879700
1.078700 0.878000
1.098900 0.916900
1.119200 0.967300
1.139500 0.844400
1.159800 0.830500
1.180100 0.825700
1.200400 0.824800
1.220600 0.825700
1.240900 0.828400
1.261200 0.834800
1.281500 0.848900
1.301800 0.863700
1.322100 0.878900
1.342300 0.893500
1.362600 0.907600
1.382900 0.916800
1.403200 0.923300
1.423500 0.946400
1.443800 0.955000
1.464000 0.963100
1.484300 0.971300
1.504600 0.980500
1.524900 0.990700
1.545200 1.001500
1.565500 1.018300
1.585700 1.039700
1.606000 1.059000
1.626300 1.078300
1.646600 1.097500
1.666900 1.138700
1.687200 1.161000
1.707400 1.164500
1.727700 1.167900
1.748000 1.156000
1.768300 1.155600
1.788600 1.164800
1.808900 1.175200
1.829100 1.186900
1.849400 1.199900
1.869700 1.214900
1.890000 1.235400
1.910300 1.259500
1.930600 1.278700
1.950800 1.298400
1.971100 1.322300
1.991400 1.340900
2.011700 1.359600
2.032000 1.366400
2.052300 1.385900
2.072500 1.409300
2.092800 1.438400
2.113100 1.473400
2.133400 1.502300
2.153700 1.525000
2.174000 1.549000
2.194200 1.574100
2.214500 1.600400
2.234800 1.628200
2.255100 1.656300
2.275400 1.683400
2.295700 1.709400
2.315900 1.735500
2.336200 1.761100
2.356500 1.786300
2.376800 1.811200
2.397100 1.852400
2.417400 1.924600
2.437600 2.006900
2.457900 2.011800
2.478200 2.011400
2.498500 2.010600
2.518800 2.010300
2.539100 2.013900
2.559300 2.022700
2.579600 2.034000
2.599900 2.040800
2.620200 2.043300
2.640500 2.041900
2.660800 2.042500
2.681000 2.048400
2.701300 2.077200
2.721600 2.079600
2.741900 2.090300
2.762200 2.083300
2.782500 2.066200
2.802700 2.036300
2.823000 2.013000
2.843300 1.964000
2.863600 1.892000
2.883900 1.846900
2.904200 1.809300
2.924400 1.779000
2.944700 1.755300
2.965000 1.732800
2.985300 1.705800
3.005600 1.695100
3.025900 1.744900
3.046100 1.788200
3.066400 1.869500
3.086700 1.971300
3.107000 2.135100
3.127300 2.236300
3.147600 2.348100
3.167800 2.514700
3.188100 2.519000
3.208400 2.370100
3.228700 2.330100
3.249000 2.280100
3.269300 2.201500
3.289500 2.109900
3.309800 2.050000
3.330100 2.006900
3.350400 1.967300
3.370700 1.930600
3.391000 1.895800
3.411200 1.865600
3.431500 1.833200
3.451800 1.804800
3.472100 1.782100
3.492400 1.770900
3.512700 1.760600
3.532900 1.733800
3.553200 1.669700
3.573500 1.595900
3.593800 1.544000
3.614100 1.486200
3.634400 1.224600
3.654600 1.195400
3.674900 1.167700
3.695200 1.152100
3.715500 1.164100
3.735800 1.168300
3.756100 1.174000
3.776300 1.186600
3.796600 1.207500
3.816900 1.232100
3.837200 1.260300
3.857500 1.292000
3.877800 1.331200
3.898000 1.384000
3.918300 1.442300
3.938600 1.505300
3.958900 1.575300
3.979200 1.650800
3.999500 1.728500
4.019700 1.808700
4.040000 1.840300
4.060300 1.855500
4.080600 1.866300
4.100900 1.872500
4.121200 1.879300
4.141400 1.947500
4.161700 2.016900
4.182000 2.117900
4.202300 2.063600
4.222600 1.963800
4.242900 1.880400
4.263100 1.815600
4.283400 1.771000
4.303700 1.859300
4.324000 1.876800
4.344300 1.853400
4.364600 1.855000
4.384800 1.825700
4.405100 1.802900
4.425400 1.781100
4.445700 1.771100
4.466000 1.743800
4.486300 1.732300
4.506500 1.728100
4.526800 1.726100
4.547100 1.725900
4.567400 1.733800
4.587700 1.749100
4.608000 1.759900
4.628200 1.780600
4.648500 1.805300
4.668800 1.836400
4.689100 1.869000
4.709400 1.900500
4.729700 1.930100
4.749900 1.949900
4.770200 1.949500
4.790500 1.969800
4.810800 1.955800
4.831100 1.960300
4.851400 1.929800
4.871600 1.907300
4.891900 1.890200
4.912200 1.879800
4.932500 1.893800
4.952800 1.946700
4.973100 2.002100
4.993300 1.996200
5.013600 1.972500
5.033900 1.947800
5.054200 1.903400
5.074500 1.882100
5.094800 1.884800
5.115000 1.900700
5.135300 1.925000
5.155600 1.953100
5.175900 1.997300
5.196200 2.091500
5.216500 2.074000
5.236700 2.041300
5.257000 2.042600
5.277300 2.044100
5.297600 2.043400
5.317900 2.048300
5.338200 2.045000
5.358400 2.068700
5.378700 2.084800
5.399000 2.175900
5.419300 2.116300
5.439600 2.112900
5.459900 2.118300
5.480100 2.118000
5.500400 2.109000
5.520700 2.117900
5.541000 2.131600
5.561300 2.150900
5.581600 2.167800
5.601800 2.159400
5.622100 2.115300
5.642400 2.078500
5.662700 2.076100
5.683000 2.098400
5.703300 2.106500
5.723500 2.104600
5.743800 2.140500
5.764100 2.178600
5.784400 2.184100
5.804700 2.168500
5.825000 2.156100
5.845200 2.152500
5.865500 2.152500
5.885800 2.148200
5.906100 2.147600
5.926400 2.238600
5.946700 2.157300
5.966900 2.160600
5.987200 2.156100
6.007500 2.167800
6.027800 2.171700
6.048100 2.168600
6.068400 2.155200
6.088600 2.141200
6.108900 2.126400
6.129200 2.113100
6.149500 2.128500
6.169800 2.156400
6.190100 2.182700
6.210300 2.176700
6.230600 2.122800
6.250900 2.112900
6.271200 2.106600
6.291500 2.095900
6.311800 2.076600
6.332000 2.054000
6.352300 2.031100
6.372600 2.007600
6.392900 1.982500
6.413200 1.965100
6.433500 1.934000
6.453700 1.906900
6.474000 1.863700
6.494300 1.844900
6.514600 1.824300
6.534900 1.870100
6.555200 1.837000
6.575400 1.805600
6.595700 1.754400
6.616000 1.748600
6.636300 1.758700
6.656600 1.776500
6.676900 1.800000
6.697100 1.827800
6.717400 1.856900
6.737700 1.883900
6.758000 1.935100
6.778300 1.946000
