set title 'mp-1224311 - Density of States'
set xlabel 'Energy (eV)'
set ylabel 'DOS (states/eV)'
set grid
set xrange [-10:10]
set yrange [0:1.558]
set xzeroaxis lt -1
set terminal png size 800,600
set output 'mp-1224311_dos_gnuplot.png'
plot '-' using 1:2 with lines title 'DOS'
-22.323900 0.000000
-22.288700 0.000000
-22.253400 0.000000
-22.218100 0.000000
-22.182800 0.000000
-22.147500 0.000000
-22.112200 0.000000
-22.076900 0.000000
-22.041600 0.000000
-22.006300 0.000000
-21.971000 0.000000
-21.935700 0.000000
-21.900400 0.000000
-21.865100 0.000000
-21.829800 0.000000
-21.794500 0.000000
-21.759200 0.000000
-21.723900 0.000000
-21.688600 0.000000
-21.653300 0.000000
-21.618000 0.000000
-21.582700 0.000000
-21.547500 0.000000
-21.512200 0.000000
-21.476900 0.000000
-21.441600 0.000000
-21.406300 0.000000
-21.371000 0.000000
-21.335700 0.000000
-21.300400 0.000000
-21.265100 0.000000
-21.229800 0.000000
-21.194500 0.000000
-21.159200 0.000000
-21.123900 0.000000
-21.088600 0.000000
-21.053300 0.000000
-21.018000 0.000000
-20.982700 0.000000
-20.947400 0.000000
-20.912100 0.000000
-20.876800 0.000000
-20.841500 0.000000
-20.806300 0.000000
-20.771000 0.000000
-20.735700 0.000000
-20.700400 0.000000
-20.665100 0.000000
-20.629800 0.000000
-20.594500 0.000000
-20.559200 0.000000
-20.523900 0.000000
-20.488600 0.000000
-20.453300 0.000000
-20.418000 0.000000
-20.382700 0.000000
-20.347400 0.000000
-20.312100 0.000000
-20.276800 0.000000
-20.241500 0.000000
-20.206200 0.000000
-20.170900 0.000000
-20.135600 0.000000
-20.100300 0.000000
-20.065100 0.000000
-20.029800 0.000000
-19.994500 0.000000
-19.959200 0.000000
-19.923900 0.000000
-19.888600 0.000000
-19.853300 0.000000
-19.818000 0.000000
-19.782700 0.000000
-19.747400 0.000000
-19.712100 0.000000
-19.676800 0.000000
-19.641500 0.000000
-19.606200 0.000000
-19.570900 0.000000
-19.535600 0.000000
-19.500300 0.000000
-19.465000 0.000000
-19.429700 0.000000
-19.394400 0.000000
-19.359100 0.000000
-19.323900 0.000000
-19.288600 0.000000
-19.253300 0.000000
-19.218000 0.000000
-19.182700 0.000000
-19.147400 0.000000
-19.112100 11.992500
-19.076800 163.568300
-19.041500 213.753600
-19.006200 45.741500
-18.970900 9.363500
-18.935600 0.000000
-18.900300 0.000000
-18.865000 0.000000
-18.829700 0.000000
-18.794400 0.000000
-18.759100 0.000000
-18.723800 0.000000
-18.688500 0.000000
-18.653200 0.000000
-18.617900 0.000000
-18.582700 0.000000
-18.547400 0.000000
-18.512100 0.000000
-18.476800 0.000000
-18.441500 0.000000
-18.406200 0.000000
-18.370900 0.000000
-18.335600 0.000000
-18.300300 0.000000
-18.265000 0.000000
-18.229700 0.000000
-18.194400 0.000000
-18.159100 0.000000
-18.123800 0.000000
-18.088500 0.000000
-18.053200 0.000000
-18.017900 0.000000
-17.982600 0.000000
-17.947300 0.000000
-17.912000 0.000000
-17.876800 0.000000
-17.841500 0.000000
-17.806200 0.000000
-17.770900 0.000000
-17.735600 0.000000
-17.700300 0.000000
-17.665000 0.000000
-17.629700 0.000000
-17.594400 0.000000
-17.559100 0.000000
-17.523800 0.000000
-17.488500 0.000000
-17.453200 0.000000
-17.417900 0.000000
-17.382600 0.000000
-17.347300 0.000000
-17.312000 0.000000
-17.276700 0.000000
-17.241400 0.000000
-17.206100 0.000000
-17.170800 0.000000
-17.135600 0.000000
-17.100300 0.000000
-17.065000 0.000000
-17.029700 0.000000
-16.994400 0.000000
-16.959100 0.000000
-16.923800 0.000000
-16.888500 0.000000
-16.853200 0.000000
-16.817900 0.000000
-16.782600 0.000000
-16.747300 0.000000
-16.712000 0.000000
-16.676700 0.000000
-16.641400 0.000000
-16.606100 0.000000
-16.570800 0.000000
-16.535500 0.000000
-16.500200 0.000000
-16.464900 0.000000
-16.429600 0.000000
-16.394400 0.000000
-16.359100 0.000000
-16.323800 0.000000
-16.288500 0.000000
-16.253200 0.000000
-16.217900 0.000000
-16.182600 0.000000
-16.147300 0.000000
-16.112000 0.000000
-16.076700 0.000000
-16.041400 0.000000
-16.006100 0.000000
-15.970800 0.000000
-15.935500 0.000000
-15.900200 0.000000
-15.864900 0.000000
-15.829600 0.000000
-15.794300 0.000000
-15.759000 0.000000
-15.723700 0.000000
-15.688400 0.000000
-15.653200 0.000000
-15.617900 0.000000
-15.582600 0.000000
-15.547300 0.000000
-15.512000 0.000000
-15.476700 0.000000
-15.441400 0.000000
-15.406100 0.000000
-15.370800 0.000000
-15.335500 0.000000
-15.300200 0.000000
-15.264900 0.000000
-15.229600 0.000000
-15.194300 0.000000
-15.159000 0.000000
-15.123700 0.000000
-15.088400 0.000000
-15.053100 0.000000
-15.017800 0.000000
-14.982500 0.000000
-14.947200 0.000000
-14.912000 0.000000
-14.876700 0.000000
-14.841400 0.000000
-14.806100 0.000000
-14.770800 0.000000
-14.735500 0.000000
-14.700200 0.000000
-14.664900 0.000000
-14.629600 0.000000
-14.594300 0.000000
-14.559000 0.000000
-14.523700 0.000000
-14.488400 0.000000
-14.453100 0.000000
-14.417800 0.000000
-14.382500 0.000000
-14.347200 0.000000
-14.311900 0.000000
-14.276600 0.000000
-14.241300 0.000000
-14.206100 0.000000
-14.170800 0.000000
-14.135500 0.000000
-14.100200 0.000000
-14.064900 0.000000
-14.029600 0.000000
-13.994300 0.000000
-13.959000 0.000000
-13.923700 0.000000
-13.888400 0.000000
-13.853100 0.000000
-13.817800 0.000000
-13.782500 0.000000
-13.747200 0.000000
-13.711900 0.000000
-13.676600 0.000000
-13.641300 0.000000
-13.606000 0.000000
-13.570700 0.000000
-13.535400 0.000000
-13.500100 0.000000
-13.464900 0.000000
-13.429600 0.000000
-13.394300 0.000000
-13.359000 0.000000
-13.323700 0.000000
-13.288400 0.000000
-13.253100 0.000000
-13.217800 0.000000
-13.182500 0.000000
-13.147200 0.000000
-13.111900 0.000000
-13.076600 0.000000
-13.041300 0.000000
-13.006000 0.000000
-12.970700 0.000000
-12.935400 0.000000
-12.900100 0.000000
-12.864800 0.000000
-12.829500 0.000000
-12.794200 0.000000
-12.758900 0.000000
-12.723700 0.000000
-12.688400 0.000000
-12.653100 0.000000
-12.617800 0.000000
-12.582500 0.000000
-12.547200 0.000000
-12.511900 0.000000
-12.476600 0.000000
-12.441300 0.000000
-12.406000 0.000000
-12.370700 0.000000
-12.335400 0.000000
-12.300100 0.000000
-12.264800 0.000000
-12.229500 0.000000
-12.194200 0.000000
-12.158900 0.000000
-12.123600 0.000000
-12.088300 0.000000
-12.053000 0.000000
-12.017700 0.000000
-11.982500 0.000000
-11.947200 0.000000
-11.911900 0.000000
-11.876600 0.000000
-11.841300 0.000000
-11.806000 0.000000
-11.770700 0.000000
-11.735400 0.000000
-11.700100 0.000000
-11.664800 0.000000
-11.629500 0.000000
-11.594200 0.000000
-11.558900 0.000000
-11.523600 0.000000
-11.488300 0.000000
-11.453000 0.000000
-11.417700 0.000000
-11.382400 0.000000
-11.347100 0.000000
-11.311800 0.000000
-11.276500 0.000000
-11.241300 0.000000
-11.206000 0.000000
-11.170700 0.000000
-11.135400 0.000000
-11.100100 0.000000
-11.064800 0.000000
-11.029500 0.000000
-10.994200 0.000000
-10.958900 0.000000
-10.923600 0.000000
-10.888300 0.000000
-10.853000 0.000000
-10.817700 0.000000
-10.782400 0.000000
-10.747100 0.000000
-10.711800 0.000000
-10.676500 0.000000
-10.641200 0.000000
-10.605900 0.000000
-10.570600 0.000000
-10.535400 0.000000
-10.500100 0.000000
-10.464800 0.000000
-10.429500 0.000000
-10.394200 0.000000
-10.358900 0.000000
-10.323600 0.000000
-10.288300 0.000000
-10.253000 0.000000
-10.217700 0.000000
-10.182400 0.000000
-10.147100 0.000000
-10.111800 0.000000
-10.076500 0.000000
-10.041200 0.000000
-10.005900 0.000000
-9.970600 0.000000
-9.935300 0.000000
-9.900000 0.000000
-9.864700 0.000000
-9.829400 0.000000
-9.794200 0.000000
-9.758900 0.000000
-9.723600 0.000000
-9.688300 0.000000
-9.653000 0.000000
-9.617700 0.000000
-9.582400 0.000000
-9.547100 0.000000
-9.511800 0.000000
-9.476500 0.000000
-9.441200 0.000000
-9.405900 0.000000
-9.370600 0.000000
-9.335300 0.000000
-9.300000 0.000000
-9.264700 0.000000
-9.229400 0.000000
-9.194100 0.000000
-9.158800 0.000000
-9.123500 0.000000
-9.088200 0.000000
-9.053000 0.000000
-9.017700 0.000000
-8.982400 0.000000
-8.947100 0.000000
-8.911800 0.000000
-8.876500 0.000000
-8.841200 0.000000
-8.805900 0.000000
-8.770600 0.000000
-8.735300 0.000000
-8.700000 0.000000
-8.664700 0.000000
-8.629400 0.000000
-8.594100 0.000000
-8.558800 0.000000
-8.523500 0.000000
-8.488200 0.000000
-8.452900 0.000000
-8.417600 0.000000
-8.382300 0.000000
-8.347000 0.000000
-8.311800 0.000000
-8.276500 0.000000
-8.241200 0.000000
-8.205900 0.000000
-8.170600 0.000000
-8.135300 0.000000
-8.100000 0.000000
-8.064700 0.000000
-8.029400 0.000000
-7.994100 0.000000
-7.958800 0.000000
-7.923500 0.000000
-7.888200 0.000000
-7.852900 0.000000
-7.817600 0.000000
-7.782300 0.000000
-7.747000 0.000000
-7.711700 0.000000
-7.676400 0.000000
-7.641100 0.000000
-7.605800 0.000000
-7.570600 0.000000
-7.535300 0.000000
-7.500000 0.000000
-7.464700 0.000000
-7.429400 0.000000
-7.394100 0.000000
-7.358800 0.000000
-7.323500 0.000000
-7.288200 0.000000
-7.252900 0.000000
-7.217600 0.000000
-7.182300 0.000000
-7.147000 0.000000
-7.111700 0.000000
-7.076400 0.000000
-7.041100 0.000000
-7.005800 0.059200
-6.970500 0.095200
-6.935200 0.137500
-6.899900 0.170100
-6.864700 0.185700
-6.829400 0.205400
-6.794100 0.222600
-6.758800 0.244400
-6.723500 0.268800
-6.688200 0.295300
-6.652900 0.323800
-6.617600 0.360400
-6.582300 0.372700
-6.547000 0.379900
-6.511700 0.383200
-6.476400 0.369300
-6.441100 0.370600
-6.405800 0.372800
-6.370500 0.375600
-6.335200 0.379700
-6.299900 0.383600
-6.264600 0.386800
-6.229300 0.381200
-6.194000 0.380100
-6.158700 0.378900
-6.123500 0.378000
-6.088200 0.378400
-6.052900 0.380100
-6.017600 0.381800
-5.982300 0.383400
-5.947000 0.384700
-5.911700 0.385800
-5.876400 0.386700
-5.841100 0.387400
-5.805800 0.386200
-5.770500 0.387800
-5.735200 0.388200
-5.699900 0.388900
-5.664600 0.389700
-5.629300 0.390300
-5.594000 0.391200
-5.558700 0.392200
-5.523400 0.393300
-5.488100 0.394400
-5.452800 0.395400
-5.417500 0.396600
-5.382300 0.397700
-5.347000 0.398700
-5.311700 0.398500
-5.276400 0.399600
-5.241100 0.401000
-5.205800 0.402600
-5.170500 0.404600
-5.135200 0.406300
-5.099900 0.408200
-5.064600 0.410000
-5.029300 0.411900
-4.994000 0.413900
-4.958700 0.415900
-4.923400 0.418100
-4.888100 0.420400
-4.852800 0.422600
-4.817500 0.466400
-4.782200 0.485900
-4.746900 0.507400
-4.711600 0.530500
-4.676300 0.529700
-4.641100 0.542100
-4.605800 0.554500
-4.570500 0.567800
-4.535200 0.587300
-4.499900 0.606900
-4.464600 0.624700
-4.429300 0.634400
-4.394000 0.647800
-4.358700 0.660600
-4.323400 0.674800
-4.288100 0.690100
-4.252800 0.705800
-4.217500 0.721800
-4.182200 0.738200
-4.146900 0.754600
-4.111600 0.771000
-4.076300 0.852000
-4.041000 0.871700
-4.005700 0.888000
-3.970400 0.863300
-3.935100 0.863700
-3.899900 0.864100
-3.864600 0.865800
-3.829300 0.869500
-3.794000 0.872200
-3.758700 0.874200
-3.723400 0.875500
-3.688100 0.869100
-3.652800 0.865800
-3.617500 0.860400
-3.582200 0.847200
-3.546900 0.864400
-3.511600 0.855000
-3.476300 0.834100
-3.441000 0.813000
-3.405700 0.803400
-3.370400 0.794300
-3.335100 0.785500
-3.299800 0.775100
-3.264500 0.767500
-3.229200 0.760000
-3.194000 0.744700
-3.158700 0.738600
-3.123400 0.732800
-3.088100 0.727400
-3.052800 0.723300
-3.017500 0.719700
-2.982200 0.716100
-2.946900 0.712500
-2.911600 0.709000
-2.876300 0.705600
-2.841000 0.702200
-2.805700 0.692400
-2.770400 0.688900
-2.735100 0.685600
-2.699800 0.683100
-2.664500 0.681100
-2.629200 0.679300
-2.593900 0.681100
-2.558600 0.682000
-2.523300 0.683400
-2.488000 0.685200
-2.452800 0.686800
-2.417500 0.688500
-2.382200 0.690400
-2.346900 0.691000
-2.311600 0.692900
-2.276300 0.694200
-2.241000 0.697200
-2.205700 0.728300
-2.170400 0.727200
-2.135100 0.725200
-2.099800 0.706500
-2.064500 0.703600
-2.029200 0.700300
-1.993900 0.696700
-1.958600 0.692900
-1.923300 0.688600
-1.888000 0.683900
-1.852700 0.673500
-1.817400 0.665200
-1.782100 0.658100
-1.746800 0.651200
-1.711600 0.644300
-1.676300 0.637800
-1.641000 0.631400
-1.605700 0.625600
-1.570400 0.621200
-1.535100 0.615900
-1.499800 0.607900
-1.464500 0.602300
-1.429200 0.596400
-1.393900 0.590300
-1.358600 0.584100
-1.323300 0.577700
-1.288000 0.571200
-1.252700 0.564500
-1.217400 0.560900
-1.182100 0.554600
-1.146800 0.547800
-1.111500 0.540400
-1.076200 0.532100
-1.040900 0.528000
-1.005600 0.515600
-0.970400 0.504200
-0.935100 0.483900
-0.899800 0.473200
-0.864500 0.462400
-0.829200 0.451300
-0.793900 0.440200
-0.758600 0.439200
-0.723300 0.420500
-0.688000 0.401100
-0.652700 0.384300
-0.617400 0.357100
-0.582100 0.345800
-0.546800 0.334900
-0.511500 0.324200
-0.476200 0.313700
-0.440900 0.303500
-0.405600 0.280200
-0.370300 0.269000
-0.335000 0.263200
-0.299700 0.257600
-0.264400 0.252000
-0.229200 0.246500
-0.193900 0.241100
-0.158600 0.235800
-0.123300 0.230600
-0.088000 0.225400
-0.052700 0.333400
-0.017400 0.365000
0.017900 0.373900
0.053200 0.383600
0.088500 0.394100
0.123800 0.404900
0.159100 0.428000
0.194400 0.448800
0.229700 0.514500
0.265000 0.545100
0.300300 0.555200
0.335600 0.547800
0.370900 0.547300
0.406200 0.539000
0.441500 0.546900
0.476700 0.548800
0.512000 0.558200
0.547300 0.567500
0.582600 0.570800
0.617900 0.577100
0.653200 0.577800
0.688500 0.581400
0.723800 0.585600
0.759100 0.590000
0.794400 0.594300
0.829700 0.598600
0.865000 0.603000
0.900300 0.607300
0.935600 0.607000
0.970900 0.607900
1.006200 0.606200
1.041500 0.605400
1.076800 0.607200
1.112100 0.608600
1.147400 0.611100
1.182700 0.614800
1.217900 0.618800
1.253200 0.622900
1.288500 0.627100
1.323800 0.631600
1.359100 0.636000
1.394400 0.641200
1.429700 0.646400
1.465000 0.653000
1.500300 0.660000
1.535600 0.667300
1.570900 0.675300
1.606200 0.683700
1.641500 0.692500
1.676800 0.705900
1.712100 0.714200
1.747400 0.723000
1.782700 0.732100
1.818000 0.725100
1.853300 0.725800
1.888600 0.739500
1.923900 0.749100
1.959100 0.762300
1.994400 0.776700
2.029700 0.814300
2.065000 0.846200
2.100300 0.844800
2.135600 0.904900
2.170900 0.928000
2.206200 0.952900
2.241500 0.964300
2.276800 0.990600
2.312100 1.003600
2.347400 1.040100
2.382700 1.045500
2.418000 1.049600
2.453300 1.052400
2.488600 1.098100
2.523900 1.108400
2.559200 1.097600
2.594500 1.125500
2.629800 1.150700
2.665100 1.185800
2.700300 1.188500
2.735600 1.136000
2.770900 1.120800
2.806200 1.104400
2.841500 1.094600
2.876800 1.092800
2.912100 1.092200
2.947400 1.091000
2.982700 1.141000
3.018000 1.127400
3.053300 1.127600
3.088600 1.131600
3.123900 1.117200
3.159200 1.131500
3.194500 1.162900
3.229800 1.159200
3.265100 1.142500
3.300400 1.146700
3.335700 1.149300
3.371000 1.151100
3.406300 1.166200
3.441500 1.209300
3.476800 1.232800
3.512100 1.277200
3.547400 1.307400
3.582700 1.294700
3.618000 1.294900
3.653300 1.300700
3.688600 1.254600
3.723900 1.243500
3.759200 1.230900
3.794500 1.216700
3.829800 1.192900
3.865100 1.178800
3.900400 1.165800
3.935700 1.154900
3.971000 1.146600
4.006300 1.159500
4.041600 1.157700
4.076900 1.158700
4.112200 1.184400
4.147400 1.163600
4.182700 1.124700
4.218000 1.096500
4.253300 1.096800
4.288600 1.141500
4.323900 1.148200
4.359200 1.120800
4.394500 1.163500
4.429800 1.254300
4.465100 1.269700
4.500400 1.277300
4.535700 1.284600
4.571000 1.318300
4.606300 1.266000
4.641600 1.221100
4.676900 1.146700
4.712200 1.105800
4.747500 1.065400
4.782800 1.027100
4.818100 0.988100
4.853400 0.956400
4.888600 0.938700
4.923900 0.955800
4.959200 1.001100
4.994500 1.038800
5.029800 1.069300
5.065100 1.128200
5.100400 1.159700
5.135700 1.148600
5.171000 1.201900
5.206300 1.310400
5.241600 1.201900
5.276900 1.158600
5.312200 1.155500
5.347500 1.136200
5.382800 1.114000
5.418100 1.111700
5.453400 1.117600
5.488700 1.138200
5.524000 1.166900
5.559300 1.160200
5.594600 1.159000
5.629800 1.178100
5.665100 1.160900
5.700400 1.130800
5.735700 1.100100
5.771000 1.076400
5.806300 1.063300
5.841600 1.062400
5.876900 0.953800
5.912200 0.950600
5.947500 0.946900
5.982800 0.949700
6.018100 0.922100
6.053400 0.884800
6.088700 0.870600
6.124000 0.879200
6.159300 0.862100
6.194600 0.834600
6.229900 0.793000
6.265200 0.752500
6.300500 0.740800
6.335800 0.728000
6.371000 0.715700
6.406300 0.713700
6.441600 0.746900
6.476900 0.770600
6.512200 0.789600
6.547500 0.820400
6.582800 0.862800
6.618100 0.865500
6.653400 0.880000
6.688700 0.891400
6.724000 0.905100
6.759300 0.930700
6.794600 0.949200
6.829900 0.955700
6.865200 0.962700
6.900500 0.944000
6.935800 0.931400
6.971100 0.944400
7.006400 0.913600
7.041700 0.892900
7.077000 0.886000
7.112200 0.885200
7.147500 0.896100
7.182800 0.911300
7.218100 0.932500
7.253400 0.969000
7.288700 0.972700
7.324000 0.982700
7.359300 0.993600
7.394600 0.977000
7.429900 0.948000
7.465200 0.907500
7.500500 0.909200
7.535800 0.915200
7.571100 0.923100
7.606400 0.937800
7.641700 0.953600
7.677000 0.967100
7.712300 1.019900
7.747600 1.033200
7.782900 1.041400
7.818100 0.995200
7.853400 0.988400
7.888700 0.963900
7.924000 0.947600
7.959300 0.897700
7.994600 0.870200
8.029900 0.872900
8.065200 0.838400
8.100500 0.849100
8.135800 0.853100
8.171100 0.853700
8.206400 0.883600
8.241700 0.889600
8.277000 0.890700
8.312300 0.894800
8.347600 0.987400
8.382900 1.017800
8.418200 1.006300
8.453500 0.995400
8.488800 1.002600
8.524100 1.012600
8.559300 1.012100
8.594600 1.036800
8.629900 1.090200
8.665200 1.164000
8.700500 1.198500
8.735800 1.210300
8.771100 1.191300
8.806400 1.192200
8.841700 1.205500
8.877000 1.210600
8.912300 1.203200
8.947600 1.229600
8.982900 1.247800
9.018200 1.282800
9.053500 1.322600
9.088800 1.358900
9.124100 1.369800
9.159400 1.416700
9.194700 1.394000
9.230000 1.389200
9.265300 1.379600
9.300500 1.358700
9.335800 1.318400
9.371100 1.285900
9.406400 1.255000
9.441700 1.238200
9.477000 1.147300
9.512300 1.161400
9.547600 1.151400
9.582900 1.151200
9.618200 1.163000
9.653500 1.134900
9.688800 1.131600
9.724100 1.128800
9.759400 1.136200
9.794700 1.155700
9.830000 1.257100
9.865300 1.271200
9.900600 1.319400
9.935900 1.315200
9.971200 1.410800
10.006500 1.511300
10.041700 1.571300
10.077000 1.578700
10.112300 1.552300
10.147600 1.841800
10.182900 1.471100
10.218200 1.409500
10.253500 1.402600
10.288800 1.430500
10.324100 1.441100
10.359400 1.444100
10.394700 1.472200
10.430000 1.544400
10.465300 1.634400
10.500600 1.542800
10.535900 1.512500
10.571200 1.487600
10.606500 1.477500
10.641800 1.475200
10.677100 1.492800
10.712400 1.506200
10.747700 1.520500
10.782900 1.551100
10.818200 1.581500
10.853500 1.599000
10.888800 1.625900
10.924100 1.626200
10.959400 1.610100
10.994700 1.543000
11.030000 1.497900
11.065300 1.498900
11.100600 1.480500
11.135900 1.463800
11.171200 1.408900
11.206500 1.398300
11.241800 1.401800
11.277100 1.466700
11.312400 1.520200
11.347700 1.527200
11.383000 1.524800
11.418300 1.529200
11.453600 1.527400
11.488800 1.539400
11.524100 1.535500
11.559400 1.526200
11.594700 1.625000
11.630000 1.499800
11.665300 1.504800
11.700600 1.506400
11.735900 1.405800
11.771200 1.390100
11.806500 1.372800
11.841800 1.370600
11.877100 1.353900
11.912400 1.357900
11.947700 1.369800
11.983000 1.382900
12.018300 1.439100
12.053600 1.465200
12.088900 1.476700
12.124200 1.450800
12.159500 1.459900
12.194800 1.481700
12.230000 1.534100
12.265300 1.554500
12.300600 1.601200
12.335900 1.573400
12.371200 1.521500
12.406500 1.294400
12.441800 1.262400
12.477100 1.251300
12.512400 1.262100
12.547700 1.713100
12.583000 1.029000
12.618300 0.963200
12.653600 0.919700
12.688900 0.973800
12.724200 0.913900
12.759500 0.984400
12.794800 1.008000
12.830100 1.018100
12.865400 0.999400
12.900700 1.045100
12.936000 1.083300
12.971200 1.306200
13.006500 1.236800
13.041800 1.257400
13.077100 1.222500
13.112400 1.218900
13.147700 1.248300
13.183000 1.295900
13.218300 1.234000
13.253600 1.222100
13.288900 1.176100
13.324200 1.134100
13.359500 1.119800
13.394800 1.104700
13.430100 1.087400
13.465400 1.077500
13.500700 1.065000
13.536000 1.049500
13.571300 1.040100
13.606600 1.030000
13.641900 1.021900
13.677200 1.025900
13.712400 1.025800
13.747700 1.027200
13.783000 1.009700
13.818300 1.038200
13.853600 1.050300
13.888900 1.076700
13.924200 1.089500
13.959500 1.142800
13.994800 1.152000
14.030100 1.328000
14.065400 1.200900
14.100700 1.198800
14.136000 1.175600
