set title 'mp-1228795 - Density of States'
set xlabel 'Energy (eV)'
set ylabel 'DOS (states/eV)'
set grid
set xrange [-10:10]
set yrange [0:2.074]
set xzeroaxis lt -1
set terminal png size 800,600
set output 'mp-1228795_dos_gnuplot.png'
plot '-' using 1:2 with lines title 'DOS'
-12.128700 0.000000
-12.091400 0.000000
-12.054000 0.000000
-12.016600 0.000000
-11.979200 0.000000
-11.941800 0.000000
-11.904400 0.000000
-11.867000 0.000000
-11.829600 0.000000
-11.792300 0.000000
-11.754900 0.000000
-11.717500 0.000000
-11.680100 0.000000
-11.642700 0.000000
-11.605300 0.000000
-11.567900 0.000000
-11.530500 0.000000
-11.493100 0.000000
-11.455800 0.000000
-11.418400 0.000000
-11.381000 0.000000
-11.343600 0.000000
-11.306200 0.000000
-11.268800 0.000000
-11.231400 0.000000
-11.194000 0.000000
-11.156700 0.000000
-11.119300 0.000000
-11.081900 0.000000
-11.044500 0.000000
-11.007100 0.000000
-10.969700 0.000000
-10.932300 0.000000
-10.894900 0.000000
-10.857600 0.000000
-10.820200 0.000000
-10.782800 0.000000
-10.745400 0.000000
-10.708000 0.000000
-10.670600 0.000000
-10.633200 0.000000
-10.595800 0.000000
-10.558500 0.000000
-10.521100 0.000000
-10.483700 0.000000
-10.446300 0.000000
-10.408900 0.000000
-10.371500 0.000000
-10.334100 0.000000
-10.296700 0.000000
-10.259300 0.000000
-10.222000 0.000000
-10.184600 0.000000
-10.147200 0.000000
-10.109800 0.000000
-10.072400 0.000000
-10.035000 0.000000
-9.997600 0.000000
-9.960200 0.000000
-9.922900 0.000000
-9.885500 0.000000
-9.848100 0.000000
-9.810700 0.000000
-9.773300 0.000000
-9.735900 0.000000
-9.698500 0.000000
-9.661100 0.000000
-9.623800 0.000000
-9.586400 0.000000
-9.549000 0.000000
-9.511600 0.000000
-9.474200 0.000000
-9.436800 0.000000
-9.399400 0.000000
-9.362000 0.000000
-9.324600 0.000000
-9.287300 0.000000
-9.249900 0.000000
-9.212500 0.000000
-9.175100 0.000000
-9.137700 0.000000
-9.100300 0.000000
-9.062900 0.000000
-9.025500 0.000000
-8.988200 0.000000
-8.950800 0.000000
-8.913400 0.000000
-8.876000 0.000000
-8.838600 0.000000
-8.801200 0.000000
-8.763800 0.000000
-8.726400 0.005100
-8.689100 0.061400
-8.651700 0.094100
-8.614300 0.111800
-8.576900 0.131600
-8.539500 0.153700
-8.502100 0.170300
-8.464700 0.182200
-8.427300 0.190900
-8.390000 0.204100
-8.352600 0.218100
-8.315200 0.232300
-8.277800 0.246100
-8.240400 0.254600
-8.203000 0.263300
-8.165600 0.272600
-8.128200 0.282100
-8.090800 0.292200
-8.053500 0.302900
-8.016100 0.314200
-7.978700 0.325700
-7.941300 0.335800
-7.903900 0.344000
-7.866500 0.352000
-7.829100 0.360700
-7.791700 0.370100
-7.754400 0.379700
-7.717000 0.389400
-7.679600 0.399300
-7.642200 0.409600
-7.604800 0.420100
-7.567400 0.431000
-7.530000 0.442300
-7.492600 0.452900
-7.455300 0.463300
-7.417900 0.474200
-7.380500 0.485400
-7.343100 0.497200
-7.305700 0.509500
-7.268300 0.523800
-7.230900 0.543600
-7.193500 0.566500
-7.156200 0.606300
-7.118800 0.620800
-7.081400 0.615700
-7.044000 0.626800
-7.006600 0.634200
-6.969200 0.628600
-6.931800 0.629900
-6.894400 0.636500
-6.857000 0.641300
-6.819700 0.644500
-6.782300 0.646500
-6.744900 0.647600
-6.707500 0.651900
-6.670100 0.655700
-6.632700 0.661700
-6.595300 0.667900
-6.557900 0.674000
-6.520600 0.680100
-6.483200 0.684400
-6.445800 0.688600
-6.408400 0.695600
-6.371000 0.703400
-6.333600 0.712100
-6.296200 0.721800
-6.258800 0.733000
-6.221500 0.745200
-6.184100 0.758100
-6.146700 0.772200
-6.109300 0.788400
-6.071900 0.809200
-6.034500 0.835600
-5.997100 0.869900
-5.959700 0.915500
-5.922300 0.997100
-5.885000 1.043900
-5.847600 1.026100
-5.810200 1.060800
-5.772800 1.127700
-5.735400 1.225500
-5.698000 1.172800
-5.660600 1.183800
-5.623200 0.968300
-5.585900 0.863600
-5.548500 0.718300
-5.511100 0.642100
-5.473700 0.587300
-5.436300 0.563100
-5.398900 0.539300
-5.361500 0.495400
-5.324100 0.445400
-5.286800 0.406100
-5.249400 0.377300
-5.212000 0.363500
-5.174600 0.402300
-5.137200 0.394300
-5.099800 0.345300
-5.062400 0.105700
-5.025000 0.000000
-4.987700 0.000000
-4.950300 0.000000
-4.912900 0.000000
-4.875500 0.000000
-4.838100 0.000000
-4.800700 0.000000
-4.763300 0.000000
-4.725900 0.000000
-4.688500 0.000000
-4.651200 0.000000
-4.613800 0.000000
-4.576400 0.007300
-4.539000 0.029200
-4.501600 0.118100
-4.464200 0.197000
-4.426800 0.258000
-4.389400 0.413000
-4.352100 0.537600
-4.314700 0.595800
-4.277300 0.643500
-4.239900 0.675700
-4.202500 0.672200
-4.165100 0.681100
-4.127700 0.660000
-4.090300 0.637700
-4.053000 0.638000
-4.015600 0.641600
-3.978200 0.646000
-3.940800 0.650100
-3.903400 0.653600
-3.866000 0.655400
-3.828600 0.655500
-3.791200 0.655800
-3.753900 0.660600
-3.716500 0.671200
-3.679100 0.686300
-3.641700 0.693300
-3.604300 0.695600
-3.566900 0.699900
-3.529500 0.794400
-3.492100 0.761100
-3.454700 0.793400
-3.417400 0.836200
-3.380000 0.877000
-3.342600 0.920900
-3.305200 0.966300
-3.267800 1.039000
-3.230400 1.200700
-3.193000 1.346200
-3.155600 1.036100
-3.118300 0.953300
-3.080900 0.902600
-3.043500 0.872800
-3.006100 0.923200
-2.968700 0.794000
-2.931300 0.751100
-2.893900 0.714400
-2.856500 0.674200
-2.819200 0.644000
-2.781800 0.616300
-2.744400 0.592200
-2.707000 0.574700
-2.669600 0.559400
-2.632200 0.543900
-2.594800 0.527600
-2.557400 0.508800
-2.520100 0.490100
-2.482700 0.470300
-2.445300 0.449000
-2.407900 0.434700
-2.370500 0.422300
-2.333100 0.405600
-2.295700 0.396800
-2.258300 0.390100
-2.220900 0.383300
-2.183600 0.376300
-2.146200 0.369200
-2.108800 0.361900
-2.071400 0.354200
-2.034000 0.346000
-1.996600 0.336700
-1.959200 0.326100
-1.921800 0.314000
-1.884500 0.300600
-1.847100 0.287200
-1.809700 0.276100
-1.772300 0.267500
-1.734900 0.262400
-1.697500 0.257900
-1.660100 0.253400
-1.622700 0.248900
-1.585400 0.244200
-1.548000 0.239500
-1.510600 0.234700
-1.473200 0.229900
-1.435800 0.224700
-1.398400 0.219100
-1.361000 0.213200
-1.323600 0.206400
-1.286200 0.198900
-1.248900 0.191200
-1.211500 0.184000
-1.174100 0.179700
-1.136700 0.175800
-1.099300 0.171900
-1.061900 0.167700
-1.024500 0.162700
-0.987100 0.157900
-0.949800 0.153700
-0.912400 0.150200
-0.875000 0.146900
-0.837600 0.143600
-0.800200 0.140300
-0.762800 0.136700
-0.725400 0.133000
-0.688000 0.129400
-0.650700 0.125700
-0.613300 0.121600
-0.575900 0.116800
-0.538500 0.112500
-0.501100 0.109200
-0.463700 0.106500
-0.426300 0.103900
-0.388900 0.101300
-0.351600 0.098700
-0.314200 0.096100
-0.276800 0.093500
-0.239400 0.090700
-0.202000 0.087700
-0.164600 0.084700
-0.127200 0.091900
-0.089800 0.312700
-0.052400 0.554000
-0.015100 0.679000
0.022300 0.846300
0.059700 0.925100
0.097100 0.897400
0.134500 0.947800
0.171900 1.001300
0.209300 0.994100
0.246700 0.939400
0.284000 0.958300
0.321400 0.900600
0.358800 0.853300
0.396200 0.827600
0.433600 0.804500
0.471000 0.776000
0.508400 0.752200
0.545800 0.737000
0.583100 0.727200
0.620500 0.728800
0.657900 0.733200
0.695300 0.739800
0.732700 0.744900
0.770100 0.748700
0.807500 0.750900
0.844900 0.750600
0.882200 0.752800
0.919600 0.757000
0.957000 0.762200
0.994400 0.767700
1.031800 0.773800
1.069200 0.781200
1.106600 0.790000
1.144000 0.810800
1.181400 0.820700
1.218700 0.831000
1.256100 0.842100
1.293500 0.856000
1.330900 0.869300
1.368300 0.877400
1.405700 0.880800
1.443100 0.882600
1.480500 0.888500
1.517800 0.900800
1.555200 0.915600
1.592600 0.932000
1.630000 0.950500
1.667400 0.973000
1.704800 0.999900
1.742200 1.024200
1.779600 1.052000
1.816900 1.086900
1.854300 1.129000
1.891700 1.254700
1.929100 1.315900
1.966500 1.317500
2.003900 1.345300
2.041300 1.289000
2.078700 1.245000
2.116100 1.249500
2.153400 1.255600
2.190800 1.261400
2.228200 1.263000
2.265600 1.278800
2.303000 1.270900
2.340400 1.267200
2.377800 1.274700
2.415200 1.283900
2.452500 1.289300
2.489900 1.291500
2.527300 1.284900
2.564700 1.275800
2.602100 1.269400
2.639500 1.265400
2.676900 1.262600
2.714300 1.264100
2.751600 1.271500
2.789000 1.281700
2.826400 1.290700
2.863800 1.297200
2.901200 1.307900
2.938600 1.319600
2.976000 1.321500
3.013400 1.311500
3.050700 1.300100
3.088100 1.291000
3.125500 1.284200
3.162900 1.281800
3.200300 1.283900
3.237700 1.288600
3.275100 1.288100
3.312500 1.277200
3.349900 1.266500
3.387200 1.253100
3.424600 1.238600
3.462000 1.246700
3.499400 1.263400
3.536800 1.269800
3.574200 1.278800
3.611600 1.297000
3.649000 1.317500
3.686300 1.338100
3.723700 1.365100
3.761100 1.394400
3.798500 1.885200
3.835900 1.338600
3.873300 1.318400
3.910700 1.306400
3.948100 1.333100
3.985400 1.352000
4.022800 1.335900
4.060200 1.306900
4.097600 1.234500
4.135000 1.167000
4.172400 1.128100
4.209800 1.052800
4.247200 0.987000
4.284500 0.939200
4.321900 0.882600
4.359300 0.841700
4.396700 0.826000
4.434100 0.842900
4.471500 0.861400
4.508900 0.848600
4.546300 0.846800
4.583700 0.866300
4.621000 0.886900
4.658400 0.900100
4.695800 0.916800
4.733200 0.931200
4.770600 0.939100
4.808000 0.917400
4.845400 0.918400
4.882800 0.909900
4.920100 0.864300
4.957500 0.811300
4.994900 0.788000
5.032300 0.783000
5.069700 0.776200
5.107100 0.757900
5.144500 0.746900
5.181900 0.715000
5.219200 0.691800
5.256600 0.672900
5.294000 0.655100
5.331400 0.637800
5.368800 0.625900
5.406200 0.625400
5.443600 0.632100
5.481000 0.626700
5.518300 0.612000
5.555700 0.583200
5.593100 0.555300
5.630500 0.545700
5.667900 0.533800
5.705300 0.516200
5.742700 0.473400
5.780100 0.439400
5.817500 0.411000
5.854800 0.384400
5.892200 0.363400
5.929600 0.347000
5.967000 0.331100
6.004400 0.329400
6.041800 0.331200
6.079200 0.330700
6.116600 0.426400
6.153900 0.362800
6.191300 0.393500
6.228700 0.296500
6.266100 0.202600
6.303500 0.151200
6.340900 0.108400
6.378300 0.076700
6.415700 0.058400
6.453000 0.047000
6.490400 0.040000
6.527800 0.034500
6.565200 0.037600
6.602600 0.049400
6.640000 0.063700
6.677400 0.082300
6.714800 0.110200
6.752200 0.136800
6.789500 0.176400
6.826900 0.236800
6.864300 0.286300
6.901700 0.414500
6.939100 0.558600
6.976500 0.524600
7.013900 0.538700
7.051300 0.588400
7.088600 0.686200
7.126000 0.760900
7.163400 0.908000
7.200800 1.089800
7.238200 1.237200
7.275600 1.376200
7.313000 1.241100
7.350400 1.264100
7.387700 1.355600
7.425100 1.367400
7.462500 1.383900
7.499900 1.380900
7.537300 1.418700
7.574700 1.462100
7.612100 1.512500
7.649500 1.617300
7.686800 1.615900
7.724200 1.617200
7.761600 1.608300
7.799000 1.607200
7.836400 1.567000
7.873800 1.552900
7.911200 1.556300
7.948600 1.555000
7.986000 1.568200
8.023300 1.590300
8.060700 1.628300
8.098100 1.687100
8.135500 1.802500
8.172900 1.879500
8.210300 1.810800
8.247700 1.776800
8.285100 1.734400
8.322400 1.690900
8.359800 1.621000
8.397200 1.596900
8.434600 1.611400
8.472000 1.632400
8.509400 1.654200
8.546800 1.676700
8.584200 1.829200
8.621500 1.841500
8.658900 1.829400
8.696300 1.668700
8.733700 1.575900
8.771100 1.433600
8.808500 1.244600
8.845900 1.141000
8.883300 1.069500
8.920600 1.011800
8.958000 0.976100
8.995400 0.951700
9.032800 0.935100
9.070200 0.925500
9.107600 0.922300
9.145000 0.928200
9.182400 0.933600
9.219800 0.944000
9.257100 0.960200
9.294500 0.987400
9.331900 1.076900
9.369300 1.126900
9.406700 1.188300
9.444100 1.074300
9.481500 1.066000
9.518900 1.071700
9.556200 1.103200
9.593600 1.151300
9.631000 1.149400
9.668400 1.150400
9.705800 1.151600
9.743200 1.139200
9.780600 1.153600
9.818000 1.199600
9.855300 1.259900
9.892700 1.245700
9.930100 1.214400
9.967500 1.237500
10.004900 1.205300
10.042300 1.222200
10.079700 1.258300
10.117100 1.288300
10.154500 1.302000
10.191800 1.292600
10.229200 1.274400
10.266600 1.277900
10.304000 1.251600
10.341400 1.238000
10.378800 1.248500
10.416200 1.214900
10.453600 1.169200
10.490900 1.122900
10.528300 1.080000
10.565700 1.043800
10.603100 1.009000
10.640500 0.959500
10.677900 0.907300
10.715300 0.874100
10.752700 0.847500
10.790000 0.825000
10.827400 0.803400
10.864800 0.784800
10.902200 0.768700
10.939600 0.752800
10.977000 0.737200
11.014400 0.726300
11.051800 0.697000
11.089100 0.661600
11.126500 0.643700
11.163900 0.630300
11.201300 0.618200
11.238700 0.614900
11.276100 0.647300
11.313500 0.705200
11.350900 0.813400
11.388300 0.846700
11.425600 0.865400
11.463000 0.896600
11.500400 0.934600
11.537800 0.967200
11.575200 1.056800
11.612600 1.063200
11.650000 1.076400
11.687400 1.105600
11.724700 1.149200
11.762100 1.190800
11.799500 1.215400
11.836900 1.226100
11.874300 1.189800
11.911700 1.120000
11.949100 1.072200
11.986500 1.112100
12.023800 1.123900
12.061200 1.131100
12.098600 1.134300
12.136000 1.139700
12.173400 1.114300
12.210800 1.090400
12.248200 1.112400
12.285600 1.121500
12.322900 1.109600
12.360300 1.108700
12.397700 1.129500
12.435100 1.163200
12.472500 1.212200
12.509900 1.237200
12.547300 1.263300
12.584700 1.290500
12.622100 1.311700
12.659400 1.339500
12.696800 1.372900
12.734200 1.400500
12.771600 1.408500
12.809000 1.390300
12.846400 1.402200
12.883800 1.415100
12.921200 1.420200
12.958500 1.454400
12.995900 1.486300
13.033300 1.467600
13.070700 1.454300
13.108100 1.452000
13.145500 1.481300
13.182900 1.478200
13.220300 1.448800
13.257600 1.376400
13.295000 1.283400
13.332400 1.165800
13.369800 1.104000
13.407200 1.070100
13.444600 1.054700
13.482000 1.037800
13.519400 1.013500
13.556800 0.998800
13.594100 0.967600
13.631500 0.918700
13.668900 0.869700
13.706300 0.719400
13.743700 0.735700
13.781100 0.706200
13.818500 0.695200
13.855900 0.660200
13.893200 0.660600
13.930600 0.659200
13.968000 0.665400
14.005400 0.678000
14.042800 0.695500
14.080200 0.722000
14.117600 0.748000
14.155000 0.768900
14.192300 0.782700
14.229700 0.824600
14.267100 0.831100
14.304500 0.838700
14.341900 0.840200
14.379300 0.844000
14.416700 0.844100
14.454100 0.839200
14.491400 0.837900
14.528800 0.843200
14.566200 0.855200
14.603600 0.863400
14.641000 0.869600
14.678400 0.875600
14.715800 0.880500
14.753200 0.884100
14.790600 0.914600
14.827900 1.019800
14.865300 1.023600
14.902700 0.983100
14.940100 0.949800
14.977500 0.945400
15.014900 0.955100
15.052300 0.975400
15.089700 0.996800
15.127000 1.004400
15.164400 0.996900
15.201800 0.987100
15.239200 0.984700
15.276600 0.979100
15.314000 0.985100
15.351400 0.996000
15.388800 1.014200
15.426100 1.021900
15.463500 1.022800
15.500900 1.022700
15.538300 1.029800
15.575700 1.047500
15.613100 1.050900
15.650500 1.057700
15.687900 1.118500
15.725200 1.225600
15.762600 1.136300
15.800000 1.096100
15.837400 1.097800
15.874800 1.110900
15.912200 1.124600
15.949600 1.136000
15.987000 1.153500
16.024400 1.172100
16.061700 1.190800
16.099100 1.224300
16.136500 1.222600
16.173900 1.202700
16.211300 1.198200
16.248700 1.212100
16.286100 1.238300
16.323500 1.265900
16.360800 1.293000
16.398200 1.330800
16.435600 1.345600
16.473000 1.347700
16.510400 1.365200
16.547800 1.388500
16.585200 1.411000
16.622600 1.428800
16.659900 1.443400
16.697300 1.457600
16.734700 1.510200
16.772100 1.549300
16.809500 1.532400
16.846900 1.471100
16.884300 1.455700
16.921700 1.447500
16.959000 1.353900
16.996400 1.268700
17.033800 1.223500
17.071200 1.176200
17.108600 1.153200
17.146000 1.150800
17.183400 1.155100
17.220800 1.166100
17.258200 1.193300
17.295500 1.231000
17.332900 1.251500
17.370300 1.266500
17.407700 1.292000
17.445100 1.312500
17.482500 1.308200
17.519900 1.316800
17.557300 1.327100
17.594600 1.331200
17.632000 1.355300
17.669400 1.384000
17.706800 1.475900
17.744200 1.525300
17.781600 1.523100
17.819000 1.540300
17.856400 1.473600
17.893700 1.390600
17.931100 1.347900
17.968500 1.311300
18.005900 1.279700
18.043300 1.259600
18.080700 1.262200
18.118100 1.301400
18.155500 1.330300
18.192900 1.368600
18.230200 1.416000
18.267600 1.458000
18.305000 1.502400
18.342400 1.554100
18.379800 1.611600
18.417200 1.634800
18.454600 1.656600
18.492000 1.666300
18.529300 1.629600
18.566700 1.636100
18.604100 1.652500
18.641500 1.635700
18.678900 1.667600
18.716300 1.726400
18.753700 1.852500
18.791100 1.986200
18.828400 2.048900
18.865800 2.137300
18.903200 2.017900
18.940600 1.786100
18.978000 1.628200
19.015400 1.536000
19.052800 1.460800
19.090200 1.415700
19.127500 1.400900
19.164900 1.434600
19.202300 1.553200
19.239700 1.596500
19.277100 1.675600
19.314500 1.843300
19.351900 1.658500
19.389300 1.602400
19.426700 1.555500
19.464000 1.494300
19.501400 1.438900
19.538800 1.386200
19.576200 1.471100
19.613600 1.479800
19.651000 1.458400
19.688400 1.420900
19.725800 1.464100
19.763100 1.514900
19.800500 1.552200
19.837900 1.513100
19.875300 1.468900
19.912700 1.445400
19.950100 1.427000
19.987500 1.412000
20.024900 1.438600
20.062200 1.468500
20.099600 1.445700
20.137000 1.470600
20.174400 1.514700
20.211800 1.536000
20.249200 1.549300
20.286600 1.555800
20.324000 1.461400
20.361300 1.379200
20.398700 1.314500
20.436100 1.260300
20.473500 1.218000
20.510900 1.196400
20.548300 1.191000
20.585700 1.176900
20.623100 1.151300
20.660500 1.153900
20.697800 1.157300
20.735200 1.160200
20.772600 1.163900
20.810000 1.169100
20.847400 1.175300
20.884800 1.183300
20.922200 1.202100
20.959600 1.244800
20.996900 1.251300
21.034300 1.264700
21.071700 1.280200
21.109100 1.298000
21.146500 1.322400
21.183900 1.365900
21.221300 1.433100
21.258700 1.463000
21.296000 1.431200
21.333400 1.405400
21.370800 1.404300
21.408200 1.441500
21.445600 1.495400
21.483000 1.560900
21.520400 1.617700
21.557800 1.499000
21.595200 1.456800
21.632500 1.456400
21.669900 1.466500
21.707300 1.495900
21.744700 1.489000
21.782100 1.525300
21.819500 1.598900
21.856900 1.603500
21.894300 1.527300
21.931600 1.484400
21.969000 1.440600
22.006400 1.437700
22.043800 1.452000
22.081200 1.477200
22.118600 1.515300
22.156000 1.534900
22.193400 1.514100
22.230700 1.528500
22.268100 1.559800
22.305500 1.614100
22.342900 1.673700
22.380300 1.770600
22.417700 1.890100
22.455100 1.963100
22.492500 1.998100
22.529800 1.927300
22.567200 1.893600
22.604600 1.832200
22.642000 1.736600
22.679400 1.645100
22.716800 1.641300
22.754200 1.592400
22.791600 1.564400
22.829000 1.529800
22.866300 1.482400
22.903700 1.459000
22.941100 1.422100
22.978500 1.417300
23.015900 1.419800
23.053300 1.428300
23.090700 1.385500
23.128100 1.362500
23.165400 1.324700
23.202800 1.302900
23.240200 1.296300
23.277600 1.299300
23.315000 1.308500
23.352400 1.332800
23.389800 1.366300
23.427200 1.447900
23.464500 1.618200
23.501900 1.632900
23.539300 1.626400
23.576700 1.649000
23.614100 1.701400
23.651500 1.718000
23.688900 1.706200
23.726300 1.705400
23.763600 1.713100
23.801000 1.741000
23.838400 1.808500
23.875800 1.753200
23.913200 1.767700
23.950600 1.786200
23.988000 1.879000
24.025400 1.931400
24.062800 1.964100
24.100100 1.969700
24.137500 1.854600
24.174900 1.736500
24.212300 1.688100
24.249700 1.675800
24.287100 1.678600
24.324500 1.681400
24.361900 1.718000
24.399200 1.680800
24.436600 1.673700
24.474000 1.674000
24.511400 1.665400
24.548800 1.608500
24.586200 1.597700
24.623600 1.384300
24.661000 1.310700
24.698300 1.256900
24.735700 1.231900
24.773100 1.223500
24.810500 1.181200
24.847900 1.196500
24.885300 1.244500
24.922700 1.318800
24.960100 1.362800
24.997400 1.390200
25.034800 1.429900
25.072200 1.529300
25.109600 1.591800
25.147000 1.656700
25.184400 1.787300
25.221800 1.867000
25.259200 1.804500
25.296600 1.707100
25.333900 1.609200
25.371300 1.592600
25.408700 1.534500
25.446100 1.406000
25.483500 1.381500
25.520900 1.384200
25.558300 1.396800
25.595700 1.448000
25.633000 1.478900
25.670400 1.508800
25.707800 1.545100
25.745200 1.560600
25.782600 1.629700
25.820000 1.652900
25.857400 1.644900
25.894800 1.699800
25.932100 1.767200
25.969500 1.680900
26.006900 1.713100
26.044300 1.736800
26.081700 1.621100
26.119100 1.597300
26.156500 1.590300
26.193900 1.598000
26.231300 1.618600
26.268600 1.642700
26.306000 1.663000
26.343400 1.653900
26.380800 1.632100
26.418200 1.615200
26.455600 1.617100
26.493000 1.634100
26.530400 1.661500
26.567700 1.684400
26.605100 1.693100
26.642500 1.685900
26.679900 1.653900
26.717300 1.618300
26.754700 1.581300
26.792100 1.548700
26.829500 1.525400
26.866800 1.506900
26.904200 1.503400
26.941600 1.531200
26.979000 1.566500
27.016400 1.586900
27.053800 1.634000
