set title 'mp-971835 - Density of States'
set xlabel 'Energy (eV)'
set ylabel 'DOS (states/eV)'
set grid
set xrange [-10:10]
set yrange [0:60.005]
set xzeroaxis lt -1
set terminal png size 800,600
set output 'mp-971835_dos_gnuplot.png'
plot '-' using 1:2 with lines title 'DOS'
-9.266200 0.000000
-9.247300 0.000000
-9.228500 0.000000
-9.209700 0.000000
-9.190900 0.000000
-9.172000 0.000000
-9.153200 0.000000
-9.134400 0.000000
-9.115500 0.000000
-9.096700 0.000000
-9.077900 0.000000
-9.059100 0.000000
-9.040200 0.000000
-9.021400 0.000000
-9.002600 0.000000
-8.983700 0.000000
-8.964900 0.000000
-8.946100 0.000000
-8.927300 0.000000
-8.908400 0.000000
-8.889600 0.000000
-8.870800 0.000000
-8.851900 0.000000
-8.833100 0.000000
-8.814300 0.000000
-8.795500 0.000000
-8.776600 0.000000
-8.757800 0.000000
-8.739000 0.000000
-8.720100 0.000000
-8.701300 0.000000
-8.682500 0.000000
-8.663700 0.000000
-8.644800 0.000000
-8.626000 0.000000
-8.607200 0.000000
-8.588300 0.000000
-8.569500 0.000000
-8.550700 0.000000
-8.531800 0.000000
-8.513000 0.000000
-8.494200 0.000000
-8.475400 0.000000
-8.456500 0.000000
-8.437700 0.000000
-8.418900 0.000000
-8.400000 0.000000
-8.381200 0.000000
-8.362400 0.000000
-8.343600 0.000000
-8.324700 0.000000
-8.305900 0.000000
-8.287100 0.000000
-8.268200 0.000000
-8.249400 0.000000
-8.230600 0.000000
-8.211800 0.000000
-8.192900 0.000000
-8.174100 0.000000
-8.155300 0.000000
-8.136400 0.000000
-8.117600 0.000000
-8.098800 0.000000
-8.080000 0.000000
-8.061100 0.000000
-8.042300 0.000000
-8.023500 0.000000
-8.004600 0.000000
-7.985800 0.000000
-7.967000 0.000000
-7.948200 0.000000
-7.929300 0.000000
-7.910500 0.000000
-7.891700 0.000000
-7.872800 0.000000
-7.854000 0.000000
-7.835200 0.000000
-7.816300 0.000000
-7.797500 0.000000
-7.778700 0.000000
-7.759900 0.000000
-7.741000 0.000000
-7.722200 0.000000
-7.703400 0.000000
-7.684500 0.000100
-7.665700 0.000600
-7.646900 0.003600
-7.628100 0.018100
-7.609200 0.071300
-7.590400 0.222500
-7.571600 0.555000
-7.552700 1.119900
-7.533900 1.875100
-7.515100 2.717300
-7.496300 3.592700
-7.477400 4.520700
-7.458600 5.561300
-7.439800 6.919600
-7.420900 8.991900
-7.402100 12.035700
-7.383300 15.844700
-7.364500 19.967300
-7.345600 24.167300
-7.326800 28.454500
-7.308000 32.634600
-7.289100 36.005600
-7.270300 37.772800
-7.251500 37.766200
-7.232700 36.512800
-7.213800 34.808200
-7.195000 33.587800
-7.176200 33.750200
-7.157300 35.416000
-7.138500 37.644300
-7.119700 39.396600
-7.100800 40.482500
-7.082000 41.185700
-7.063200 41.353200
-7.044400 40.388100
-7.025500 38.105500
-7.006700 35.239100
-6.987900 33.005100
-6.969000 32.368400
-6.950200 33.754700
-6.931400 37.143600
-6.912600 42.085000
-6.893700 47.575000
-6.874900 52.177100
-6.856100 54.549800
-6.837200 54.028100
-6.818400 50.936100
-6.799600 46.522500
-6.780800 42.384600
-6.761900 39.574200
-6.743100 38.108900
-6.724300 37.288300
-6.705400 36.297400
-6.686600 34.415600
-6.667800 30.992400
-6.649000 25.791800
-6.630100 19.454600
-6.611300 13.266000
-6.592500 8.356300
-6.573600 5.151600
-6.554800 3.370900
-6.536000 2.384300
-6.517200 1.670200
-6.498300 1.045200
-6.479500 0.551200
-6.460700 0.239000
-6.441800 0.084200
-6.423000 0.023900
-6.404200 0.005400
-6.385300 0.001000
-6.366500 0.000100
-6.347700 0.000000
-6.328900 0.000000
-6.310000 0.000000
-6.291200 0.000000
-6.272400 0.000000
-6.253500 0.000000
-6.234700 0.000000
-6.215900 0.000000
-6.197100 0.000000
-6.178200 0.000000
-6.159400 0.000000
-6.140600 0.000000
-6.121700 0.000000
-6.102900 0.000000
-6.084100 0.000000
-6.065300 0.000000
-6.046400 0.000000
-6.027600 0.000000
-6.008800 0.000000
-5.989900 0.000000
-5.971100 0.000000
-5.952300 0.000000
-5.933500 0.000000
-5.914600 0.000000
-5.895800 0.000000
-5.877000 0.000000
-5.858100 0.000000
-5.839300 0.000000
-5.820500 0.000000
-5.801700 0.000000
-5.782800 0.000000
-5.764000 0.000000
-5.745200 0.000000
-5.726300 0.000000
-5.707500 0.000000
-5.688700 0.000000
-5.669800 0.000000
-5.651000 0.000000
-5.632200 0.000000
-5.613400 0.000000
-5.594500 0.000000
-5.575700 0.000000
-5.556900 0.000000
-5.538000 0.000000
-5.519200 0.000000
-5.500400 0.000000
-5.481600 0.000000
-5.462700 0.000000
-5.443900 0.000000
-5.425100 0.000000
-5.406200 0.000000
-5.387400 0.000000
-5.368600 0.000000
-5.349800 0.000000
-5.330900 0.000000
-5.312100 0.000000
-5.293300 0.000000
-5.274400 0.000000
-5.255600 0.000000
-5.236800 0.000000
-5.218000 0.000000
-5.199100 0.000000
-5.180300 0.000000
-5.161500 0.000000
-5.142600 0.000000
-5.123800 0.000000
-5.105000 0.000000
-5.086200 0.000000
-5.067300 0.000000
-5.048500 0.000000
-5.029700 0.000000
-5.010800 0.000000
-4.992000 0.000000
-4.973200 0.000000
-4.954300 0.000000
-4.935500 0.000000
-4.916700 0.000000
-4.897900 0.000000
-4.879000 0.000000
-4.860200 0.000000
-4.841400 0.000000
-4.822500 0.000000
-4.803700 0.000000
-4.784900 0.000300
-4.766100 0.001300
-4.747200 0.004700
-4.728400 0.012800
-4.709600 0.027500
-4.690700 0.047800
-4.671900 0.070700
-4.653100 0.095400
-4.634300 0.124700
-4.615400 0.165000
-4.596600 0.225400
-4.577800 0.304200
-4.558900 0.372400
-4.540100 0.384600
-4.521300 0.323000
-4.502500 0.221200
-4.483600 0.139200
-4.464800 0.124600
-4.446000 0.194100
-4.427100 0.327700
-4.408300 0.468700
-4.389500 0.551200
-4.370700 0.551000
-4.351800 0.505200
-4.333000 0.475400
-4.314200 0.499100
-4.295300 0.564300
-4.276500 0.608300
-4.257700 0.564700
-4.238800 0.439000
-4.220000 0.309200
-4.201200 0.240800
-4.182400 0.234600
-4.163500 0.270100
-4.144700 0.360800
-4.125900 0.524400
-4.107000 0.710400
-4.088200 0.813900
-4.069400 0.785700
-4.050600 0.687600
-4.031700 0.621100
-4.012900 0.638300
-3.994100 0.713300
-3.975200 0.762600
-3.956400 0.706300
-3.937600 0.544000
-3.918800 0.365900
-3.899900 0.284100
-3.881100 0.357000
-3.862300 0.559900
-3.843400 0.800100
-3.824600 0.968400
-3.805800 1.010100
-3.787000 0.961100
-3.768100 0.903800
-3.749300 0.883900
-3.730500 0.883300
-3.711600 0.859500
-3.692800 0.779000
-3.674000 0.639300
-3.655200 0.490200
-3.636300 0.406900
-3.617500 0.417300
-3.598700 0.487000
-3.579800 0.587600
-3.561000 0.733200
-3.542200 0.919000
-3.523300 1.075300
-3.504500 1.134000
-3.485700 1.113800
-3.466900 1.094800
-3.448000 1.123000
-3.429200 1.164500
-3.410400 1.142100
-3.391500 1.007800
-3.372700 0.783800
-3.353900 0.545200
-3.335100 0.383700
-3.316200 0.383700
-3.297400 0.595800
-3.278600 0.990600
-3.259700 1.426300
-3.240900 1.694900
-3.222100 1.661900
-3.203300 1.375400
-3.184400 1.014500
-3.165600 0.739000
-3.146800 0.602600
-3.127900 0.565200
-3.109100 0.547000
-3.090300 0.491200
-3.071500 0.401900
-3.052600 0.331000
-3.033800 0.332600
-3.015000 0.428000
-2.996100 0.601700
-2.977300 0.812100
-2.958500 1.012200
-2.939700 1.185600
-2.920800 1.360100
-2.902000 1.551500
-2.883200 1.699800
-2.864300 1.715500
-2.845500 1.582700
-2.826700 1.368900
-2.807800 1.140100
-2.789000 0.915700
-2.770200 0.704100
-2.751400 0.539000
-2.732500 0.466200
-2.713700 0.515400
-2.694900 0.694500
-2.676000 0.976900
-2.657200 1.273600
-2.638400 1.460200
-2.619600 1.470600
-2.600700 1.338300
-2.581900 1.142100
-2.563100 0.948200
-2.544200 0.788100
-2.525400 0.648400
-2.506600 0.495500
-2.487800 0.329100
-2.468900 0.196300
-2.450100 0.153200
-2.431300 0.229300
-2.412400 0.411000
-2.393600 0.628400
-2.374800 0.775900
-2.356000 0.785400
-2.337100 0.691900
-2.318300 0.619900
-2.299500 0.690300
-2.280600 0.916300
-2.261800 1.184000
-2.243000 1.345800
-2.224100 1.331900
-2.205300 1.171000
-2.186500 0.944700
-2.167700 0.741200
-2.148800 0.619400
-2.130000 0.596400
-2.111200 0.670200
-2.092300 0.826000
-2.073500 1.007000
-2.054700 1.133500
-2.035900 1.179500
-2.017000 1.190300
-1.998200 1.213100
-1.979400 1.251300
-1.960500 1.278200
-1.941700 1.257000
-1.922900 1.160200
-1.904100 1.003600
-1.885200 0.863100
-1.866400 0.832500
-1.847600 0.948400
-1.828700 1.169600
-1.809900 1.438100
-1.791100 1.724400
-1.772300 1.987400
-1.753400 2.150200
-1.734600 2.169800
-1.715800 2.086000
-1.696900 1.954300
-1.678100 1.778300
-1.659300 1.540700
-1.640500 1.250000
-1.621600 0.934800
-1.602800 0.632900
-1.584000 0.399400
-1.565100 0.293800
-1.546300 0.342300
-1.527500 0.518600
-1.508600 0.776700
-1.489800 1.099400
-1.471000 1.483400
-1.452200 1.864200
-1.433300 2.107000
-1.414500 2.107900
-1.395700 1.869700
-1.376800 1.478600
-1.358000 1.047500
-1.339200 0.675400
-1.320400 0.425200
-1.301500 0.327700
-1.282700 0.392600
-1.263900 0.599300
-1.245000 0.887400
-1.226200 1.167300
-1.207400 1.346400
-1.188600 1.381400
-1.169700 1.333800
-1.150900 1.322400
-1.132100 1.385400
-1.113200 1.445300
-1.094400 1.423800
-1.075600 1.323100
-1.056800 1.189500
-1.037900 1.073700
-1.019100 1.040100
-1.000300 1.151900
-0.981400 1.392500
-0.962600 1.618700
-0.943800 1.655100
-0.925000 1.456300
-0.906100 1.142300
-0.887300 0.884900
-0.868500 0.788300
-0.849600 0.838800
-0.830800 0.927000
-0.812000 0.941800
-0.793100 0.873900
-0.774300 0.823200
-0.755500 0.895900
-0.736700 1.091000
-0.717800 1.293700
-0.699000 1.375200
-0.680200 1.302000
-0.661300 1.164700
-0.642500 1.109300
-0.623700 1.214600
-0.604900 1.431000
-0.586000 1.656000
-0.567200 1.847100
-0.548400 2.010700
-0.529500 2.113400
-0.510700 2.088500
-0.491900 1.927100
-0.473100 1.703300
-0.454200 1.516500
-0.435400 1.438500
-0.416600 1.479200
-0.397700 1.576300
-0.378900 1.651000
-0.360100 1.681100
-0.341300 1.693200
-0.322400 1.697300
-0.303600 1.673000
-0.284800 1.628300
-0.265900 1.641200
-0.247100 1.806400
-0.228300 2.121300
-0.209500 2.437700
-0.190600 2.550800
-0.171800 2.356200
-0.153000 1.925200
-0.134100 1.448900
-0.115300 1.131600
-0.096500 1.088400
-0.077600 1.258600
-0.058800 1.431700
-0.040000 1.434700
-0.021200 1.291300
-0.002300 1.160100
0.016500 1.151700
0.035300 1.264100
0.054200 1.457800
0.073000 1.713500
0.091800 1.995900
0.110600 2.202700
0.129500 2.209000
0.148300 1.982100
0.167100 1.619200
0.186000 1.269100
0.204800 1.060300
0.223600 1.079100
0.242400 1.333300
0.261300 1.716600
0.280100 2.057400
0.298900 2.231300
0.317800 2.231300
0.336600 2.137200
0.355400 2.035100
0.374200 1.967800
0.393100 1.919200
0.411900 1.827600
0.430700 1.654800
0.449600 1.436600
0.468400 1.223600
0.487200 1.015500
0.506000 0.812300
0.524900 0.676700
0.543700 0.682800
0.562500 0.822100
0.581400 1.002700
0.600200 1.133400
0.619000 1.176500
0.637900 1.126600
0.656700 0.995500
0.675500 0.836200
0.694300 0.730100
0.713200 0.709700
0.732000 0.715800
0.750800 0.664300
0.769700 0.545800
0.788500 0.432900
0.807300 0.393800
0.826100 0.427900
0.845000 0.480100
0.863800 0.491200
0.882600 0.441800
0.901500 0.368900
0.920300 0.330600
0.939100 0.343900
0.957900 0.371200
0.976800 0.368400
0.995600 0.324300
1.014400 0.259700
1.033300 0.208100
1.052100 0.191300
1.070900 0.198300
1.089700 0.199800
1.108600 0.190800
1.127400 0.203100
1.146200 0.267600
1.165100 0.374700
1.183900 0.479500
1.202700 0.537300
1.221500 0.530500
1.240400 0.471600
1.259200 0.388200
1.278000 0.303700
1.296900 0.236600
1.315700 0.203900
1.334500 0.208400
1.353400 0.230700
1.372200 0.253300
1.391000 0.275600
1.409800 0.293500
1.428700 0.282800
1.447500 0.227200
1.466300 0.145400
1.485200 0.073100
1.504000 0.030700
1.522800 0.017100
1.541600 0.024100
1.560500 0.046200
1.579300 0.082400
1.598100 0.135600
1.617000 0.207200
1.635800 0.285600
1.654600 0.343500
1.673400 0.357700
1.692300 0.327900
1.711100 0.271600
1.729900 0.210000
1.748800 0.163900
1.767600 0.151600
1.786400 0.177700
1.805200 0.228500
1.824100 0.294600
1.842900 0.399900
1.861700 0.586900
1.880600 0.851700
1.899400 1.097500
1.918200 1.193200
1.937000 1.109900
1.955900 0.960000
1.974700 0.862600
1.993500 0.825200
2.012400 0.804000
2.031200 0.804200
2.050000 0.850000
2.068900 0.901200
2.087700 0.880800
2.106500 0.780600
2.125300 0.685600
2.144200 0.686200
2.163000 0.800600
2.181800 0.981700
2.200700 1.158500
2.219500 1.276300
2.238300 1.328400
2.257100 1.343200
2.276000 1.320600
2.294800 1.219000
2.313600 1.032400
2.332500 0.827400
2.351300 0.682900
2.370100 0.648800
2.388900 0.765400
2.407800 1.063100
2.426600 1.531900
2.445400 2.105500
2.464300 2.665700
2.483100 3.057800
2.501900 3.144900
2.520700 2.912900
2.539600 2.515700
2.558400 2.157200
2.577200 1.954200
2.596100 1.946000
2.614900 2.140900
2.633700 2.467800
2.652500 2.751500
2.671400 2.830400
2.690200 2.698300
2.709000 2.487600
2.727900 2.328400
2.746700 2.250100
2.765500 2.202200
2.784400 2.128600
2.803200 2.010700
2.822000 1.850600
2.840800 1.646900
2.859700 1.416000
2.878500 1.211900
2.897300 1.093300
2.916200 1.080500
2.935000 1.149800
2.953800 1.250300
2.972600 1.341300
2.991500 1.420600
3.010300 1.489700
3.029100 1.507500
3.048000 1.427900
3.066800 1.275400
3.085600 1.148400
3.104400 1.134900
3.123300 1.220100
3.142100 1.290900
3.160900 1.268000
3.179800 1.212100
3.198600 1.247600
3.217400 1.403000
3.236200 1.580200
3.255100 1.677000
3.273900 1.690200
3.292700 1.679900
3.311600 1.666300
3.330400 1.613900
3.349200 1.500200
3.368000 1.352800
3.386900 1.225600
3.405700 1.147800
3.424500 1.078400
3.443400 0.943400
3.462200 0.747800
3.481000 0.599000
3.499900 0.587900
3.518700 0.686800
3.537500 0.787900
3.556300 0.818500
3.575200 0.800400
3.594000 0.806900
3.612800 0.862500
3.631700 0.903100
3.650500 0.857800
3.669300 0.739200
3.688100 0.608200
3.707000 0.487400
3.725800 0.370400
3.744600 0.283900
3.763500 0.288600
3.782300 0.421100
3.801100 0.662500
3.819900 0.963600
3.838800 1.274800
3.857600 1.533800
3.876400 1.656300
3.895300 1.597000
3.914100 1.422700
3.932900 1.281800
3.951700 1.274300
3.970600 1.362600
3.989400 1.422100
4.008200 1.369700
4.027100 1.232200
4.045900 1.106100
4.064700 1.075200
4.083500 1.157000
4.102400 1.303300
4.121200 1.431900
4.140000 1.460400
4.158900 1.350400
4.177700 1.145200
4.196500 0.948200
4.215400 0.841600
4.234200 0.817200
4.253000 0.797700
4.271800 0.737000
4.290700 0.680600
4.309500 0.710700
4.328300 0.861600
4.347200 1.103500
4.366000 1.369900
4.384800 1.581200
4.403600 1.688500
4.422500 1.715700
4.441300 1.723300
4.460100 1.739100
4.479000 1.772900
4.497800 1.861700
4.516600 2.013500
4.535400 2.152200
4.554300 2.195100
4.573100 2.145400
4.591900 2.058000
4.610800 1.964600
4.629600 1.880200
4.648400 1.843000
4.667200 1.886800
4.686100 1.984100
4.704900 2.067500
4.723700 2.098400
4.742600 2.092500
4.761400 2.101200
4.780200 2.179800
4.799000 2.344800
4.817900 2.562100
4.836700 2.780800
4.855500 2.958500
4.874400 3.070800
4.893200 3.125900
4.912000 3.142100
4.930900 3.096500
4.949700 2.945500
4.968500 2.710800
4.987300 2.502500
5.006200 2.449400
5.025000 2.621100
5.043800 2.986800
5.062700 3.409400
5.081500 3.690000
5.100300 3.669800
5.119100 3.336700
5.138000 2.853100
5.156800 2.451500
5.175600 2.253600
5.194500 2.197900
5.213300 2.168700
5.232100 2.137800
5.250900 2.137100
5.269800 2.167300
5.288600 2.190300
5.307400 2.171000
5.326300 2.119100
5.345100 2.116600
5.363900 2.271400
5.382700 2.617300
5.401600 3.072900
5.420400 3.459700
5.439200 3.556600
5.458100 3.240700
5.476900 2.623000
5.495700 1.984600
5.514500 1.561200
5.533400 1.414600
5.552200 1.474100
5.571000 1.658000
5.589900 1.958000
5.608700 2.380500
5.627500 2.799500
5.646400 2.964600
5.665200 2.732400
5.684000 2.231600
5.702800 1.730700
5.721700 1.386700
5.740500 1.169300
5.759300 0.981200
5.778200 0.794000
5.797000 0.663900
5.815800 0.650600
5.834600 0.751600
5.853500 0.921200
5.872300 1.124000
5.891100 1.335900
5.910000 1.500400
5.928800 1.548700
5.947600 1.505500
5.966400 1.539700
5.985300 1.843400
6.004100 2.425400
6.022900 3.042000
6.041800 3.397200
6.060600 3.423800
6.079400 3.297300
6.098200 3.166500
6.117100 2.983800
6.135900 2.654500
6.154700 2.237800
6.173600 1.889300
6.192400 1.670200
6.211200 1.514700
6.230000 1.346700
6.248900 1.155500
6.267700 0.991900
6.286500 0.926500
6.305400 0.970900
6.324200 1.029100
6.343000 0.988400
6.361900 0.848800
6.380700 0.705200
6.399500 0.641500
6.418300 0.701300
6.437200 0.911000
6.456000 1.266900
6.474800 1.718900
6.493700 2.190300
6.512500 2.594100
6.531300 2.830100
6.550100 2.800400
6.569000 2.475300
6.587800 1.973300
6.606600 1.529300
6.625500 1.344100
6.644300 1.481300
6.663100 1.877800
6.681900 2.362300
6.700800 2.689700
6.719600 2.693300
6.738400 2.445300
6.757300 2.198700
6.776100 2.151700
6.794900 2.293800
6.813700 2.449200
6.832600 2.421700
6.851400 2.133700
6.870200 1.683100
6.889100 1.273400
6.907900 1.079600
6.926700 1.150100
6.945500 1.401700
6.964400 1.705500
6.983200 1.976200
7.002000 2.174900
7.020900 2.280400
7.039700 2.297200
7.058500 2.249600
7.077400 2.158900
7.096200 2.049300
7.115000 1.945600
7.133800 1.848100
7.152700 1.742900
7.171500 1.644400
7.190300 1.609000
7.209200 1.698100
7.228000 1.911300
7.246800 2.149400
7.265600 2.264900
7.284500 2.175200
7.303300 1.932100
7.322100 1.681300
7.341000 1.548900
7.359800 1.554700
7.378600 1.625600
7.397400 1.681200
7.416300 1.706500
7.435100 1.763200
7.453900 1.919600
7.472800 2.139700
7.491600 2.258800
7.510400 2.120000
7.529200 1.739200
7.548100 1.300000
7.566900 0.988700
7.585700 0.858200
7.604600 0.835700
7.623400 0.824300
7.642200 0.809800
7.661000 0.884600
7.679900 1.138400
7.698700 1.510300
7.717500 1.795500
7.736400 1.830900
7.755200 1.645900
7.774000 1.401500
7.792900 1.216600
7.811700 1.084900
7.830500 0.952300
7.849300 0.825800
7.868200 0.775100
7.887000 0.853700
7.905800 1.062600
7.924700 1.374700
7.943500 1.752200
7.962300 2.139100
7.981100 2.462600
8.000000 2.654500
8.018800 2.673400
8.037600 2.525400
8.056500 2.275400
8.075300 2.033000
8.094100 1.901500
8.112900 1.899100
8.131800 1.926400
8.150600 1.869500
8.169400 1.731500
8.188300 1.595000
8.207100 1.492300
8.225900 1.409600
8.244700 1.378000
8.263600 1.435900
8.282400 1.531400
8.301200 1.569300
8.320100 1.533300
8.338900 1.485900
8.357700 1.482600
8.376500 1.555300
8.395400 1.743900
8.414200 2.063100
8.433000 2.426500
8.451900 2.649400
8.470700 2.586600
8.489500 2.275000
8.508400 1.900600
8.527200 1.622200
8.546000 1.465900
8.564800 1.378200
8.583700 1.320700
8.602500 1.292700
8.621300 1.303300
8.640200 1.351600
8.659000 1.426900
8.677800 1.529700
8.696600 1.683200
8.715500 1.886400
8.734300 2.061500
8.753100 2.098200
8.772000 1.958400
8.790800 1.701000
8.809600 1.429000
8.828400 1.252500
8.847300 1.256300
8.866100 1.434400
8.884900 1.672300
8.903800 1.850200
8.922600 1.966600
8.941400 2.119400
8.960200 2.361700
8.979100 2.611000
8.997900 2.721300
9.016700 2.625700
9.035600 2.383600
9.054400 2.108800
9.073200 1.906800
9.092000 1.855100
9.110900 1.974400
9.129700 2.224200
9.148500 2.546100
9.167400 2.866600
9.186200 3.070400
9.205000 3.058200
9.223900 2.852800
9.242700 2.610400
9.261500 2.498000
9.280300 2.542800
9.299200 2.610800
9.318000 2.569900
9.336800 2.465200
9.355700 2.472300
9.374500 2.681700
9.393300 2.991900
9.412100 3.209100
9.431000 3.197000
9.449800 2.958700
9.468600 2.645900
9.487500 2.470500
9.506300 2.542200
9.525100 2.783800
9.543900 3.013400
9.562800 3.117200
9.581600 3.137800
9.600400 3.181100
9.619300 3.256200
9.638100 3.254700
9.656900 3.082400
9.675700 2.769300
9.694600 2.446100
9.713400 2.241100
9.732200 2.201200
9.751100 2.282700
9.769900 2.385600
9.788700 2.401700
9.807600 2.272500
9.826400 2.039400
9.845200 1.828200
9.864000 1.746700
9.882900 1.802700
9.901700 1.944800
9.920500 2.141300
9.939400 2.365600
9.958200 2.547700
9.977000 2.624000
9.995800 2.616500
10.014700 2.603700
10.033500 2.620100
10.052300 2.621400
10.071200 2.548400
10.090000 2.404600
10.108800 2.246100
10.127600 2.101600
10.146500 1.948300
10.165300 1.768100
10.184100 1.580400
10.203000 1.426700
10.221800 1.355000
10.240600 1.397500
10.259400 1.542700
10.278300 1.754900
10.297100 2.012900
10.315900 2.286700
10.334800 2.488500
10.353600 2.501700
10.372400 2.275100
10.391200 1.874000
10.410100 1.454000
10.428900 1.197400
10.447700 1.236300
10.466600 1.568200
10.485400 2.022600
10.504200 2.360400
10.523100 2.457800
10.541900 2.379300
10.560700 2.265400
10.579500 2.203400
10.598400 2.224500
10.617200 2.352800
10.636000 2.593600
10.654900 2.872500
10.673700 3.014800
10.692500 2.846200
10.711300 2.372900
10.730200 1.825300
