set title 'mp-556859 - Density of States'
set xlabel 'Energy (eV)'
set ylabel 'DOS (states/eV)'
set grid
set xrange [-10:10]
set yrange [0:139.391]
set xzeroaxis lt -1
set terminal png size 800,600
set output 'mp-556859_dos_gnuplot.png'
plot '-' using 1:2 with lines title 'DOS'
-18.914600 0.000000
-18.894100 0.000000
-18.873600 0.000000
-18.853100 0.000000
-18.832600 0.000000
-18.812100 0.000000
-18.791600 0.000000
-18.771100 0.000000
-18.750600 0.000000
-18.730100 0.000000
-18.709600 0.000000
-18.689100 0.000000
-18.668600 0.000000
-18.648100 0.000000
-18.627600 0.000000
-18.607100 0.000000
-18.586600 0.000000
-18.566100 0.000000
-18.545600 0.000000
-18.525100 0.000000
-18.504600 0.000000
-18.484100 0.000000
-18.463600 0.000000
-18.443100 0.000000
-18.422600 0.000000
-18.402100 0.000000
-18.381700 0.000000
-18.361200 0.000000
-18.340700 0.000000
-18.320200 0.000000
-18.299700 0.000000
-18.279200 0.000000
-18.258700 0.000000
-18.238200 0.000000
-18.217700 0.000000
-18.197200 0.000000
-18.176700 0.000000
-18.156200 0.000000
-18.135700 0.000000
-18.115200 0.000000
-18.094700 0.000000
-18.074200 0.000000
-18.053700 0.000000
-18.033200 0.000000
-18.012700 0.000000
-17.992200 0.000000
-17.971700 0.000000
-17.951200 0.000000
-17.930700 0.000000
-17.910200 0.000000
-17.889700 0.000000
-17.869200 0.000000
-17.848700 0.000000
-17.828200 0.000000
-17.807700 0.000000
-17.787200 0.000000
-17.766800 0.000000
-17.746300 0.000000
-17.725800 0.000000
-17.705300 0.000000
-17.684800 0.000000
-17.664300 0.000000
-17.643800 0.000000
-17.623300 0.000000
-17.602800 0.000000
-17.582300 0.000000
-17.561800 0.000000
-17.541300 0.000000
-17.520800 0.000000
-17.500300 0.000000
-17.479800 0.000000
-17.459300 0.000000
-17.438800 0.000000
-17.418300 0.000000
-17.397800 0.000000
-17.377300 0.000000
-17.356800 0.000000
-17.336300 0.000000
-17.315800 0.000000
-17.295300 0.000000
-17.274800 0.000000
-17.254300 0.000000
-17.233800 0.000000
-17.213300 0.000000
-17.192800 0.000000
-17.172300 0.000000
-17.151800 0.000000
-17.131400 0.000000
-17.110900 0.000000
-17.090400 0.000000
-17.069900 0.000000
-17.049400 0.005500
-17.028900 0.795100
-17.008400 2.482000
-16.987900 5.454400
-16.967400 7.640600
-16.946900 9.557300
-16.926400 9.855300
-16.905900 10.261700
-16.885400 15.943500
-16.864900 18.017700
-16.844400 21.196600
-16.823900 34.826800
-16.803400 37.112000
-16.782900 34.998900
-16.762400 32.748000
-16.741900 25.202600
-16.721400 23.747600
-16.700900 23.756600
-16.680400 22.887800
-16.659900 19.266500
-16.639400 16.420000
-16.618900 11.788600
-16.598400 6.389800
-16.577900 0.000000
-16.557400 3.635900
-16.536900 11.410300
-16.516500 17.826600
-16.496000 20.524600
-16.475500 20.948600
-16.455000 20.952500
-16.434500 20.956700
-16.414000 20.961200
-16.393500 21.034800
-16.373000 21.877400
-16.352500 24.574700
-16.332000 31.552200
-16.311500 39.707800
-16.291000 40.211600
-16.270500 40.271700
-16.250000 35.985000
-16.229500 0.000000
-16.209000 0.000000
-16.188500 0.000000
-16.168000 0.000000
-16.147500 0.000000
-16.127000 0.000000
-16.106500 0.000000
-16.086000 0.000000
-16.065500 0.000000
-16.045000 0.000000
-16.024500 0.000000
-16.004000 0.000000
-15.983500 0.000000
-15.963000 0.000000
-15.942500 0.000000
-15.922000 0.000000
-15.901500 0.000000
-15.881100 0.000000
-15.860600 0.000000
-15.840100 0.000000
-15.819600 0.000000
-15.799100 0.000000
-15.778600 0.000000
-15.758100 0.000000
-15.737600 0.000000
-15.717100 0.000000
-15.696600 0.000000
-15.676100 0.000000
-15.655600 0.000000
-15.635100 0.000000
-15.614600 0.000000
-15.594100 0.000000
-15.573600 0.000000
-15.553100 0.000000
-15.532600 0.000000
-15.512100 0.000000
-15.491600 0.000000
-15.471100 0.000000
-15.450600 0.000000
-15.430100 0.000000
-15.409600 0.000000
-15.389100 0.000000
-15.368600 0.000000
-15.348100 0.000000
-15.327600 0.000000
-15.307100 0.000000
-15.286600 0.000000
-15.266200 0.000000
-15.245700 0.000000
-15.225200 0.000000
-15.204700 0.000000
-15.184200 0.000000
-15.163700 0.000000
-15.143200 0.000000
-15.122700 0.000000
-15.102200 0.000000
-15.081700 0.000000
-15.061200 0.000000
-15.040700 0.000000
-15.020200 0.000000
-14.999700 0.000000
-14.979200 0.000000
-14.958700 0.000000
-14.938200 0.000000
-14.917700 0.000000
-14.897200 0.000000
-14.876700 0.000000
-14.856200 0.000000
-14.835700 0.000000
-14.815200 0.000000
-14.794700 0.000000
-14.774200 0.000000
-14.753700 0.000000
-14.733200 0.000000
-14.712700 0.000000
-14.692200 0.000000
-14.671700 0.000000
-14.651200 0.000000
-14.630800 0.000000
-14.610300 0.000000
-14.589800 0.000000
-14.569300 0.000000
-14.548800 0.000000
-14.528300 0.000000
-14.507800 0.000000
-14.487300 0.000000
-14.466800 0.000000
-14.446300 0.000000
-14.425800 0.000000
-14.405300 0.000000
-14.384800 0.000000
-14.364300 0.000000
-14.343800 0.000000
-14.323300 0.000000
-14.302800 0.000000
-14.282300 0.000000
-14.261800 0.000000
-14.241300 0.000000
-14.220800 0.000000
-14.200300 0.000000
-14.179800 0.000000
-14.159300 0.000000
-14.138800 0.000000
-14.118300 0.000000
-14.097800 0.000000
-14.077300 0.000000
-14.056800 0.000000
-14.036300 0.000000
-14.015900 0.000000
-13.995400 0.000000
-13.974900 0.000000
-13.954400 0.000000
-13.933900 0.000000
-13.913400 0.000000
-13.892900 0.000000
-13.872400 0.000000
-13.851900 0.000000
-13.831400 0.000000
-13.810900 0.000000
-13.790400 0.000000
-13.769900 0.000000
-13.749400 0.000000
-13.728900 0.000000
-13.708400 0.000000
-13.687900 0.000000
-13.667400 0.000000
-13.646900 0.000000
-13.626400 0.000000
-13.605900 0.000000
-13.585400 0.000000
-13.564900 0.000000
-13.544400 0.000000
-13.523900 0.000000
-13.503400 0.000000
-13.482900 0.000000
-13.462400 0.000000
-13.441900 0.000000
-13.421400 0.000000
-13.400900 0.000000
-13.380500 0.000000
-13.360000 0.000000
-13.339500 0.000000
-13.319000 0.000000
-13.298500 0.000000
-13.278000 0.000000
-13.257500 0.000000
-13.237000 0.000000
-13.216500 0.000000
-13.196000 0.000000
-13.175500 0.000000
-13.155000 0.000000
-13.134500 0.000000
-13.114000 0.000000
-13.093500 0.000000
-13.073000 0.000000
-13.052500 0.000000
-13.032000 0.000000
-13.011500 0.000000
-12.991000 0.000000
-12.970500 0.000000
-12.950000 0.000000
-12.929500 0.000000
-12.909000 0.000000
-12.888500 0.000000
-12.868000 0.000000
-12.847500 0.000000
-12.827000 0.000000
-12.806500 0.000000
-12.786000 0.000000
-12.765600 0.000000
-12.745100 0.000000
-12.724600 0.000000
-12.704100 0.000000
-12.683600 0.000000
-12.663100 0.000000
-12.642600 0.000000
-12.622100 0.000000
-12.601600 0.000000
-12.581100 0.000000
-12.560600 0.000000
-12.540100 0.000000
-12.519600 0.000000
-12.499100 0.000000
-12.478600 0.000000
-12.458100 0.000000
-12.437600 0.000000
-12.417100 0.000000
-12.396600 0.000000
-12.376100 0.000000
-12.355600 0.000000
-12.335100 0.000000
-12.314600 0.000000
-12.294100 0.000000
-12.273600 0.000000
-12.253100 0.000000
-12.232600 0.000000
-12.212100 0.000000
-12.191600 0.000000
-12.171100 0.000000
-12.150600 0.000000
-12.130200 0.000000
-12.109700 0.000000
-12.089200 0.000000
-12.068700 0.000000
-12.048200 0.000000
-12.027700 0.000000
-12.007200 0.000000
-11.986700 0.000000
-11.966200 0.000000
-11.945700 0.000000
-11.925200 0.000000
-11.904700 0.000000
-11.884200 0.000000
-11.863700 0.000000
-11.843200 0.000000
-11.822700 0.000000
-11.802200 0.000000
-11.781700 0.000000
-11.761200 0.000000
-11.740700 0.000000
-11.720200 0.000000
-11.699700 0.000000
-11.679200 0.000000
-11.658700 0.000000
-11.638200 0.000000
-11.617700 0.000000
-11.597200 0.000000
-11.576700 0.000000
-11.556200 0.000000
-11.535700 0.000000
-11.515300 0.000000
-11.494800 0.000000
-11.474300 0.000000
-11.453800 0.000000
-11.433300 0.000000
-11.412800 0.000000
-11.392300 0.000000
-11.371800 0.000000
-11.351300 0.000000
-11.330800 0.000000
-11.310300 0.000000
-11.289800 0.000000
-11.269300 0.000000
-11.248800 0.000000
-11.228300 0.000000
-11.207800 0.000000
-11.187300 0.000000
-11.166800 0.000000
-11.146300 0.000000
-11.125800 0.000000
-11.105300 0.000000
-11.084800 0.000000
-11.064300 0.000000
-11.043800 0.000000
-11.023300 0.000000
-11.002800 0.000000
-10.982300 0.000000
-10.961800 0.000000
-10.941300 0.000000
-10.920800 0.000000
-10.900300 0.000000
-10.879900 0.000000
-10.859400 0.000000
-10.838900 0.000000
-10.818400 0.000000
-10.797900 0.000000
-10.777400 0.000000
-10.756900 0.000000
-10.736400 0.000000
-10.715900 0.000000
-10.695400 0.000000
-10.674900 0.000000
-10.654400 0.000000
-10.633900 0.000000
-10.613400 0.000000
-10.592900 0.000000
-10.572400 0.000000
-10.551900 0.000000
-10.531400 0.000000
-10.510900 0.000000
-10.490400 0.000000
-10.469900 0.000000
-10.449400 0.000000
-10.428900 0.000000
-10.408400 0.000000
-10.387900 0.000000
-10.367400 0.000000
-10.346900 0.000000
-10.326400 0.000000
-10.305900 0.000000
-10.285400 0.000000
-10.265000 0.000000
-10.244500 0.000000
-10.224000 0.000000
-10.203500 0.000000
-10.183000 0.000000
-10.162500 0.000000
-10.142000 0.000000
-10.121500 0.000000
-10.101000 0.000000
-10.080500 0.000000
-10.060000 0.000000
-10.039500 0.000000
-10.019000 0.000000
-9.998500 0.000000
-9.978000 0.000000
-9.957500 0.000000
-9.937000 0.000000
-9.916500 0.000000
-9.896000 0.000000
-9.875500 0.000000
-9.855000 0.000000
-9.834500 0.000000
-9.814000 0.000000
-9.793500 0.000000
-9.773000 0.000000
-9.752500 0.000000
-9.732000 0.000000
-9.711500 0.000000
-9.691000 0.000000
-9.670500 0.000000
-9.650000 0.000000
-9.629600 0.000000
-9.609100 0.000000
-9.588600 0.000000
-9.568100 0.000000
-9.547600 0.000000
-9.527100 0.000000
-9.506600 0.000000
-9.486100 0.000000
-9.465600 0.000000
-9.445100 0.000000
-9.424600 0.000000
-9.404100 0.000000
-9.383600 0.000000
-9.363100 0.000000
-9.342600 0.000000
-9.322100 0.000000
-9.301600 0.000000
-9.281100 0.000000
-9.260600 0.000000
-9.240100 0.000000
-9.219600 0.000000
-9.199100 0.000000
-9.178600 0.000000
-9.158100 0.000000
-9.137600 0.000000
-9.117100 0.000000
-9.096600 0.000000
-9.076100 0.000000
-9.055600 0.000000
-9.035100 0.000000
-9.014700 0.000000
-8.994200 0.000000
-8.973700 0.000000
-8.953200 0.000000
-8.932700 0.000000
-8.912200 0.000000
-8.891700 0.000000
-8.871200 0.000000
-8.850700 0.000000
-8.830200 0.000000
-8.809700 0.000000
-8.789200 0.000000
-8.768700 0.000000
-8.748200 0.000000
-8.727700 0.000000
-8.707200 0.000000
-8.686700 0.000000
-8.666200 0.000000
-8.645700 0.000000
-8.625200 0.000000
-8.604700 0.000000
-8.584200 0.000000
-8.563700 0.000000
-8.543200 0.000000
-8.522700 0.000000
-8.502200 0.000000
-8.481700 0.000000
-8.461200 0.000000
-8.440700 0.000000
-8.420200 0.000000
-8.399700 0.000000
-8.379300 0.000000
-8.358800 0.000000
-8.338300 0.000000
-8.317800 0.000000
-8.297300 0.000000
-8.276800 0.000000
-8.256300 0.000000
-8.235800 0.000000
-8.215300 0.000000
-8.194800 0.000000
-8.174300 0.000000
-8.153800 0.000000
-8.133300 0.000000
-8.112800 0.000000
-8.092300 0.000000
-8.071800 0.000000
-8.051300 0.000000
-8.030800 0.000000
-8.010300 0.000000
-7.989800 0.000000
-7.969300 0.000000
-7.948800 0.000000
-7.928300 0.000000
-7.907800 0.000000
-7.887300 0.000000
-7.866800 0.000000
-7.846300 0.000000
-7.825800 0.000000
-7.805300 0.000000
-7.784800 0.000000
-7.764400 0.000000
-7.743900 0.000000
-7.723400 0.000000
-7.702900 0.000000
-7.682400 0.000000
-7.661900 0.000000
-7.641400 0.000000
-7.620900 0.000000
-7.600400 0.000000
-7.579900 0.000000
-7.559400 0.000000
-7.538900 0.000000
-7.518400 0.000000
-7.497900 0.000000
-7.477400 0.000000
-7.456900 0.000000
-7.436400 0.000000
-7.415900 0.000000
-7.395400 0.000000
-7.374900 0.000000
-7.354400 0.000000
-7.333900 0.000000
-7.313400 0.000000
-7.292900 0.000000
-7.272400 0.000000
-7.251900 0.000000
-7.231400 0.000000
-7.210900 0.000000
-7.190400 0.000000
-7.169900 0.000000
-7.149400 0.000000
-7.129000 0.000000
-7.108500 0.000000
-7.088000 0.000000
-7.067500 0.000000
-7.047000 0.000000
-7.026500 0.000000
-7.006000 0.000000
-6.985500 0.775100
-6.965000 1.966500
-6.944500 4.485800
-6.924000 5.758900
-6.903500 6.925900
-6.883000 8.891300
-6.862500 14.390900
-6.842000 14.862600
-6.821500 14.866700
-6.801000 14.870900
-6.780500 14.875100
-6.760000 14.879300
-6.739500 14.883600
-6.719000 14.887900
-6.698500 14.892300
-6.678000 14.037600
-6.657500 12.806400
-6.637000 11.181700
-6.616500 7.261700
-6.596000 6.439100
-6.575500 6.438900
-6.555000 6.438600
-6.534500 6.438400
-6.514100 6.438100
-6.493600 6.437800
-6.473100 6.437600
-6.452600 6.437300
-6.432100 6.437000
-6.411600 6.436800
-6.391100 6.436500
-6.370600 6.436300
-6.350100 6.436000
-6.329600 6.435700
-6.309100 6.435500
-6.288600 6.435200
-6.268100 6.435000
-6.247600 6.434700
-6.227100 6.434400
-6.206600 6.434200
-6.186100 6.436000
-6.165600 6.981200
-6.145100 9.533100
-6.124600 12.856500
-6.104100 17.790200
-6.083600 22.922000
-6.063100 26.139500
-6.042600 30.583300
-6.022100 33.885300
-6.001600 40.639000
-5.981100 55.235900
-5.960600 73.356300
-5.940100 47.949300
-5.919600 37.153400
-5.899100 12.542900
-5.878700 2.762500
-5.858200 0.000000
-5.837700 0.000000
-5.817200 0.000000
-5.796700 0.000000
-5.776200 1.602500
-5.755700 10.502300
-5.735200 27.214800
-5.714700 37.123100
-5.694200 51.369200
-5.673700 49.329400
-5.653200 50.661700
-5.632700 42.824900
-5.612200 38.013000
-5.591700 30.431400
-5.571200 22.712400
-5.550700 16.453600
-5.530200 11.094600
-5.509700 4.571700
-5.489200 8.181100
-5.468700 10.359500
-5.448200 11.040100
-5.427700 14.703800
-5.407200 15.194400
-5.386700 18.898000
-5.366200 21.687900
-5.345700 26.511600
-5.325200 29.797900
-5.304700 31.743800
-5.284200 34.052200
-5.263800 39.551500
-5.243300 49.400700
-5.222800 55.322200
-5.202300 62.854800
-5.181800 69.346900
-5.161300 62.435200
-5.140800 50.614800
-5.120300 54.107600
-5.099800 52.936800
-5.079300 46.426500
-5.058800 46.812400
-5.038300 48.293300
-5.017800 46.156900
-4.997300 41.359700
-4.976800 38.091300
-4.956300 35.327400
-4.935800 28.739600
-4.915300 48.855700
-4.894800 45.169700
-4.874300 53.655200
-4.853800 59.669600
-4.833300 60.622800
-4.812800 65.503200
-4.792300 64.940700
-4.771800 66.526400
-4.751300 77.961900
-4.730800 72.666500
-4.710300 70.002100
-4.689800 87.661300
-4.669300 94.504800
-4.648800 96.245100
-4.628400 92.734100
-4.607900 104.856400
-4.587400 109.624900
-4.566900 126.718700
-4.546400 98.748200
-4.525900 64.485900
-4.505400 21.240900
-4.484900 11.874000
-4.464400 10.451800
-4.443900 9.442600
-4.423400 8.832300
-4.402900 8.344800
-4.382400 7.873400
-4.361900 6.903800
-4.341400 6.129600
-4.320900 5.193500
-4.300400 4.077200
-4.279900 2.424700
-4.259400 0.424400
-4.238900 0.000000
-4.218400 0.000000
-4.197900 0.000000
-4.177400 0.000000
-4.156900 0.000000
-4.136400 0.000000
-4.115900 0.000000
-4.095400 0.000000
-4.074900 0.000000
-4.054400 0.000000
-4.033900 0.000000
-4.013500 0.000000
-3.993000 0.000000
-3.972500 0.000000
-3.952000 0.000000
-3.931500 0.000000
-3.911000 0.000000
-3.890500 0.000000
-3.870000 0.000000
-3.849500 0.000000
-3.829000 0.000000
-3.808500 0.000000
-3.788000 0.000000
-3.767500 0.000000
-3.747000 0.000000
-3.726500 0.000000
-3.706000 0.000000
-3.685500 0.000000
-3.665000 0.000000
-3.644500 0.000000
-3.624000 0.000000
-3.603500 0.000000
-3.583000 0.000000
-3.562500 0.000000
-3.542000 0.000000
-3.521500 0.000000
-3.501000 0.000000
-3.480500 0.000000
-3.460000 0.000000
-3.439500 0.000000
-3.419000 0.000000
-3.398500 0.000000
-3.378100 0.000000
-3.357600 0.000000
-3.337100 0.000000
-3.316600 0.004100
-3.296100 0.098700
-3.275600 0.318200
-3.255100 0.658900
-3.234600 1.072800
-3.214100 1.688900
-3.193600 4.820500
-3.173100 5.994400
-3.152600 8.205500
-3.132100 10.332100
-3.111600 10.944600
-3.091100 10.870000
-3.070600 11.526800
-3.050100 12.652700
-3.029600 14.619200
-3.009100 15.472800
-2.988600 17.183300
-2.968100 16.413100
-2.947600 13.919000
-2.927100 15.901800
-2.906600 19.332900
-2.886100 20.336300
-2.865600 22.312200
-2.845100 24.174000
-2.824600 26.558600
-2.804100 19.312500
-2.783600 17.099200
-2.763200 18.770400
-2.742700 16.504800
-2.722200 17.200800
-2.701700 13.614400
-2.681200 11.883800
-2.660700 11.753300
-2.640200 11.630900
-2.619700 13.101400
-2.599200 12.512600
-2.578700 13.796800
-2.558200 16.145400
-2.537700 15.769700
-2.517200 20.609700
-2.496700 15.658200
-2.476200 17.158000
-2.455700 17.734800
-2.435200 18.707000
-2.414700 17.929400
-2.394200 16.717100
-2.373700 15.541700
-2.353200 15.411800
-2.332700 15.082100
-2.312200 13.785600
-2.291700 12.402000
-2.271200 11.223900
-2.250700 10.422400
-2.230200 9.811200
-2.209700 9.221700
-2.189200 8.757600
-2.168700 8.307000
-2.148200 6.820100
-2.127800 5.973500
-2.107300 5.324300
-2.086800 4.886000
-2.066300 4.411100
-2.045800 3.646900
-2.025300 3.364900
-2.004800 3.281500
-1.984300 3.262800
-1.963800 3.792600
-1.943300 4.603700
-1.922800 5.482300
-1.902300 6.304300
-1.881800 6.998900
-1.861300 8.180300
-1.840800 10.010900
-1.820300 11.547300
-1.799800 12.758300
-1.779300 13.548200
-1.758800 13.115900
-1.738300 11.917100
-1.717800 12.183000
-1.697300 12.811700
-1.676800 13.150700
-1.656300 13.136800
-1.635800 13.225400
-1.615300 13.534400
-1.594800 14.185900
-1.574300 14.159100
-1.553800 13.985600
-1.533300 13.975200
-1.512900 14.095900
-1.492400 14.351800
-1.471900 14.946600
-1.451400 15.465600
-1.430900 15.881200
-1.410400 16.526600
-1.389900 17.073600
-1.369400 17.708500
-1.348900 18.467200
-1.328400 19.218700
-1.307900 20.055200
-1.287400 20.682400
-1.266900 22.044500
-1.246400 22.367300
-1.225900 22.410900
-1.205400 22.617000
-1.184900 22.869400
-1.164400 22.491700
-1.143900 23.983700
-1.123400 21.704300
-1.102900 19.678200
-1.082400 18.202900
-1.061900 16.461400
-1.041400 16.699700
-1.020900 18.037500
-1.000400 17.429400
-0.979900 16.818800
-0.959400 16.081100
-0.938900 13.273500
-0.918400 11.153300
-0.897900 11.210800
-0.877500 11.841300
-0.857000 11.622100
-0.836500 8.954800
-0.816000 9.112600
-0.795500 9.631900
-0.775000 9.819300
-0.754500 9.905600
-0.734000 9.933300
-0.713500 10.294800
-0.693000 10.266600
-0.672500 10.073200
-0.652000 10.199300
-0.631500 11.116600
-0.611000 11.211900
-0.590500 10.607500
-0.570000 10.091900
-0.549500 11.787200
-0.529000 10.678500
-0.508500 10.357400
-0.488000 10.092500
-0.467500 9.968800
-0.447000 9.827400
-0.426500 9.715600
-0.406000 10.160000
-0.385500 10.959900
-0.365000 11.561800
-0.344500 12.449200
-0.324000 16.223000
-0.303500 18.827300
-0.283000 13.524000
-0.262600 14.294200
-0.242100 16.362100
-0.221600 14.942100
-0.201100 12.337700
-0.180600 12.585600
-0.160100 12.998100
-0.139600 13.365100
-0.119100 14.233100
-0.098600 15.288600
-0.078100 16.195900
-0.057600 17.907200
-0.037100 19.000500
-0.016600 21.369500
0.003900 20.857700
0.024400 20.228000
0.044900 19.197800
0.065400 17.920100
0.085900 16.543800
0.106400 15.045000
0.126900 13.355300
0.147400 12.496000
0.167900 11.695700
0.188400 10.903400
0.208900 10.118900
0.229400 9.342500
0.249900 8.828600
0.270400 8.720700
0.290900 7.684400
0.311400 5.458500
0.331900 3.535000
0.352400 1.062600
0.372800 0.000000
0.393300 0.000000
0.413800 0.000000
0.434300 0.000000
0.454800 0.000000
0.475300 0.000000
0.495800 0.000000
0.516300 0.000000
0.536800 0.000000
0.557300 0.000000
0.577800 0.000000
0.598300 0.000000
0.618800 0.000000
0.639300 0.000000
0.659800 0.000000
0.680300 0.000000
0.700800 0.000000
0.721300 0.000000
0.741800 0.000000
0.762300 0.000000
0.782800 0.000000
0.803300 0.000000
0.823800 0.000000
0.844300 0.000000
0.864800 0.000000
0.885300 0.000000
0.905800 0.000000
0.926300 0.000000
0.946800 0.000000
0.967300 0.000000
0.987700 0.000000
1.008200 0.000000
1.028700 0.000000
1.049200 0.000000
1.069700 0.000000
1.090200 0.000000
1.110700 0.000000
1.131200 0.000000
1.151700 0.000000
1.172200 0.000000
1.192700 0.000000
1.213200 0.000000
1.233700 0.000000
1.254200 0.000000
1.274700 0.000000
1.295200 0.000000
1.315700 0.000000
1.336200 0.000000
1.356700 0.000000
1.377200 0.000000
1.397700 0.000000
1.418200 0.000000
1.438700 0.000000
1.459200 0.000000
1.479700 0.000000
1.500200 0.000000
1.520700 0.000000
1.541200 0.000000
1.561700 0.000000
1.582200 0.000000
1.602700 0.000000
1.623100 0.000600
1.643600 0.054200
1.664100 0.191800
1.684600 0.362100
