set title 'mp-605790 - Density of States'
set xlabel 'Energy (eV)'
set ylabel 'DOS (states/eV)'
set grid
set xrange [-10:10]
set yrange [0:6.488]
set xzeroaxis lt -1
set terminal png size 800,600
set output 'mp-605790_dos_gnuplot.png'
plot '-' using 1:2 with lines title 'DOS'
-31.886400 0.000000
-31.836700 0.000000
-31.787100 0.000000
-31.737500 0.000000
-31.687900 0.000000
-31.638300 0.000000
-31.588600 0.000000
-31.539000 0.000000
-31.489400 0.000000
-31.439800 0.000000
-31.390100 0.000000
-31.340500 0.000000
-31.290900 0.000000
-31.241300 0.000000
-31.191700 0.000000
-31.142000 0.000000
-31.092400 0.000000
-31.042800 0.000000
-30.993200 0.000000
-30.943600 0.000000
-30.893900 0.000000
-30.844300 0.000000
-30.794700 0.000000
-30.745100 0.000000
-30.695400 0.000000
-30.645800 0.000000
-30.596200 0.000000
-30.546600 0.000000
-30.497000 0.000000
-30.447300 0.000000
-30.397700 0.000000
-30.348100 0.000000
-30.298500 0.000000
-30.248800 0.000000
-30.199200 0.000000
-30.149600 0.000000
-30.100000 0.000000
-30.050400 0.000000
-30.000700 0.000000
-29.951100 0.000000
-29.901500 0.000000
-29.851900 0.000000
-29.802300 0.000000
-29.752600 0.000000
-29.703000 0.000000
-29.653400 0.000000
-29.603800 0.000000
-29.554100 0.000000
-29.504500 0.000000
-29.454900 0.000000
-29.405300 0.000000
-29.355700 0.000000
-29.306000 0.000000
-29.256400 0.000000
-29.206800 0.000000
-29.157200 0.000000
-29.107500 0.000000
-29.057900 0.000000
-29.008300 0.000000
-28.958700 0.000000
-28.909100 0.000000
-28.859400 0.000000
-28.809800 0.000000
-28.760200 0.000000
-28.710600 0.000000
-28.661000 0.000000
-28.611300 0.000000
-28.561700 0.000000
-28.512100 0.000000
-28.462500 0.000000
-28.412800 0.000000
-28.363200 0.000000
-28.313600 0.000000
-28.264000 0.000000
-28.214400 0.000000
-28.164700 0.000000
-28.115100 0.000000
-28.065500 0.000000
-28.015900 0.000000
-27.966200 0.000000
-27.916600 0.000000
-27.867000 0.000000
-27.817400 0.000000
-27.767800 0.000000
-27.718100 0.000000
-27.668500 0.000000
-27.618900 0.000000
-27.569300 0.000000
-27.519700 0.000000
-27.470000 0.000000
-27.420400 0.000000
-27.370800 2.898300
-27.321200 31.188200
-27.271500 0.787900
-27.221900 0.000000
-27.172300 0.000000
-27.122700 0.000000
-27.073100 0.000000
-27.023400 0.000000
-26.973800 0.000000
-26.924200 0.000000
-26.874600 0.000000
-26.825000 0.000000
-26.775300 0.000000
-26.725700 0.000000
-26.676100 0.000000
-26.626500 0.000000
-26.576800 0.000000
-26.527200 0.000000
-26.477600 0.000000
-26.428000 0.000000
-26.378400 0.000000
-26.328700 0.000000
-26.279100 0.000000
-26.229500 0.000000
-26.179900 0.000000
-26.130200 0.000000
-26.080600 0.000000
-26.031000 0.000000
-25.981400 0.000000
-25.931800 0.000000
-25.882100 0.000000
-25.832500 0.000000
-25.782900 0.000000
-25.733300 0.000000
-25.683700 0.000000
-25.634000 0.000000
-25.584400 0.000000
-25.534800 0.000000
-25.485200 0.000000
-25.435500 0.000000
-25.385900 0.000000
-25.336300 0.000000
-25.286700 0.000000
-25.237100 0.000000
-25.187400 0.000000
-25.137800 0.000000
-25.088200 0.000000
-25.038600 0.000000
-24.988900 0.000000
-24.939300 0.000000
-24.889700 0.000000
-24.840100 0.000000
-24.790500 0.000000
-24.740800 0.000000
-24.691200 0.000000
-24.641600 0.000000
-24.592000 0.000000
-24.542400 0.000000
-24.492700 0.000000
-24.443100 0.000000
-24.393500 0.000000
-24.343900 0.000000
-24.294200 0.000000
-24.244600 0.000000
-24.195000 0.000000
-24.145400 0.000000
-24.095800 0.000000
-24.046100 0.000000
-23.996500 0.000000
-23.946900 0.000000
-23.897300 0.000000
-23.847600 0.000000
-23.798000 0.000000
-23.748400 0.000000
-23.698800 0.000000
-23.649200 0.000000
-23.599500 0.000000
-23.549900 0.000000
-23.500300 0.000000
-23.450700 0.000000
-23.401100 0.000000
-23.351400 0.000000
-23.301800 0.000000
-23.252200 0.000000
-23.202600 0.000000
-23.152900 0.000000
-23.103300 0.000000
-23.053700 0.000000
-23.004100 0.000000
-22.954500 0.000000
-22.904800 0.000000
-22.855200 0.000000
-22.805600 0.000000
-22.756000 0.000000
-22.706300 0.000000
-22.656700 0.000000
-22.607100 0.000000
-22.557500 0.000000
-22.507900 0.000000
-22.458200 0.000000
-22.408600 0.000000
-22.359000 0.000000
-22.309400 0.000000
-22.259800 0.000000
-22.210100 0.000000
-22.160500 0.000000
-22.110900 0.000000
-22.061300 0.000000
-22.011600 0.000000
-21.962000 0.000000
-21.912400 0.000000
-21.862800 0.000000
-21.813200 0.000000
-21.763500 0.000000
-21.713900 0.000000
-21.664300 0.000000
-21.614700 0.000000
-21.565000 0.000000
-21.515400 0.000000
-21.465800 0.000000
-21.416200 0.000000
-21.366600 0.000000
-21.316900 0.000000
-21.267300 0.000000
-21.217700 0.000000
-21.168100 0.000000
-21.118500 0.000000
-21.068800 0.000000
-21.019200 0.000000
-20.969600 0.000000
-20.920000 0.000000
-20.870300 0.000000
-20.820700 0.000000
-20.771100 0.000000
-20.721500 0.000000
-20.671900 0.000000
-20.622200 0.000000
-20.572600 0.000000
-20.523000 0.000000
-20.473400 0.000000
-20.423800 0.000000
-20.374100 0.000000
-20.324500 0.000000
-20.274900 0.000000
-20.225300 0.000000
-20.175600 0.000000
-20.126000 0.000000
-20.076400 0.000000
-20.026800 0.000000
-19.977200 0.000000
-19.927500 0.000000
-19.877900 0.000000
-19.828300 0.000000
-19.778700 0.000000
-19.729000 0.000000
-19.679400 0.000000
-19.629800 0.000000
-19.580200 0.000000
-19.530600 0.000000
-19.480900 0.000000
-19.431300 0.000000
-19.381700 0.000000
-19.332100 0.000000
-19.282500 0.000000
-19.232800 0.000000
-19.183200 0.000000
-19.133600 0.000000
-19.084000 0.000000
-19.034300 0.000000
-18.984700 0.000000
-18.935100 0.000000
-18.885500 0.000000
-18.835900 0.000000
-18.786200 0.000000
-18.736600 0.000000
-18.687000 0.000000
-18.637400 0.000000
-18.587700 0.000000
-18.538100 0.000000
-18.488500 0.000000
-18.438900 0.000000
-18.389300 0.000000
-18.339600 0.000000
-18.290000 0.000000
-18.240400 0.000000
-18.190800 0.000000
-18.141200 0.000000
-18.091500 0.000000
-18.041900 0.000000
-17.992300 0.000000
-17.942700 0.000000
-17.893000 0.000000
-17.843400 0.000000
-17.793800 0.000000
-17.744200 0.000000
-17.694600 0.000000
-17.644900 0.000000
-17.595300 0.000000
-17.545700 0.000000
-17.496100 0.000000
-17.446400 0.000000
-17.396800 0.000000
-17.347200 0.000000
-17.297600 0.000000
-17.248000 0.000000
-17.198300 0.000000
-17.148700 0.000000
-17.099100 0.000000
-17.049500 0.000000
-16.999900 0.000000
-16.950200 0.000000
-16.900600 0.000000
-16.851000 0.000000
-16.801400 0.000000
-16.751700 0.000000
-16.702100 0.000000
-16.652500 0.000000
-16.602900 0.000000
-16.553300 0.000000
-16.503600 0.000000
-16.454000 0.000000
-16.404400 0.000000
-16.354800 0.000000
-16.305100 0.000000
-16.255500 0.000000
-16.205900 0.000000
-16.156300 0.000000
-16.106700 0.000000
-16.057000 0.000000
-16.007400 0.000000
-15.957800 0.000000
-15.908200 0.000000
-15.858600 0.000000
-15.808900 0.000000
-15.759300 0.000000
-15.709700 0.000000
-15.660100 0.000000
-15.610400 0.000000
-15.560800 0.000000
-15.511200 0.000000
-15.461600 0.000000
-15.412000 0.000000
-15.362300 0.000000
-15.312700 0.000000
-15.263100 0.000000
-15.213500 0.000000
-15.163900 0.000000
-15.114200 0.000000
-15.064600 0.000000
-15.015000 0.000000
-14.965400 0.000000
-14.915700 0.000000
-14.866100 0.000000
-14.816500 0.000000
-14.766900 0.000000
-14.717300 0.000000
-14.667600 0.000000
-14.618000 0.000000
-14.568400 0.000000
-14.518800 0.000000
-14.469100 0.000000
-14.419500 0.000000
-14.369900 0.000000
-14.320300 0.000000
-14.270700 0.000000
-14.221000 0.000000
-14.171400 0.000000
-14.121800 0.000000
-14.072200 0.000000
-14.022600 0.000000
-13.972900 0.000000
-13.923300 0.000000
-13.873700 0.000000
-13.824100 0.000000
-13.774400 0.000000
-13.724800 0.000000
-13.675200 0.000000
-13.625600 0.000000
-13.576000 0.000000
-13.526300 0.000000
-13.476700 0.000000
-13.427100 0.000000
-13.377500 0.000000
-13.327800 0.000000
-13.278200 0.000000
-13.228600 0.000000
-13.179000 0.000000
-13.129400 0.000000
-13.079700 0.000000
-13.030100 0.000000
-12.980500 0.000000
-12.930900 1.444000
-12.881300 4.839100
-12.831600 8.358300
-12.782000 12.466100
-12.732400 9.050200
-12.682800 7.652000
-12.633100 6.579800
-12.583500 7.553600
-12.533900 10.701700
-12.484300 12.211400
-12.434700 16.435900
-12.385000 10.610700
-12.335400 6.324300
-12.285800 5.992100
-12.236200 0.000000
-12.186500 0.000000
-12.136900 0.000000
-12.087300 0.000000
-12.037700 0.000000
-11.988100 0.000000
-11.938400 0.000000
-11.888800 0.000000
-11.839200 0.000000
-11.789600 0.000000
-11.740000 0.000000
-11.690300 0.000000
-11.640700 0.000000
-11.591100 0.000000
-11.541500 0.000000
-11.491800 0.000000
-11.442200 0.000000
-11.392600 0.000000
-11.343000 0.000000
-11.293400 0.000000
-11.243700 0.000000
-11.194100 0.000000
-11.144500 0.000000
-11.094900 0.000000
-11.045200 0.000000
-10.995600 0.000000
-10.946000 0.000000
-10.896400 0.000000
-10.846800 0.000000
-10.797100 0.000000
-10.747500 0.000000
-10.697900 0.000000
-10.648300 0.000000
-10.598700 0.000000
-10.549000 0.000000
-10.499400 0.000000
-10.449800 0.000000
-10.400200 0.000000
-10.350500 0.000000
-10.300900 0.000000
-10.251300 0.000000
-10.201700 0.000000
-10.152100 0.000000
-10.102400 0.000000
-10.052800 0.000000
-10.003200 0.000000
-9.953600 0.000000
-9.903900 0.000000
-9.854300 0.000000
-9.804700 0.000000
-9.755100 0.000000
-9.705500 0.000000
-9.655800 0.000000
-9.606200 0.000000
-9.556600 0.000000
-9.507000 0.000000
-9.457400 0.000000
-9.407700 0.000000
-9.358100 0.000000
-9.308500 0.000000
-9.258900 0.000000
-9.209200 0.000000
-9.159600 0.000000
-9.110000 0.000000
-9.060400 0.000000
-9.010800 0.000000
-8.961100 0.000000
-8.911500 0.000000
-8.861900 0.000000
-8.812300 0.000000
-8.762700 0.000000
-8.713000 0.000000
-8.663400 0.000000
-8.613800 0.000000
-8.564200 0.000000
-8.514500 0.000000
-8.464900 0.000000
-8.415300 0.000000
-8.365700 0.000000
-8.316100 0.000000
-8.266400 0.000000
-8.216800 0.000000
-8.167200 0.000000
-8.117600 0.000000
-8.067900 0.000000
-8.018300 0.000000
-7.968700 0.000000
-7.919100 0.000000
-7.869500 0.000000
-7.819800 0.000000
-7.770200 0.000000
-7.720600 0.000000
-7.671000 0.000000
-7.621400 0.000000
-7.571700 0.000000
-7.522100 0.000000
-7.472500 0.000000
-7.422900 0.000000
-7.373200 0.000000
-7.323600 0.000000
-7.274000 0.000000
-7.224400 0.000000
-7.174800 0.000000
-7.125100 0.000000
-7.075500 0.000000
-7.025900 0.000000
-6.976300 0.000000
-6.926600 0.000000
-6.877000 0.000000
-6.827400 0.000000
-6.777800 0.000000
-6.728200 0.000000
-6.678500 0.000000
-6.628900 0.000000
-6.579300 0.000000
-6.529700 0.000000
-6.480100 0.000000
-6.430400 0.000000
-6.380800 0.000000
-6.331200 0.000000
-6.281600 0.000000
-6.231900 0.000000
-6.182300 0.000000
-6.132700 0.000000
-6.083100 0.000000
-6.033500 0.000000
-5.983800 0.000000
-5.934200 0.000000
-5.884600 0.000000
-5.835000 0.000000
-5.785300 0.000000
-5.735700 0.000000
-5.686100 0.000000
-5.636500 0.000000
-5.586900 0.000000
-5.537200 0.000000
-5.487600 0.000000
-5.438000 0.000000
-5.388400 0.000000
-5.338800 0.000000
-5.289100 0.000000
-5.239500 0.000000
-5.189900 0.000000
-5.140300 0.000000
-5.090600 0.000000
-5.041000 0.000000
-4.991400 0.000000
-4.941800 0.000000
-4.892200 0.000000
-4.842500 0.000000
-4.792900 0.000000
-4.743300 0.000000
-4.693700 0.000000
-4.644000 0.000000
-4.594400 0.000000
-4.544800 0.000000
-4.495200 0.000000
-4.445600 0.000000
-4.395900 0.000000
-4.346300 0.000000
-4.296700 0.000000
-4.247100 0.000000
-4.197500 0.000000
-4.147800 0.000000
-4.098200 0.000000
-4.048600 0.000000
-3.999000 0.000000
-3.949300 0.000000
-3.899700 0.000000
-3.850100 0.000000
-3.800500 0.000000
-3.750900 0.000000
-3.701200 0.000000
-3.651600 0.000000
-3.602000 0.000000
-3.552400 0.000000
-3.502800 0.000000
-3.453100 0.000000
-3.403500 0.000000
-3.353900 0.000000
-3.304300 0.000000
-3.254600 0.000000
-3.205000 0.000000
-3.155400 0.000000
-3.105800 0.000000
-3.056200 0.000000
-3.006500 0.000000
-2.956900 0.000000
-2.907300 0.000000
-2.857700 0.000000
-2.808000 0.000000
-2.758400 0.000000
-2.708800 0.000000
-2.659200 0.000000
-2.609600 0.000000
-2.559900 0.000000
-2.510300 0.000000
-2.460700 0.000000
-2.411100 0.000000
-2.361500 0.000000
-2.311800 0.000000
-2.262200 0.000000
-2.212600 0.000000
-2.163000 0.000000
-2.113300 0.000000
-2.063700 0.000000
-2.014100 0.000000
-1.964500 0.000000
-1.914900 0.000000
-1.865200 0.000000
-1.815600 0.000000
-1.766000 0.000000
-1.716400 0.000000
-1.666700 0.000000
-1.617100 0.000000
-1.567500 0.000000
-1.517900 0.000000
-1.468300 0.000000
-1.418600 0.000000
-1.369000 0.000000
-1.319400 0.000000
-1.269800 0.000000
-1.220200 0.000000
-1.170500 0.000000
-1.120900 0.000000
-1.071300 0.000000
-1.021700 0.001200
-0.972000 0.021900
-0.922400 0.065600
-0.872800 0.084900
-0.823200 0.090300
-0.773600 0.107500
-0.723900 0.125600
-0.674300 0.143400
-0.624700 0.155900
-0.575100 0.164900
-0.525400 0.175900
-0.475800 0.189100
-0.426200 0.202800
-0.376600 0.216800
-0.327000 0.231000
-0.277300 0.245300
-0.227700 0.258300
-0.178100 0.271600
-0.128500 0.285700
-0.078900 0.300200
-0.029200 0.315700
0.020400 0.333100
0.070000 0.351700
0.119600 0.370800
0.169300 0.390400
0.218900 0.410400
0.268500 0.431100
0.318100 0.455000
0.367700 0.483400
0.417400 0.515100
0.467000 0.550800
0.516600 0.590900
0.566200 0.634500
0.615900 0.679300
0.665500 0.754300
0.715100 0.911100
0.764700 1.035900
0.814300 1.101400
0.864000 1.128000
0.913600 1.491900
0.963200 1.612500
1.012800 1.925600
1.062400 2.449400
1.112100 2.999100
1.161700 3.488800
1.211300 2.532100
1.260900 2.047400
1.310600 1.492800
1.360200 1.219000
1.409800 0.808400
1.459400 0.713700
1.509000 0.662900
1.558700 0.656700
1.608300 0.696900
1.657900 0.776700
1.707500 0.868900
1.757200 0.990000
1.806800 1.228600
1.856400 1.889600
1.906000 2.257700
1.955600 3.597200
2.005300 5.752000
2.054900 5.898600
2.104500 3.865300
2.154100 3.122200
2.203700 2.374200
2.253400 1.932100
2.303000 1.694100
2.352600 1.716700
2.402200 1.776700
2.451900 1.911100
2.501500 2.222200
2.551100 2.748000
2.600700 1.749400
2.650300 1.886900
2.700000 1.314400
2.749600 1.283800
2.799200 1.310200
2.848800 1.338300
2.898400 1.531000
2.948100 1.631200
2.997700 1.829200
3.047300 1.815900
3.096900 1.827200
3.146600 1.838200
3.196200 1.922900
3.245800 2.165200
3.295400 2.131100
3.345000 2.009000
3.394700 2.192800
3.444300 1.803900
3.493900 1.500000
3.543500 1.557400
3.593200 1.654700
3.642800 1.785200
3.692400 1.957600
3.742000 1.731500
3.791600 1.769800
3.841300 1.903400
3.890900 2.103800
3.940500 2.263000
3.990100 2.418800
4.039700 2.647500
4.089400 3.025200
4.139000 2.726500
4.188600 2.125000
4.238200 2.017500
4.287900 2.346000
4.337500 2.747200
4.387100 2.890200
4.436700 3.347900
4.486300 3.828800
4.536000 3.157000
4.585600 2.734300
4.635200 2.388200
4.684800 2.657200
4.734500 2.377000
4.784100 2.051800
4.833700 1.913000
4.883300 1.808600
4.932900 1.874700
4.982600 2.139300
5.032200 2.187900
5.081800 2.043100
5.131400 1.816600
5.181000 1.774100
5.230700 1.748300
5.280300 1.708400
5.329900 1.668800
5.379500 1.556400
5.429200 1.542600
5.478800 1.381300
5.528400 1.271400
5.578000 1.219600
5.627600 1.159200
5.677300 1.195400
5.726900 1.281700
5.776500 1.340500
5.826100 1.375100
5.875800 1.403200
5.925400 1.367200
5.975000 1.334200
6.024600 1.317400
6.074200 1.249700
6.123900 1.243300
6.173500 1.217200
6.223100 1.163200
6.272700 1.075800
6.322300 1.057900
6.372000 1.057900
6.421600 1.177900
6.471200 0.904100
6.520800 0.896000
6.570500 0.869900
6.620100 0.869800
6.669700 0.858700
6.719300 0.859500
6.768900 0.889200
6.818600 1.038200
6.868200 1.039700
6.917800 1.072600
6.967400 1.131200
7.017100 1.140100
7.066700 1.038500
7.116300 0.752600
7.165900 0.530100
7.215500 0.383800
7.265200 0.480000
7.314800 0.662800
7.364400 0.788800
7.414000 0.956100
7.463600 1.108500
7.513300 1.285500
7.562900 1.396200
7.612500 1.442100
7.662100 1.476700
7.711800 1.433800
7.761400 1.434600
7.811000 1.474500
7.860600 1.523900
7.910200 1.627400
7.959900 1.714000
8.009500 1.766900
8.059100 1.790200
8.108700 1.782100
8.158300 1.754900
8.208000 1.733600
8.257600 1.680900
8.307200 1.854200
8.356800 1.220300
8.406500 1.067400
8.456100 1.042100
8.505700 1.024500
8.555300 1.009800
8.604900 0.977400
8.654600 1.149400
8.704200 1.359500
8.753800 1.483900
8.803400 1.750100
8.853100 2.104600
8.902700 2.208300
8.952300 2.305700
9.001900 2.397500
9.051500 2.607700
9.101200 2.685200
9.150800 2.391800
9.200400 2.182700
9.250000 2.057500
9.299600 1.952300
9.349300 1.733200
9.398900 1.523000
9.448500 1.188100
9.498100 1.211600
9.547800 1.317000
9.597400 1.364800
9.647000 1.349600
9.696600 0.892600
9.746200 0.790900
9.795900 1.015700
9.845500 0.859800
9.895100 0.794300
9.944700 0.816100
9.994400 1.013600
10.044000 1.298700
10.093600 1.534400
10.143200 1.791800
10.192800 2.060700
10.242500 2.166700
10.292100 2.200200
10.341700 2.219600
10.391300 2.397000
10.440900 2.479000
10.490600 2.431600
10.540200 2.319400
10.589800 2.169900
10.639400 2.074300
10.689100 1.987200
10.738700 1.843300
10.788300 1.673900
10.837900 1.631900
10.887500 1.722400
10.937200 1.931800
10.986800 2.050200
11.036400 2.381400
11.086000 2.456000
11.135700 2.345900
11.185300 2.220200
11.234900 2.123000
11.284500 1.988600
11.334100 1.951200
11.383800 1.889100
11.433400 1.863000
11.483000 1.816700
11.532600 1.753700
11.582200 1.675300
11.631900 1.782400
11.681500 1.821800
11.731100 1.755800
11.780700 1.754700
11.830400 1.751000
11.880000 1.757700
11.929600 1.709100
11.979200 1.557600
12.028800 1.548300
12.078500 1.419800
12.128100 1.457200
12.177700 1.495700
12.227300 1.521700
12.277000 1.576700
12.326600 1.680700
12.376200 1.773500
12.425800 1.843400
12.475400 1.837700
12.525100 1.731300
12.574700 1.723400
12.624300 1.629200
12.673900 1.600100
12.723500 1.567800
12.773200 1.546900
12.822800 1.546900
12.872400 1.539400
12.922000 1.533000
12.971700 1.414100
13.021300 1.365000
13.070900 1.325700
13.120500 1.341500
13.170100 1.481600
13.219800 1.552100
13.269400 1.470900
13.319000 1.558400
13.368600 1.819200
13.418300 1.896200
13.467900 1.927200
13.517500 1.937500
13.567100 1.924000
13.616700 1.905500
13.666400 1.847700
13.716000 1.783500
13.765600 1.772900
13.815200 1.805300
13.864800 1.769900
13.914500 1.731000
13.964100 1.733700
14.013700 1.716600
14.063300 1.687200
14.113000 1.658800
14.162600 1.582100
14.212200 1.542700
14.261800 1.562700
14.311400 1.603800
14.361100 1.614600
14.410700 1.722600
14.460300 1.836200
14.509900 1.942400
14.559500 2.076600
14.609200 2.078500
14.658800 1.976300
14.708400 1.819500
14.758000 1.935000
14.807700 2.032800
14.857300 2.250500
14.906900 2.543200
14.956500 2.440400
15.006100 1.873900
15.055800 1.595000
15.105400 1.472900
15.155000 1.354100
15.204600 1.276200
15.254300 1.283500
15.303900 1.376700
15.353500 1.422900
15.403100 1.448900
15.452700 1.547800
15.502400 1.723200
15.552000 1.923300
15.601600 2.045400
15.651200 2.104900
15.700800 2.075000
15.750500 1.933800
15.800100 1.842500
15.849700 1.779300
15.899300 1.763800
15.949000 1.765900
15.998600 1.802300
16.048200 1.871900
16.097800 1.993500
16.147400 2.061000
16.197100 2.086000
16.246700 2.042200
16.296300 2.122800
16.345900 2.289300
16.395600 2.401700
16.445200 2.476300
16.494800 2.491200
16.544400 2.514300
16.594000 2.579500
16.643700 2.383500
16.693300 2.469900
16.742900 2.689200
16.792500 2.880000
16.842100 2.684800
16.891800 2.752400
16.941400 2.832300
16.991000 2.840000
17.040600 2.616200
17.090300 2.047000
17.139900 1.826900
17.189500 1.729200
17.239100 1.628800
17.288700 1.537900
17.338400 1.582400
17.388000 1.422000
17.437600 1.416000
17.487200 1.586600
17.536900 1.445400
17.586500 1.545000
17.636100 1.707600
17.685700 1.920800
17.735300 2.151800
17.785000 2.436900
17.834600 2.599800
17.884200 2.666400
17.933800 2.629100
17.983400 2.477200
18.033100 2.338300
18.082700 2.245900
18.132300 2.224000
18.181900 2.144100
18.231600 2.073800
18.281200 2.024900
18.330800 1.930100
18.380400 2.029700
18.430000 2.115100
18.479700 2.129200
18.529300 2.254000
18.578900 2.388900
18.628500 2.430900
18.678200 2.315300
18.727800 2.222700
18.777400 2.175400
18.827000 2.146800
18.876600 2.152800
18.926300 2.091800
