set title 'mp-94 - Density of States'
set xlabel 'Energy (eV)'
set ylabel 'DOS (states/eV)'
set grid
set xrange [-10:10]
set yrange [0:29.806]
set xzeroaxis lt -1
set terminal png size 800,600
set output 'mp-94_dos_gnuplot.png'
plot '-' using 1:2 with lines title 'DOS'
-8.703300 0.000000
-8.688500 0.000000
-8.673800 0.000000
-8.659100 0.000000
-8.644300 0.000000
-8.629600 0.000000
-8.614900 0.000000
-8.600200 0.000000
-8.585400 0.000000
-8.570700 0.000000
-8.556000 0.000000
-8.541300 0.000000
-8.526500 0.000000
-8.511800 0.000000
-8.497100 0.000000
-8.482300 0.000000
-8.467600 0.000000
-8.452900 0.000000
-8.438200 0.000000
-8.423400 0.000000
-8.408700 0.000000
-8.394000 0.000000
-8.379200 0.000000
-8.364500 0.000000
-8.349800 0.000000
-8.335100 0.000000
-8.320300 0.000000
-8.305600 0.000000
-8.290900 0.000000
-8.276100 0.000000
-8.261400 0.000000
-8.246700 0.000000
-8.232000 0.000000
-8.217200 0.000000
-8.202500 0.000000
-8.187800 0.000000
-8.173100 0.000000
-8.158300 0.000000
-8.143600 0.000000
-8.128900 0.000000
-8.114100 0.000000
-8.099400 0.000000
-8.084700 0.000000
-8.070000 0.000000
-8.055200 0.000000
-8.040500 0.000000
-8.025800 0.000000
-8.011000 0.000000
-7.996300 0.000000
-7.981600 0.000000
-7.966900 0.000000
-7.952100 0.000000
-7.937400 0.000000
-7.922700 0.000000
-7.907900 0.000000
-7.893200 0.000000
-7.878500 0.000000
-7.863800 0.000000
-7.849000 0.000000
-7.834300 0.000000
-7.819600 0.000000
-7.804900 0.000000
-7.790100 0.000000
-7.775400 0.000000
-7.760700 0.000000
-7.745900 0.000000
-7.731200 0.000000
-7.716500 0.000000
-7.701800 0.000000
-7.687000 0.000000
-7.672300 0.000000
-7.657600 0.000000
-7.642800 0.000000
-7.628100 0.000000
-7.613400 0.000000
-7.598700 0.000000
-7.583900 0.000000
-7.569200 0.000000
-7.554500 0.000000
-7.539800 0.000000
-7.525000 0.000000
-7.510300 0.000000
-7.495600 0.000000
-7.480800 0.000000
-7.466100 0.000000
-7.451400 0.000000
-7.436700 0.000000
-7.421900 0.000000
-7.407200 0.000000
-7.392500 0.000000
-7.377700 0.000000
-7.363000 0.102300
-7.348300 0.910200
-7.333600 1.468800
-7.318800 1.775300
-7.304100 2.175400
-7.289400 2.631100
-7.274600 2.986200
-7.259900 3.408900
-7.245200 3.927700
-7.230500 4.519200
-7.215700 5.418800
-7.201000 5.967500
-7.186300 5.985800
-7.171600 6.288600
-7.156800 6.533200
-7.142100 6.759800
-7.127400 6.900900
-7.112600 7.221900
-7.097900 7.545800
-7.083200 7.954900
-7.068500 8.505000
-7.053700 9.419100
-7.039000 10.339700
-7.024300 10.097000
-7.009500 12.071900
-6.994800 14.004100
-6.980100 14.426200
-6.965400 15.136300
-6.950600 15.459100
-6.935900 16.949100
-6.921200 17.550600
-6.906400 17.477500
-6.891700 18.770900
-6.877000 19.016600
-6.862300 17.600200
-6.847500 12.374100
-6.832800 10.033100
-6.818100 10.470600
-6.803400 10.739600
-6.788600 13.464100
-6.773900 15.976000
-6.759200 16.472800
-6.744400 18.492000
-6.729700 20.147700
-6.715000 16.984400
-6.700300 15.653300
-6.685500 15.709300
-6.670800 13.802700
-6.656100 11.863400
-6.641300 10.954900
-6.626600 10.376500
-6.611900 8.110200
-6.597200 7.904700
-6.582400 9.363000
-6.567700 9.065400
-6.553000 8.596800
-6.538200 8.676100
-6.523500 8.873000
-6.508800 9.548000
-6.494100 12.009000
-6.479300 13.518000
-6.464600 12.185500
-6.449900 16.011200
-6.435200 14.989100
-6.420400 14.693900
-6.405700 14.367700
-6.391000 15.141600
-6.376200 14.344700
-6.361500 15.224000
-6.346800 16.107300
-6.332100 18.184800
-6.317300 19.871300
-6.302600 21.861000
-6.287900 27.096800
-6.273100 25.895400
-6.258400 20.826300
-6.243700 18.462700
-6.229000 17.069600
-6.214200 17.780600
-6.199500 19.070000
-6.184800 19.257800
-6.170000 19.024400
-6.155300 19.268700
-6.140600 19.476800
-6.125900 19.802900
-6.111100 17.646300
-6.096400 19.866100
-6.081700 19.069300
-6.067000 18.888800
-6.052200 18.969400
-6.037500 18.208200
-6.022800 19.059600
-6.008000 15.844200
-5.993300 10.266900
-5.978600 9.223300
-5.963900 7.603000
-5.949100 7.758400
-5.934400 7.892000
-5.919700 8.709300
-5.904900 8.390100
-5.890200 8.531800
-5.875500 9.191200
-5.860800 9.893900
-5.846000 11.841100
-5.831300 8.231400
-5.816600 6.221100
-5.801800 5.674400
-5.787100 5.020200
-5.772400 4.653300
-5.757700 4.334000
-5.742900 4.239200
-5.728200 4.143500
-5.713500 3.782000
-5.698800 1.766300
-5.684000 0.115800
-5.669300 0.118800
-5.654600 0.120000
-5.639800 0.120900
-5.625100 0.123600
-5.610400 0.127600
-5.595700 0.131800
-5.580900 0.135900
-5.566200 0.140000
-5.551500 0.144200
-5.536700 0.148300
-5.522000 0.152400
-5.507300 0.156800
-5.492600 0.159800
-5.477800 0.162200
-5.463100 0.164300
-5.448400 0.166300
-5.433600 0.168400
-5.418900 0.170000
-5.404200 0.172000
-5.389500 0.174100
-5.374700 0.176200
-5.360000 0.178400
-5.345300 0.180800
-5.330600 0.183200
-5.315800 0.185600
-5.301100 0.188100
-5.286400 0.190800
-5.271600 0.193500
-5.256900 0.196400
-5.242200 0.199300
-5.227500 0.202300
-5.212700 0.205400
-5.198000 0.208000
-5.183300 0.210100
-5.168500 0.211700
-5.153800 0.212900
-5.139100 0.214200
-5.124400 0.215500
-5.109600 0.216900
-5.094900 0.218500
-5.080200 0.220200
-5.065500 0.221800
-5.050700 0.223500
-5.036000 0.225100
-5.021300 0.226700
-5.006500 0.228300
-4.991800 0.230000
-4.977100 0.231900
-4.962400 0.233800
-4.947600 0.235800
-4.932900 0.237900
-4.918200 0.240000
-4.903400 0.242100
-4.888700 0.244200
-4.874000 0.246300
-4.859300 0.248400
-4.844500 0.250500
-4.829800 0.252700
-4.815100 0.254900
-4.800300 0.257000
-4.785600 0.258500
-4.770900 0.268200
-4.756200 0.278900
-4.741400 0.289100
-4.726700 0.298500
-4.712000 0.280500
-4.697300 0.281300
-4.682500 0.281900
-4.667800 0.282600
-4.653100 0.283300
-4.638300 0.283900
-4.623600 0.284500
-4.608900 0.285100
-4.594200 0.283800
-4.579400 0.282600
-4.564700 0.281400
-4.550000 0.280500
-4.535200 0.280800
-4.520500 0.281100
-4.505800 0.281400
-4.491100 0.281700
-4.476300 0.281900
-4.461600 0.282200
-4.446900 0.282400
-4.432100 0.282700
-4.417400 0.283000
-4.402700 0.283200
-4.388000 0.283500
-4.373200 0.281500
-4.358500 0.281500
-4.343800 0.281600
-4.329100 0.281700
-4.314300 0.281800
-4.299600 0.289800
-4.284900 0.300900
-4.270100 0.312300
-4.255400 0.324300
-4.240700 0.308500
-4.226000 0.310400
-4.211200 0.312500
-4.196500 0.314600
-4.181800 0.316700
-4.167000 0.318900
-4.152300 0.321100
-4.137600 0.323300
-4.122900 0.323900
-4.108100 0.324100
-4.093400 0.323800
-4.078700 0.323400
-4.063900 0.324300
-4.049200 0.325300
-4.034500 0.327000
-4.019800 0.328600
-4.005000 0.330300
-3.990300 0.332100
-3.975600 0.333800
-3.960900 0.335600
-3.946100 0.337400
-3.931400 0.339200
-3.916700 0.341100
-3.901900 0.340600
-3.887200 0.342000
-3.872500 0.343400
-3.857800 0.344900
-3.843000 0.346300
-3.828300 0.347800
-3.813600 0.349200
-3.798800 0.350700
-3.784100 0.352300
-3.769400 0.354000
-3.754700 0.355700
-3.739900 0.357400
-3.725200 0.359100
-3.710500 0.360600
-3.695700 0.361100
-3.681000 0.362500
-3.666300 0.363700
-3.651600 0.364800
-3.636800 0.366000
-3.622100 0.366800
-3.607400 0.367400
-3.592700 0.367900
-3.577900 0.368500
-3.563200 0.369600
-3.548500 0.370700
-3.533700 0.371900
-3.519000 0.373000
-3.504300 0.374200
-3.489600 0.375500
-3.474800 0.376700
-3.460100 0.377900
-3.445400 0.379100
-3.430600 0.380400
-3.415900 0.381600
-3.401200 0.382900
-3.386500 0.384200
-3.371700 0.385500
-3.357000 0.386800
-3.342300 0.388200
-3.327500 0.389600
-3.312800 0.391000
-3.298100 0.392400
-3.283400 0.393800
-3.268600 0.395200
-3.253900 0.396700
-3.239200 0.397100
-3.224500 0.397900
-3.209700 0.398800
-3.195000 0.399700
-3.180300 0.400900
-3.165500 0.402000
-3.150800 0.403200
-3.136100 0.404400
-3.121400 0.405700
-3.106600 0.407000
-3.091900 0.408300
-3.077200 0.409500
-3.062400 0.410700
-3.047700 0.411900
-3.033000 0.413200
-3.018300 0.414500
-3.003500 0.415900
-2.988800 0.417200
-2.974100 0.418500
-2.959400 0.419600
-2.944600 0.420600
-2.929900 0.421700
-2.915200 0.422700
-2.900400 0.423900
-2.885700 0.425100
-2.871000 0.426300
-2.856300 0.427400
-2.841500 0.428600
-2.826800 0.429800
-2.812100 0.430900
-2.797300 0.432100
-2.782600 0.433200
-2.767900 0.434000
-2.753200 0.434900
-2.738400 0.435700
-2.723700 0.436700
-2.709000 0.437800
-2.694200 0.438900
-2.679500 0.439900
-2.664800 0.441000
-2.650100 0.441600
-2.635300 0.442600
-2.620600 0.443600
-2.605900 0.444700
-2.591200 0.445700
-2.576400 0.446800
-2.561700 0.447900
-2.547000 0.449000
-2.532200 0.450200
-2.517500 0.451400
-2.502800 0.452700
-2.488100 0.453900
-2.473300 0.455100
-2.458600 0.456400
-2.443900 0.457600
-2.429100 0.458900
-2.414400 0.460100
-2.399700 0.461400
-2.385000 0.462600
-2.370200 0.463800
-2.355500 0.465000
-2.340800 0.466300
-2.326000 0.467500
-2.311300 0.468800
-2.296600 0.470100
-2.281900 0.471300
-2.267100 0.472600
-2.252400 0.473900
-2.237700 0.475200
-2.223000 0.476500
-2.208200 0.477400
-2.193500 0.478600
-2.178800 0.479700
-2.164000 0.480600
-2.149300 0.481600
-2.134600 0.482600
-2.119900 0.483600
-2.105100 0.484500
-2.090400 0.485500
-2.075700 0.486600
-2.060900 0.487600
-2.046200 0.488600
-2.031500 0.489700
-2.016800 0.490700
-2.002000 0.491800
-1.987300 0.492700
-1.972600 0.493600
-1.957800 0.494600
-1.943100 0.495600
-1.928400 0.496700
-1.913700 0.497800
-1.898900 0.498800
-1.884200 0.500000
-1.869500 0.501100
-1.854800 0.502200
-1.840000 0.503400
-1.825300 0.504500
-1.810600 0.505700
-1.795800 0.506900
-1.781100 0.508100
-1.766400 0.509300
-1.751700 0.510500
-1.736900 0.511800
-1.722200 0.513000
-1.707500 0.514300
-1.692700 0.515500
-1.678000 0.516800
-1.663300 0.518100
-1.648600 0.519400
-1.633800 0.520700
-1.619100 0.522200
-1.604400 0.523900
-1.589600 0.525600
-1.574900 0.527300
-1.560200 0.529000
-1.545500 0.530500
-1.530700 0.532000
-1.516000 0.533500
-1.501300 0.535200
-1.486600 0.536900
-1.471800 0.538700
-1.457100 0.540400
-1.442400 0.542100
-1.427600 0.543900
-1.412900 0.545600
-1.398200 0.547400
-1.383500 0.549200
-1.368700 0.551000
-1.354000 0.552800
-1.339300 0.554600
-1.324500 0.556500
-1.309800 0.558300
-1.295100 0.560100
-1.280400 0.561800
-1.265600 0.563500
-1.250900 0.565300
-1.236200 0.567000
-1.221400 0.568600
-1.206700 0.570400
-1.192000 0.572100
-1.177300 0.573900
-1.162500 0.575700
-1.147800 0.577500
-1.133100 0.579300
-1.118400 0.581200
-1.103600 0.583100
-1.088900 0.585000
-1.074200 0.587000
-1.059400 0.589000
-1.044700 0.591000
-1.030000 0.592500
-1.015300 0.592400
-1.000500 0.592000
-0.985800 0.592200
-0.971100 0.592200
-0.956300 0.592100
-0.941600 0.591900
-0.926900 0.591700
-0.912200 0.591600
-0.897400 0.591600
-0.882700 0.591700
-0.868000 0.591700
-0.853200 0.591700
-0.838500 0.591600
-0.823800 0.591500
-0.809100 0.591400
-0.794300 0.591200
-0.779600 0.590800
-0.764900 0.590700
-0.750200 0.590600
-0.735400 0.590500
-0.720700 0.590300
-0.706000 0.590300
-0.691200 0.590200
-0.676500 0.590100
-0.661800 0.590100
-0.647100 0.590000
-0.632300 0.589900
-0.617600 0.589800
-0.602900 0.589700
-0.588100 0.589600
-0.573400 0.589500
-0.558700 0.589400
-0.544000 0.589400
-0.529200 0.589300
-0.514500 0.589300
-0.499800 0.589200
-0.485100 0.589100
-0.470300 0.589100
-0.455600 0.589100
-0.440900 0.589100
-0.426100 0.589100
-0.411400 0.589200
-0.396700 0.589200
-0.382000 0.589300
-0.367200 0.589300
-0.352500 0.589400
-0.337800 0.589700
-0.323000 0.590400
-0.308300 0.591700
-0.293600 0.593100
-0.278900 0.594000
-0.264100 0.594800
-0.249400 0.595700
-0.234700 0.596600
-0.219900 0.597600
-0.205200 0.598600
-0.190500 0.599600
-0.175800 0.600700
-0.161000 0.601800
-0.146300 0.602900
-0.131600 0.604100
-0.116900 0.605200
-0.102100 0.606400
-0.087400 0.607500
-0.072700 0.608600
-0.057900 0.609600
-0.043200 0.610700
-0.028500 0.611800
-0.013800 0.613000
0.001000 0.614200
0.015700 0.615300
0.030400 0.616500
0.045200 0.619200
0.059900 0.624700
0.074600 0.629600
0.089300 0.631800
0.104100 0.634000
0.118800 0.636100
0.133500 0.638200
0.148300 0.640200
0.163000 0.642100
0.177700 0.643900
0.192400 0.645100
0.207200 0.646300
0.221900 0.647400
0.236600 0.648500
0.251300 0.649500
0.266100 0.659300
0.280800 0.669900
0.295500 0.675700
0.310300 0.677900
0.325000 0.679600
0.339700 0.680900
0.354400 0.681600
0.369200 0.682000
0.383900 0.682200
0.398600 0.681100
0.413400 0.679400
0.428100 0.677600
0.442800 0.675500
0.457500 0.673300
0.472300 0.670800
0.487000 0.668100
0.501700 0.665300
0.516500 0.662200
0.531200 0.659000
0.545900 0.656300
0.560600 0.654000
0.575400 0.651800
0.590100 0.649800
0.604800 0.648100
0.619500 0.646400
0.634300 0.645000
0.649000 0.643600
0.663700 0.642400
0.678500 0.641300
0.693200 0.640200
0.707900 0.639100
0.722600 0.638100
0.737400 0.637200
0.752100 0.636400
0.766800 0.635600
0.781600 0.635000
0.796300 0.634600
0.811000 0.634200
0.825700 0.633600
0.840500 0.638600
0.855200 0.649600
0.869900 0.661400
0.884700 0.667300
0.899400 0.666400
0.914100 0.665100
0.928800 0.663600
0.943600 0.662400
0.958300 0.661200
0.973000 0.659700
0.987700 0.657500
1.002500 0.654100
1.017200 0.652300
1.031900 0.652500
1.046700 0.654000
1.061400 0.656500
1.076100 0.675300
1.090800 0.673400
1.105600 0.672400
1.120300 0.688700
1.135000 0.692500
1.149800 0.697900
1.164500 0.704700
1.179200 0.712300
1.193900 0.721400
1.208700 0.731100
1.223400 0.741200
1.238100 0.749300
1.252900 0.755700
1.267600 0.760400
1.282300 0.764500
1.297000 0.772200
1.311800 0.779500
1.326500 0.779200
1.341200 0.777900
1.355900 0.780300
1.370700 0.754500
1.385400 0.750100
1.400100 0.742800
1.414900 0.739500
1.429600 0.742200
1.444300 0.745400
1.459000 0.749300
1.473800 0.754300
1.488500 0.761300
1.503200 0.770600
1.518000 0.768500
1.532700 0.765400
1.547400 0.771800
1.562100 0.780000
1.576900 0.789800
1.591600 0.800700
1.606300 0.793000
1.621000 0.776300
1.635800 0.731200
1.650500 0.690300
1.665200 0.683400
1.680000 0.676900
1.694700 0.670900
1.709400 0.871400
1.724100 0.647800
1.738900 0.657900
1.753600 0.670800
1.768300 0.678200
1.783100 0.674000
1.797800 0.668700
1.812500 0.662300
1.827200 0.654900
1.842000 0.646700
1.856700 0.640800
1.871400 0.638100
1.886200 0.635900
1.900900 0.632900
1.915600 0.631100
1.930300 0.630400
1.945100 0.630900
1.959800 0.638700
1.974500 0.645300
1.989200 0.646600
2.004000 0.649400
2.018700 0.653000
2.033400 0.657400
2.048200 0.657200
2.062900 0.650400
2.077600 0.637000
2.092300 0.632000
2.107100 0.629400
2.121800 0.626000
2.136500 0.621600
2.151300 0.616000
2.166000 0.609000
2.180700 0.605700
2.195400 0.600300
2.210200 0.594900
2.224900 0.589500
2.239600 0.584000
2.254400 0.578600
2.269100 0.573900
2.283800 0.568400
2.298500 0.554900
2.313300 0.545700
2.328000 0.536400
2.342700 0.529500
2.357400 0.527800
2.372200 0.539700
2.386900 0.538100
2.401600 0.522200
2.416400 0.503400
2.431100 0.492600
2.445800 0.482700
2.460500 0.473700
2.475300 0.465700
2.490000 0.458000
2.504700 0.450600
2.519500 0.443500
2.534200 0.436600
2.548900 0.429900
2.563600 0.423500
2.578400 0.417400
2.593100 0.411900
2.607800 0.425800
2.622600 0.462400
2.637300 0.487900
2.652000 0.458800
2.666700 0.471500
2.681500 0.482600
2.696200 0.460600
2.710900 0.468800
2.725600 0.477900
2.740400 0.495600
2.755100 0.515300
2.769800 0.537300
2.784600 0.561200
2.799300 0.586000
2.814000 0.635700
2.828700 0.633900
2.843500 0.630700
2.858200 0.636600
2.872900 0.653600
2.887700 0.671600
2.902400 0.690400
2.917100 0.685600
2.931800 0.677900
2.946600 0.675300
2.961300 0.672500
2.976000 0.678600
2.990800 0.686700
3.005500 0.696700
3.020200 0.707600
3.034900 0.719100
3.049700 0.732200
3.064400 0.746500
3.079100 0.764900
3.093800 0.785500
3.108600 0.820800
3.123300 0.842200
3.138000 0.851600
3.152800 0.849200
3.167500 0.840500
3.182200 0.831700
3.196900 0.831200
3.211700 0.829700
3.226400 0.830500
3.241100 0.836000
3.255900 0.840400
3.270600 0.841300
3.285300 0.839800
3.300000 0.837800
3.314800 0.835000
3.329500 0.825100
3.344200 0.806800
3.359000 0.787700
3.373700 0.783600
3.388400 0.783100
3.403100 0.783300
3.417900 0.785600
3.432600 0.789800
3.447300 0.794500
3.462000 0.799500
3.476800 0.804800
3.491500 0.810500
3.506200 0.816900
3.521000 0.824100
3.535700 0.804000
3.550400 0.807500
3.565100 0.811600
3.579900 0.816400
3.594600 0.827300
3.609300 0.843200
3.624100 0.856600
3.638800 0.869000
3.653500 0.880900
3.668200 0.893000
3.683000 0.904100
3.697700 0.916500
3.712400 0.931600
3.727200 0.947300
3.741900 0.956600
3.756600 0.959200
3.771300 0.958400
3.786100 0.954500
3.800800 0.948200
3.815500 0.941100
3.830200 0.934200
3.845000 0.928400
3.859700 0.923000
3.874400 0.917200
3.889200 0.910700
3.903900 0.925700
3.918600 0.916300
3.933300 0.907800
3.948100 0.899900
3.962800 0.892500
3.977500 0.885700
3.992300 0.879500
4.007000 0.874200
4.021700 0.868900
4.036400 0.864100
4.051200 0.859800
4.065900 0.852800
4.080600 0.844700
4.095300 0.837600
4.110100 0.831300
4.124800 0.831700
4.139500 0.854000
4.154300 0.879800
4.169000 0.930000
4.183700 0.932600
4.198400 0.929900
4.213200 0.922300
4.227900 0.909900
4.242600 0.901200
4.257400 0.893200
4.272100 0.884200
4.286800 0.878600
4.301500 0.848300
4.316300 0.846500
4.331000 0.846600
4.345700 0.848400
4.360500 0.851100
4.375200 0.855800
4.389900 0.861100
4.404600 0.865900
4.419400 0.944700
4.434100 0.938000
4.448800 0.878400
4.463500 0.859900
4.478300 0.851700
4.493000 0.853600
4.507700 0.859000
4.522500 0.864600
4.537200 0.870000
4.551900 0.875200
4.566600 0.880200
4.581400 0.885100
4.596100 0.888800
4.610800 0.886200
4.625600 0.886600
4.640300 0.889500
4.655000 0.891800
4.669700 0.893300
4.684500 0.894200
4.699200 0.893800
4.713900 0.901900
4.728700 0.913000
4.743400 0.925300
4.758100 0.914800
4.772800 0.919300
4.787600 0.929100
4.802300 0.938300
4.817000 0.945600
4.831700 0.952500
4.846500 0.959600
4.861200 0.966800
4.875900 0.973300
4.890700 0.977700
4.905400 0.979400
4.920100 0.981100
4.934800 0.984100
4.949600 0.988200
4.964300 0.992600
4.979000 0.997300
4.993800 1.002100
5.008500 1.006900
5.023200 1.012000
5.037900 1.019000
5.052700 1.025700
5.067400 1.029200
5.082100 1.023800
5.096900 1.016000
5.111600 1.014000
5.126300 1.009900
5.141000 1.004900
5.155800 0.997600
5.170500 0.988700
5.185200 0.978200
5.199900 0.967200
5.214700 0.960600
5.229400 0.954600
5.244100 0.949000
5.258900 0.953300
5.273600 0.953900
5.288300 0.956000
5.303000 0.959700
5.317800 0.964800
5.332500 0.971000
5.347200 0.977400
5.362000 0.979300
5.376700 0.984200
5.391400 0.988200
5.406100 0.993400
5.420900 1.003800
5.435600 1.000800
5.450300 0.990500
5.465100 0.978000
5.479800 0.962900
5.494500 0.945200
5.509200 0.924800
5.524000 0.908700
5.538700 0.893600
5.553400 0.882400
5.568100 0.874100
5.582900 0.869200
5.597600 0.873100
5.612300 0.870900
5.627100 0.868500
5.641800 0.867600
5.656500 0.867900
5.671200 0.869000
5.686000 0.866000
5.700700 0.862500
5.715400 0.858600
5.730200 0.854000
5.744900 0.844900
5.759600 0.838600
5.774300 0.830100
5.789100 0.822400
5.803800 0.814600
5.818500 0.806300
5.833300 0.798400
5.848000 0.790300
5.862700 0.782800
5.877400 0.776100
5.892200 0.769800
5.906900 0.764300
5.921600 0.759900
5.936300 0.757100
5.951100 0.756600
5.965800 0.769500
5.980500 0.784100
5.995300 0.799600
6.010000 0.791400
6.024700 0.797000
6.039400 0.806400
6.054200 0.819900
6.068900 0.829900
6.083600 0.840300
6.098400 0.850000
6.113100 0.856800
6.127800 0.860100
6.142500 0.861500
6.157300 0.862000
6.172000 0.862300
6.186700 0.864500
6.201500 0.867800
6.216200 0.871700
6.230900 0.875900
6.245600 0.879500
6.260400 0.882800
6.275100 0.885700
6.289800 0.887000
6.304500 0.889400
6.319300 0.891200
6.334000 0.892000
6.348700 0.889600
6.363500 0.889000
6.378200 0.888300
6.392900 0.888800
6.407600 0.893900
6.422400 0.895100
6.437100 0.895400
6.451800 0.895200
6.466600 0.895000
6.481300 0.894400
6.496000 0.893000
6.510700 0.891300
6.525500 0.890700
6.540200 0.888200
6.554900 0.887200
6.569600 0.902300
6.584400 0.898300
6.599100 0.891400
6.613800 0.882800
6.628600 0.870800
6.643300 0.859700
6.658000 0.849700
6.672700 0.840700
6.687500 0.836000
6.702200 0.833300
6.716900 0.857900
6.731700 0.880300
6.746400 0.866100
6.761100 0.853400
6.775800 0.842600
6.790600 0.833800
6.805300 0.825100
6.820000 0.820800
6.834800 0.818900
6.849500 0.820500
6.864200 0.826900
6.878900 0.833300
