set title 'mp-2331 - Density of States'
set xlabel 'Energy (eV)'
set ylabel 'DOS (states/eV)'
set grid
set xrange [-10:10]
set yrange [0:6.497]
set xzeroaxis lt -1
set terminal png size 800,600
set output 'mp-2331_dos_gnuplot.png'
plot '-' using 1:2 with lines title 'DOS'
-32.699700 0.000000
-32.636500 0.000000
-32.573300 0.000000
-32.510100 0.000000
-32.446900 0.000000
-32.383700 0.000000
-32.320500 0.000000
-32.257300 0.000000
-32.194100 0.000000
-32.130900 0.000000
-32.067700 0.000000
-32.004500 0.000000
-31.941300 0.000000
-31.878100 0.000000
-31.814900 0.000000
-31.751700 0.000000
-31.688500 0.000000
-31.625300 0.000000
-31.562200 0.000000
-31.499000 0.000000
-31.435800 0.000000
-31.372600 0.000000
-31.309400 0.000000
-31.246200 0.000000
-31.183000 0.000000
-31.119800 0.000000
-31.056600 0.000000
-30.993400 0.000000
-30.930200 0.000000
-30.867000 0.000000
-30.803800 0.000000
-30.740600 0.000000
-30.677400 0.000000
-30.614200 0.000000
-30.551000 0.000000
-30.487800 0.000000
-30.424600 0.000000
-30.361400 0.000000
-30.298200 0.000000
-30.235000 0.000000
-30.171800 0.000000
-30.108600 0.000000
-30.045400 0.000000
-29.982200 0.000000
-29.919000 0.000000
-29.855800 0.000000
-29.792600 0.000000
-29.729400 0.000000
-29.666200 0.000000
-29.603000 0.000000
-29.539800 0.000000
-29.476600 0.000000
-29.413400 0.000000
-29.350200 0.000000
-29.287000 0.000000
-29.223800 0.000000
-29.160600 0.000000
-29.097400 0.000000
-29.034200 0.000000
-28.971000 0.000000
-28.907800 0.000000
-28.844600 0.000000
-28.781400 0.000000
-28.718200 0.000000
-28.655000 0.000000
-28.591800 0.000000
-28.528600 0.000000
-28.465400 0.000000
-28.402200 0.000000
-28.339000 0.000000
-28.275800 0.000000
-28.212600 0.000000
-28.149400 0.000000
-28.086200 0.000000
-28.023000 0.000000
-27.959800 0.000000
-27.896600 0.000000
-27.833400 0.000000
-27.770200 0.000000
-27.707100 0.000000
-27.643900 0.000000
-27.580700 0.000000
-27.517500 0.000000
-27.454300 0.000000
-27.391100 0.000000
-27.327900 0.000000
-27.264700 0.000000
-27.201500 0.000000
-27.138300 0.000000
-27.075100 0.000000
-27.011900 0.000000
-26.948700 4.886200
-26.885500 24.620000
-26.822300 12.033300
-26.759100 7.042100
-26.695900 7.930500
-26.632700 12.554000
-26.569500 15.168600
-26.506300 27.932700
-26.443100 15.853400
-26.379900 6.934700
-26.316700 0.000000
-26.253500 0.000000
-26.190300 0.000000
-26.127100 0.000000
-26.063900 0.000000
-26.000700 0.000000
-25.937500 0.000000
-25.874300 0.000000
-25.811100 0.000000
-25.747900 0.000000
-25.684700 0.000000
-25.621500 0.000000
-25.558300 0.000000
-25.495100 0.000000
-25.431900 0.000000
-25.368700 0.000000
-25.305500 0.000000
-25.242300 0.000000
-25.179100 0.000000
-25.115900 0.000000
-25.052700 0.000000
-24.989500 0.000000
-24.926300 0.000000
-24.863100 0.000000
-24.799900 0.000000
-24.736700 0.000000
-24.673500 0.000000
-24.610300 0.000000
-24.547100 0.000000
-24.483900 0.000000
-24.420700 0.000000
-24.357500 0.000000
-24.294300 0.000000
-24.231100 0.000000
-24.167900 0.000000
-24.104700 0.000000
-24.041500 0.000000
-23.978300 0.000000
-23.915100 0.000000
-23.851900 0.000000
-23.788800 0.000000
-23.725600 0.000000
-23.662400 0.000000
-23.599200 0.000000
-23.536000 0.000000
-23.472800 0.000000
-23.409600 0.000000
-23.346400 0.000000
-23.283200 0.000000
-23.220000 0.000000
-23.156800 0.000000
-23.093600 0.000000
-23.030400 0.000000
-22.967200 0.000000
-22.904000 0.000000
-22.840800 0.000000
-22.777600 0.000000
-22.714400 0.000000
-22.651200 0.000000
-22.588000 0.000000
-22.524800 0.000000
-22.461600 0.000000
-22.398400 0.000000
-22.335200 0.000000
-22.272000 0.000000
-22.208800 0.000000
-22.145600 0.000000
-22.082400 0.000000
-22.019200 0.000000
-21.956000 0.000000
-21.892800 0.000000
-21.829600 0.000000
-21.766400 0.000000
-21.703200 0.000000
-21.640000 0.000000
-21.576800 0.000000
-21.513600 0.000000
-21.450400 0.000000
-21.387200 0.000000
-21.324000 0.000000
-21.260800 0.000000
-21.197600 0.000000
-21.134400 0.000000
-21.071200 0.000000
-21.008000 0.000000
-20.944800 0.000000
-20.881600 0.000000
-20.818400 0.000000
-20.755200 0.000000
-20.692000 0.000000
-20.628800 0.000000
-20.565600 0.000000
-20.502400 0.000000
-20.439200 0.000000
-20.376000 0.000000
-20.312800 0.000000
-20.249600 0.000000
-20.186400 0.000000
-20.123200 0.000000
-20.060000 0.000000
-19.996800 0.000000
-19.933700 0.000000
-19.870500 0.000000
-19.807300 0.000000
-19.744100 0.000000
-19.680900 0.000000
-19.617700 0.000000
-19.554500 0.000000
-19.491300 0.000000
-19.428100 0.000000
-19.364900 0.000000
-19.301700 0.000000
-19.238500 0.000000
-19.175300 0.000000
-19.112100 0.000000
-19.048900 0.000000
-18.985700 0.000000
-18.922500 0.000000
-18.859300 0.000000
-18.796100 0.000000
-18.732900 0.000000
-18.669700 0.000000
-18.606500 0.000000
-18.543300 0.000000
-18.480100 0.000000
-18.416900 0.000000
-18.353700 0.000000
-18.290500 0.000000
-18.227300 0.000000
-18.164100 0.000000
-18.100900 0.000000
-18.037700 0.000000
-17.974500 0.000000
-17.911300 0.000000
-17.848100 0.000000
-17.784900 0.000000
-17.721700 0.000000
-17.658500 0.000000
-17.595300 0.000000
-17.532100 0.000000
-17.468900 0.000000
-17.405700 0.000000
-17.342500 0.000000
-17.279300 0.000000
-17.216100 0.000000
-17.152900 0.000000
-17.089700 0.000000
-17.026500 0.000000
-16.963300 0.000000
-16.900100 0.000000
-16.836900 0.000000
-16.773700 0.000000
-16.710500 0.000000
-16.647300 0.000000
-16.584100 0.000000
-16.520900 0.000000
-16.457700 0.000000
-16.394500 0.000000
-16.331300 0.000000
-16.268100 0.000000
-16.204900 0.000000
-16.141700 0.000000
-16.078500 0.000000
-16.015400 0.000000
-15.952200 0.000000
-15.889000 0.000000
-15.825800 0.000000
-15.762600 0.000000
-15.699400 0.000000
-15.636200 0.000000
-15.573000 0.000000
-15.509800 0.000000
-15.446600 0.000000
-15.383400 0.000000
-15.320200 0.000000
-15.257000 0.000000
-15.193800 0.000000
-15.130600 0.000000
-15.067400 0.000000
-15.004200 0.000000
-14.941000 0.000000
-14.877800 0.000000
-14.814600 0.000000
-14.751400 0.000000
-14.688200 0.000000
-14.625000 0.000000
-14.561800 0.000000
-14.498600 0.000000
-14.435400 0.000000
-14.372200 0.000000
-14.309000 0.000000
-14.245800 0.000000
-14.182600 0.000000
-14.119400 0.000000
-14.056200 0.000000
-13.993000 0.000000
-13.929800 0.000000
-13.866600 0.000000
-13.803400 0.000000
-13.740200 0.000000
-13.677000 0.000000
-13.613800 0.000000
-13.550600 0.000000
-13.487400 0.000000
-13.424200 0.000000
-13.361000 0.000000
-13.297800 0.000000
-13.234600 0.000000
-13.171400 0.000000
-13.108200 0.000000
-13.045000 0.000000
-12.981800 0.000000
-12.918600 0.000000
-12.855400 0.000000
-12.792200 0.000000
-12.729000 0.000000
-12.665800 0.000000
-12.602600 0.000000
-12.539400 0.000000
-12.476200 0.000000
-12.413000 0.000000
-12.349800 0.000000
-12.286600 0.000000
-12.223400 0.000000
-12.160300 0.000000
-12.097100 0.000000
-12.033900 0.000000
-11.970700 0.000000
-11.907500 0.000000
-11.844300 0.000000
-11.781100 0.000000
-11.717900 0.000000
-11.654700 0.000000
-11.591500 0.000000
-11.528300 0.000000
-11.465100 0.000000
-11.401900 0.000000
-11.338700 0.000000
-11.275500 0.000000
-11.212300 0.000000
-11.149100 0.000000
-11.085900 0.000000
-11.022700 0.000000
-10.959500 0.000000
-10.896300 0.000000
-10.833100 0.000000
-10.769900 0.000000
-10.706700 0.000000
-10.643500 0.000000
-10.580300 0.000000
-10.517100 0.000000
-10.453900 0.000000
-10.390700 0.000000
-10.327500 0.000000
-10.264300 0.000000
-10.201100 0.000000
-10.137900 0.000000
-10.074700 0.000000
-10.011500 0.000000
-9.948300 0.000000
-9.885100 0.000000
-9.821900 0.000000
-9.758700 0.000000
-9.695500 0.000000
-9.632300 0.000000
-9.569100 0.000000
-9.505900 0.000000
-9.442700 0.000000
-9.379500 0.000000
-9.316300 0.000000
-9.253100 0.000000
-9.189900 0.000000
-9.126700 0.000000
-9.063500 0.000000
-9.000300 0.000000
-8.937100 0.000000
-8.873900 0.000000
-8.810700 0.000000
-8.747500 0.000000
-8.684300 0.000000
-8.621100 0.000000
-8.557900 0.000000
-8.494700 0.000000
-8.431500 0.000000
-8.368300 0.000000
-8.305100 0.000000
-8.242000 0.000000
-8.178800 0.000000
-8.115600 0.000000
-8.052400 0.000000
-7.989200 0.000000
-7.926000 0.000000
-7.862800 0.000000
-7.799600 0.000000
-7.736400 0.000000
-7.673200 0.000000
-7.610000 0.000000
-7.546800 0.000000
-7.483600 0.000000
-7.420400 0.000000
-7.357200 0.000000
-7.294000 0.000000
-7.230800 0.000000
-7.167600 0.000000
-7.104400 0.000000
-7.041200 0.000000
-6.978000 0.000000
-6.914800 0.000000
-6.851600 0.000000
-6.788400 0.000000
-6.725200 0.000000
-6.662000 0.000000
-6.598800 0.000000
-6.535600 0.000000
-6.472400 0.000000
-6.409200 0.000000
-6.346000 0.000000
-6.282800 0.000000
-6.219600 0.000000
-6.156400 0.000000
-6.093200 0.000000
-6.030000 0.000000
-5.966800 0.000000
-5.903600 0.000000
-5.840400 0.000000
-5.777200 0.000000
-5.714000 0.000000
-5.650800 0.000000
-5.587600 0.000000
-5.524400 0.000000
-5.461200 0.000000
-5.398000 0.000000
-5.334800 0.000000
-5.271600 0.000000
-5.208400 0.000000
-5.145200 0.022500
-5.082000 0.151900
-5.018800 0.208200
-4.955600 0.273300
-4.892400 0.373900
-4.829200 0.469400
-4.766000 0.438000
-4.702800 0.448400
-4.639600 0.456500
-4.576400 0.452700
-4.513200 0.462000
-4.450000 0.475400
-4.386800 0.480000
-4.323700 0.483200
-4.260500 0.478600
-4.197300 0.483500
-4.134100 0.490600
-4.070900 0.500800
-4.007700 0.511500
-3.944500 0.518800
-3.881300 0.520100
-3.818100 0.518900
-3.754900 0.523800
-3.691700 0.530200
-3.628500 0.536700
-3.565300 0.544400
-3.502100 0.553100
-3.438900 0.561800
-3.375700 0.568500
-3.312500 0.570000
-3.249300 0.574300
-3.186100 0.596100
-3.122900 0.687200
-3.059700 0.722200
-2.996500 0.767600
-2.933300 0.815800
-2.870100 0.863700
-2.806900 0.907500
-2.743700 0.954000
-2.680500 1.015900
-2.617300 1.091600
-2.554100 1.221200
-2.490900 1.299000
-2.427700 1.364200
-2.364500 1.402000
-2.301300 1.557800
-2.238100 1.659800
-2.174900 1.483000
-2.111700 1.318000
-2.048500 1.189800
-1.985300 1.126500
-1.922100 1.080300
-1.858900 1.027800
-1.795700 0.970000
-1.732500 0.927600
-1.669300 0.886500
-1.606100 0.933800
-1.542900 1.024900
-1.479700 0.971500
-1.416500 0.674700
-1.353300 0.734000
-1.290100 1.346900
-1.226900 1.423100
-1.163700 1.358600
-1.100500 1.436400
-1.037300 1.465300
-0.974100 1.381000
-0.910900 1.313400
-0.847700 1.698000
-0.784500 2.862900
-0.721300 1.210600
-0.658100 0.958200
-0.594900 0.726200
-0.531700 0.454800
-0.468600 0.293300
-0.405400 0.177000
-0.342200 0.099900
-0.279000 0.057200
-0.215800 0.111800
-0.152600 0.186700
-0.089400 0.277400
-0.026200 0.344300
0.037000 1.034900
0.100200 1.487500
0.163400 1.565300
0.226600 1.795500
0.289800 1.798400
0.353000 1.835900
0.416200 1.717500
0.479400 1.314800
0.542600 1.178700
0.605800 0.978100
0.669000 0.643700
0.732200 0.584400
0.795400 0.572000
0.858600 0.570800
0.921800 0.653600
0.985000 0.826000
1.048200 1.050600
1.111400 1.193700
1.174600 1.381900
1.237800 1.563400
1.301000 1.576500
1.364200 1.591800
1.427400 1.714200
1.490600 1.454700
1.553800 1.445000
1.617000 1.447000
1.680200 1.482300
1.743400 1.640200
1.806600 1.751300
1.869800 1.860000
1.933000 2.335900
1.996200 2.035800
2.059400 1.919300
2.122600 1.785000
2.185800 1.633500
2.249000 1.533000
2.312200 1.451500
2.375400 1.758000
2.438600 2.361300
2.501800 2.993600
2.565000 2.865300
2.628200 2.643400
2.691400 2.154300
2.754600 1.659900
2.817800 2.112700
2.881000 2.016500
2.944200 2.124800
3.007400 2.209500
3.070600 1.821900
3.133800 2.191400
3.197000 2.611700
3.260200 2.729900
3.323400 2.883000
3.386600 3.192900
3.449700 4.177500
3.512900 3.505000
3.576100 3.304200
3.639300 2.794700
3.702500 2.573200
3.765700 2.316700
3.828900 1.342400
3.892100 1.245700
3.955300 1.189700
4.018500 2.296100
4.081700 3.217000
4.144900 4.128400
4.208100 4.401600
4.271300 3.351800
4.334500 3.193900
4.397700 4.430300
4.460900 4.989300
4.524100 5.906800
4.587300 3.584300
4.650500 3.287700
4.713700 3.137600
4.776900 2.796500
4.840100 2.472800
4.903300 1.899300
4.966500 1.882900
5.029700 1.975200
5.092900 2.609400
5.156100 2.639600
5.219300 2.819400
5.282500 2.862200
5.345700 3.375100
5.408900 3.691500
5.472100 3.854300
5.535300 3.997400
5.598500 3.226400
5.661700 3.337100
5.724900 2.914600
5.788100 3.154700
5.851300 3.945800
5.914500 3.872200
5.977700 3.346000
6.040900 3.796700
6.104100 3.619000
6.167300 3.494500
6.230500 3.448300
6.293700 3.560300
6.356900 3.011000
6.420100 2.270500
6.483300 1.347100
6.546500 1.932600
6.609700 3.545000
6.672900 3.860600
6.736100 4.828800
6.799300 5.488300
6.862500 3.702700
6.925700 2.880400
6.988900 2.438200
7.052100 1.961600
7.115300 2.034900
7.178500 1.062900
7.241700 0.909100
7.304800 0.695000
7.368000 0.829700
7.431200 0.561100
7.494400 0.313700
7.557600 0.776900
7.620800 0.757600
7.684000 0.736200
7.747200 0.858400
7.810400 0.997800
7.873600 1.142900
7.936800 1.234700
8.000000 1.294200
8.063200 1.339600
8.126400 1.433800
8.189600 1.496200
8.252800 1.625200
8.316000 1.673400
8.379200 1.709900
8.442400 1.802000
8.505600 1.935200
8.568800 2.039000
8.632000 2.171100
8.695200 2.319500
8.758400 2.158800
8.821600 2.011200
8.884800 1.886500
8.948000 1.783700
9.011200 1.684900
9.074400 1.504700
9.137600 1.402000
9.200800 1.366900
9.264000 1.335600
9.327200 1.323200
9.390400 1.337100
9.453600 1.382200
9.516800 1.464400
9.580000 1.556300
9.643200 1.743200
9.706400 1.869600
9.769600 1.951200
9.832800 2.027200
9.896000 2.002500
9.959200 1.874800
10.022400 1.876900
10.085600 1.896700
10.148800 2.448200
10.212000 3.075800
10.275200 3.191400
10.338400 2.969500
10.401600 2.886500
10.464800 2.768600
10.528000 3.059200
10.591200 3.132500
10.654400 3.300700
10.717600 3.763900
10.780800 3.680900
10.844000 4.632200
10.907200 4.786200
10.970400 3.941200
11.033600 3.612500
11.096800 3.376100
11.160000 3.524500
11.223100 3.654200
11.286300 4.451800
11.349500 4.966900
11.412700 4.813400
11.475900 2.913200
11.539100 2.680400
11.602300 2.870700
11.665500 3.677800
11.728700 3.679300
11.791900 3.673800
11.855100 3.222700
11.918300 2.910800
11.981500 2.870600
12.044700 2.953900
12.107900 2.408500
12.171100 1.993500
12.234300 2.068100
12.297500 2.149700
12.360700 1.735300
12.423900 1.649500
12.487100 1.652600
12.550300 1.667600
12.613500 1.679100
12.676700 1.686100
12.739900 1.716000
12.803100 1.730100
12.866300 1.745400
12.929500 1.632500
12.992700 1.387300
13.055900 1.314400
13.119100 1.262800
13.182300 1.219200
13.245500 1.175500
13.308700 1.087000
13.371900 1.027000
13.435100 0.991700
13.498300 0.971300
13.561500 0.933900
13.624700 0.902100
13.687900 0.905800
13.751100 0.992000
13.814300 1.019700
13.877500 1.062300
13.940700 1.148000
14.003900 1.301900
14.067100 1.424900
14.130300 1.570700
14.193500 1.628400
14.256700 1.660300
14.319900 1.790900
14.383100 2.045300
14.446300 1.990800
14.509500 2.075900
14.572700 2.402300
14.635900 2.062600
14.699100 2.257400
14.762300 2.486700
14.825500 2.677900
14.888700 2.884700
14.951900 3.201700
15.015100 3.348900
15.078200 3.537000
15.141400 3.787500
15.204600 4.795900
15.267800 4.554400
15.331000 3.300200
15.394200 2.721600
15.457400 2.560100
15.520600 2.583500
15.583800 1.985500
15.647000 1.496900
15.710200 0.939700
15.773400 0.512400
15.836600 0.310400
15.899800 0.444400
15.963000 0.842900
16.026200 1.299200
16.089400 1.644000
16.152600 2.390500
16.215800 2.927700
16.279000 2.724300
16.342200 3.003600
16.405400 2.817300
16.468600 2.635400
16.531800 2.398100
16.595000 2.437300
16.658200 2.157300
16.721400 1.971200
16.784600 1.903600
16.847800 2.001100
16.911000 2.320500
16.974200 2.396300
17.037400 2.628000
17.100600 2.934400
17.163800 3.304700
17.227000 3.462500
17.290200 3.960700
17.353400 3.866000
17.416600 4.184600
17.479800 3.261000
17.543000 3.056100
17.606200 2.401300
17.669400 1.978600
17.732600 1.891600
17.795800 1.941600
17.859000 2.103800
17.922200 2.181600
17.985400 2.320900
18.048600 2.396300
18.111800 2.564500
18.175000 2.981400
18.238200 3.027400
18.301400 2.865100
18.364600 2.622700
18.427800 2.433000
18.491000 2.263200
18.554200 2.480200
18.617400 2.625400
18.680600 2.687900
18.743800 2.767900
18.807000 2.812700
18.870200 2.649300
18.933400 2.722900
18.996500 2.390000
19.059700 2.207800
19.122900 2.062100
19.186100 2.000500
19.249300 2.085300
19.312500 2.873500
19.375700 2.267500
19.438900 2.183900
19.502100 2.310500
19.565300 2.481300
19.628500 3.082400
19.691700 3.264300
19.754900 3.299600
19.818100 4.106800
19.881300 2.945700
19.944500 2.291500
20.007700 2.324000
20.070900 2.183300
20.134100 1.953400
20.197300 1.846500
20.260500 1.672500
20.323700 1.782300
20.386900 2.125300
20.450100 1.902800
20.513300 2.235100
20.576500 2.294300
20.639700 2.207400
20.702900 2.181100
20.766100 2.114900
20.829300 1.706000
20.892500 1.991500
20.955700 2.452100
21.018900 2.295800
21.082100 2.262300
21.145300 2.190400
21.208500 2.182200
21.271700 2.149800
21.334900 1.834700
21.398100 1.675000
21.461300 1.629800
21.524500 1.641000
21.587700 1.760800
21.650900 1.824300
21.714100 1.823800
21.777300 1.824300
21.840500 1.840100
21.903700 1.791700
21.966900 1.824100
22.030100 1.749500
22.093300 1.698600
22.156500 1.704900
22.219700 1.801900
22.282900 1.986700
22.346100 2.089500
22.409300 2.276800
22.472500 2.223400
22.535700 2.609600
22.598900 2.121900
22.662100 1.726900
22.725300 1.664200
22.788500 1.741100
22.851600 1.879600
22.914800 1.858800
22.978000 1.876100
23.041200 1.927200
23.104400 2.022500
23.167600 2.163000
23.230800 2.316400
23.294000 2.464000
23.357200 2.791600
23.420400 2.938700
23.483600 2.555500
23.546800 2.217400
23.610000 1.902900
23.673200 1.904400
23.736400 1.995500
23.799600 2.141700
23.862800 2.465700
23.926000 2.430300
23.989200 2.407200
24.052400 2.517500
24.115600 2.457100
24.178800 2.514600
24.242000 2.284500
24.305200 1.914700
24.368400 1.657300
24.431600 1.407600
24.494800 1.262500
24.558000 1.248500
24.621200 1.164800
24.684400 1.110500
24.747600 1.208800
24.810800 1.452600
24.874000 1.723500
24.937200 1.967100
25.000400 2.249900
25.063600 2.596100
25.126800 2.876500
25.190000 2.744400
25.253200 2.413100
25.316400 2.507000
25.379600 2.521100
25.442800 3.271300
25.506000 4.489800
25.569200 6.267100
25.632400 3.290400
25.695600 2.775300
25.758800 2.429900
25.822000 1.930300
25.885200 2.152100
25.948400 2.180700
26.011600 2.312000
26.074800 2.392300
26.138000 2.359400
26.201200 2.726700
26.264400 3.204600
26.327600 3.492500
26.390800 4.023400
26.454000 4.361700
26.517200 4.550100
26.580400 3.693600
26.643600 2.788800
26.706800 2.354400
26.769900 2.147900
26.833100 2.086600
26.896300 2.217000
26.959500 2.493800
27.022700 2.993100
27.085900 2.342400
27.149100 2.358600
27.212300 2.450100
27.275500 2.455900
27.338700 2.534000
27.401900 2.351500
27.465100 2.200200
27.528300 1.989300
27.591500 1.762100
27.654700 1.699500
27.717900 1.482100
27.781100 1.451900
27.844300 1.668100
27.907500 1.811900
27.970700 2.142500
28.033900 2.300500
28.097100 2.271000
28.160300 2.221000
28.223500 1.978900
28.286700 1.890300
28.349900 1.851100
28.413100 1.857900
28.476300 1.811100
28.539500 1.833400
28.602700 1.699300
28.665900 1.663500
28.729100 1.634600
28.792300 1.614100
28.855500 1.901600
28.918700 1.749300
28.981900 1.446400
29.045100 1.204400
29.108300 1.008000
29.171500 0.851700
29.234700 0.743100
29.297900 0.643100
29.361100 0.640500
29.424300 0.861200
29.487500 1.027900
29.550700 1.112900
29.613900 1.203300
29.677100 1.536800
29.740300 1.627600
29.803500 1.760600
29.866700 1.725000
29.929900 1.826700
29.993100 2.013500
30.056300 1.933600
30.119500 1.679400
30.182700 1.465000
30.245900 1.533300
30.309100 1.513900
30.372300 1.405900
30.435500 1.279500
30.498700 1.214700
30.561900 1.152400
30.625000 1.120600
30.688200 1.085500
30.751400 1.104000
30.814600 1.229300
30.877800 1.261300
30.941000 1.337900
31.004200 1.471900
31.067400 1.756000
31.130600 1.817500
31.193800 1.953300
31.257000 2.022200
31.320200 2.093800
31.383400 2.188900
31.446600 2.398000
31.509800 2.362400
31.573000 2.466700
31.636200 2.277400
31.699400 2.233000
31.762600 2.321100
31.825800 1.974200
31.889000 1.573900
31.952200 1.514900
32.015400 1.512500
32.078600 1.881200
32.141800 2.436800
