set title 'mp-12605 - Density of States'
set xlabel 'Energy (eV)'
set ylabel 'DOS (states/eV)'
set grid
set xrange [-10:10]
set yrange [0:5.240]
set xzeroaxis lt -1
set terminal png size 800,600
set output 'mp-12605_dos_gnuplot.png'
plot '-' using 1:2 with lines title 'DOS'
-37.223600 0.000000
-37.161000 0.000000
-37.098400 0.000000
-37.035800 0.000000
-36.973200 0.000000
-36.910600 0.000000
-36.848000 0.000000
-36.785400 0.000000
-36.722700 0.000000
-36.660100 0.000000
-36.597500 0.000000
-36.534900 0.000000
-36.472300 0.000000
-36.409700 0.000000
-36.347100 0.000000
-36.284500 0.000000
-36.221900 0.000000
-36.159300 0.000000
-36.096700 0.000000
-36.034000 0.000000
-35.971400 0.000000
-35.908800 0.000000
-35.846200 0.000000
-35.783600 0.000000
-35.721000 0.000000
-35.658400 0.000000
-35.595800 0.000000
-35.533200 0.000000
-35.470600 0.000000
-35.407900 0.000000
-35.345300 0.000000
-35.282700 0.000000
-35.220100 0.000000
-35.157500 0.000000
-35.094900 0.000000
-35.032300 0.000000
-34.969700 0.000000
-34.907100 0.000000
-34.844500 0.000000
-34.781800 0.000000
-34.719200 0.000000
-34.656600 0.000000
-34.594000 0.000000
-34.531400 0.000000
-34.468800 0.000000
-34.406200 0.000000
-34.343600 0.000000
-34.281000 0.000000
-34.218400 0.000000
-34.155700 0.000000
-34.093100 0.000000
-34.030500 0.000000
-33.967900 0.000000
-33.905300 0.000000
-33.842700 0.000000
-33.780100 0.000000
-33.717500 0.000000
-33.654900 0.000000
-33.592300 0.000000
-33.529600 0.000000
-33.467000 0.000000
-33.404400 0.000000
-33.341800 0.000000
-33.279200 0.000000
-33.216600 0.000000
-33.154000 0.000000
-33.091400 0.000000
-33.028800 0.000000
-32.966200 0.000000
-32.903500 0.000000
-32.840900 0.000000
-32.778300 0.000000
-32.715700 0.000000
-32.653100 0.000000
-32.590500 0.000000
-32.527900 0.000000
-32.465300 0.000000
-32.402700 0.000000
-32.340100 0.000000
-32.277400 0.000000
-32.214800 0.000000
-32.152200 0.000000
-32.089600 0.000000
-32.027000 0.000000
-31.964400 0.000000
-31.901800 0.000000
-31.839200 0.000000
-31.776600 0.000000
-31.714000 0.000000
-31.651300 0.001400
-31.588700 0.357300
-31.526100 7.597300
-31.463500 29.087400
-31.400900 37.574100
-31.338300 18.370300
-31.275700 2.794100
-31.213100 0.049500
-31.150500 0.000100
-31.087900 0.000000
-31.025200 0.000000
-30.962600 0.000000
-30.900000 0.000000
-30.837400 0.000000
-30.774800 0.000000
-30.712200 0.000000
-30.649600 0.000000
-30.587000 0.000000
-30.524400 0.000000
-30.461800 0.000000
-30.399100 0.000000
-30.336500 0.000000
-30.273900 0.000000
-30.211300 0.000000
-30.148700 0.000000
-30.086100 0.000000
-30.023500 0.000000
-29.960900 0.000000
-29.898300 0.000000
-29.835700 0.000000
-29.773000 0.000000
-29.710400 0.000000
-29.647800 0.000000
-29.585200 0.000000
-29.522600 0.000000
-29.460000 0.000000
-29.397400 0.000000
-29.334800 0.000000
-29.272200 0.000000
-29.209600 0.000000
-29.146900 0.000000
-29.084300 0.000000
-29.021700 0.000000
-28.959100 0.000000
-28.896500 0.000000
-28.833900 0.000000
-28.771300 0.000000
-28.708700 0.000000
-28.646100 0.000000
-28.583500 0.000000
-28.520800 0.000000
-28.458200 0.000000
-28.395600 0.000000
-28.333000 0.000000
-28.270400 0.000000
-28.207800 0.000000
-28.145200 0.000000
-28.082600 0.000000
-28.020000 0.000000
-27.957400 0.000000
-27.894700 0.000000
-27.832100 0.000000
-27.769500 0.000000
-27.706900 0.000000
-27.644300 0.000000
-27.581700 0.000000
-27.519100 0.000000
-27.456500 0.000000
-27.393900 0.000000
-27.331300 0.000000
-27.268600 0.000000
-27.206000 0.000000
-27.143400 0.000000
-27.080800 0.000000
-27.018200 0.000000
-26.955600 0.000000
-26.893000 0.000000
-26.830400 0.000000
-26.767800 0.000000
-26.705200 0.000000
-26.642500 0.000000
-26.579900 0.000000
-26.517300 0.000000
-26.454700 0.000000
-26.392100 0.000000
-26.329500 0.000000
-26.266900 0.000000
-26.204300 0.000000
-26.141700 0.000000
-26.079100 0.000000
-26.016500 0.000000
-25.953800 0.000000
-25.891200 0.000000
-25.828600 0.000000
-25.766000 0.000000
-25.703400 0.000000
-25.640800 0.000000
-25.578200 0.000000
-25.515600 0.000000
-25.453000 0.000000
-25.390400 0.000000
-25.327700 0.000000
-25.265100 0.000000
-25.202500 0.000000
-25.139900 0.000000
-25.077300 0.000000
-25.014700 0.000000
-24.952100 0.000000
-24.889500 0.000000
-24.826900 0.000000
-24.764300 0.000000
-24.701600 0.000000
-24.639000 0.000000
-24.576400 0.000000
-24.513800 0.000000
-24.451200 0.000000
-24.388600 0.000000
-24.326000 0.000000
-24.263400 0.000000
-24.200800 0.000000
-24.138200 0.000000
-24.075500 0.000000
-24.012900 0.000000
-23.950300 0.000000
-23.887700 0.000000
-23.825100 0.000000
-23.762500 0.000000
-23.699900 0.000000
-23.637300 0.000000
-23.574700 0.000000
-23.512100 0.000000
-23.449400 0.000000
-23.386800 0.000000
-23.324200 0.000000
-23.261600 0.000000
-23.199000 0.000000
-23.136400 0.000000
-23.073800 0.000000
-23.011200 0.000000
-22.948600 0.000000
-22.886000 0.000000
-22.823300 0.000000
-22.760700 0.000000
-22.698100 0.000000
-22.635500 0.000000
-22.572900 0.000000
-22.510300 0.000000
-22.447700 0.000000
-22.385100 0.000000
-22.322500 0.000000
-22.259900 0.000000
-22.197200 0.000000
-22.134600 0.000000
-22.072000 0.000000
-22.009400 0.000000
-21.946800 0.000000
-21.884200 0.000000
-21.821600 0.000000
-21.759000 0.000000
-21.696400 0.000000
-21.633800 0.000000
-21.571100 0.000000
-21.508500 0.000000
-21.445900 0.000000
-21.383300 0.000000
-21.320700 0.000000
-21.258100 0.000000
-21.195500 0.000000
-21.132900 0.000000
-21.070300 0.000000
-21.007700 0.000000
-20.945000 0.000000
-20.882400 0.000000
-20.819800 0.000000
-20.757200 0.000000
-20.694600 0.000000
-20.632000 0.000000
-20.569400 0.000000
-20.506800 0.000000
-20.444200 0.000000
-20.381600 0.000000
-20.318900 0.000000
-20.256300 0.000000
-20.193700 0.000000
-20.131100 0.000000
-20.068500 0.000000
-20.005900 0.000000
-19.943300 0.000000
-19.880700 0.000000
-19.818100 0.000000
-19.755500 0.000000
-19.692800 0.000000
-19.630200 0.000000
-19.567600 0.000000
-19.505000 0.000000
-19.442400 0.000000
-19.379800 0.000000
-19.317200 0.000000
-19.254600 0.000000
-19.192000 0.000000
-19.129400 0.000000
-19.066700 0.000000
-19.004100 0.000000
-18.941500 0.000000
-18.878900 0.000000
-18.816300 0.000000
-18.753700 0.000000
-18.691100 0.000000
-18.628500 0.000000
-18.565900 0.000000
-18.503300 0.000000
-18.440600 0.000000
-18.378000 0.000000
-18.315400 0.000000
-18.252800 0.000000
-18.190200 0.000000
-18.127600 0.000000
-18.065000 0.000000
-18.002400 0.000000
-17.939800 0.000000
-17.877200 0.000000
-17.814500 0.000000
-17.751900 0.000000
-17.689300 0.000000
-17.626700 0.000000
-17.564100 0.000000
-17.501500 0.000000
-17.438900 0.000000
-17.376300 0.000000
-17.313700 0.000000
-17.251100 0.000000
-17.188400 0.000000
-17.125800 0.000000
-17.063200 0.000000
-17.000600 0.000000
-16.938000 0.000000
-16.875400 0.000000
-16.812800 0.000000
-16.750200 0.000000
-16.687600 0.000000
-16.625000 0.000000
-16.562300 0.000000
-16.499700 0.000000
-16.437100 0.000000
-16.374500 0.000000
-16.311900 0.000000
-16.249300 0.000000
-16.186700 0.000000
-16.124100 0.000000
-16.061500 0.000000
-15.998900 0.000000
-15.936300 0.000000
-15.873600 0.000000
-15.811000 0.000000
-15.748400 0.000000
-15.685800 0.000000
-15.623200 0.000000
-15.560600 0.000000
-15.498000 0.000000
-15.435400 0.000000
-15.372800 0.000000
-15.310200 0.000000
-15.247500 0.000000
-15.184900 0.000000
-15.122300 0.000000
-15.059700 0.000000
-14.997100 0.000000
-14.934500 0.000000
-14.871900 0.000000
-14.809300 0.000000
-14.746700 0.000000
-14.684100 0.000000
-14.621400 0.000000
-14.558800 0.000000
-14.496200 0.000000
-14.433600 0.000000
-14.371000 0.000000
-14.308400 0.000000
-14.245800 0.000000
-14.183200 0.000000
-14.120600 0.000000
-14.058000 0.000000
-13.995300 0.000000
-13.932700 0.000000
-13.870100 0.000000
-13.807500 0.000000
-13.744900 0.000000
-13.682300 0.000000
-13.619700 0.000000
-13.557100 0.000000
-13.494500 0.000000
-13.431900 0.000000
-13.369200 0.000000
-13.306600 0.000000
-13.244000 0.000000
-13.181400 0.000000
-13.118800 0.000000
-13.056200 0.000000
-12.993600 0.000000
-12.931000 0.000000
-12.868400 0.000000
-12.805800 0.000000
-12.743100 0.000000
-12.680500 0.000000
-12.617900 0.000000
-12.555300 0.000000
-12.492700 0.000000
-12.430100 0.000000
-12.367500 0.000000
-12.304900 0.000000
-12.242300 0.000000
-12.179700 0.000000
-12.117000 0.000000
-12.054400 0.000000
-11.991800 0.000000
-11.929200 0.000000
-11.866600 0.000000
-11.804000 0.000000
-11.741400 0.000000
-11.678800 0.000000
-11.616200 0.000000
-11.553600 0.000000
-11.490900 0.000000
-11.428300 0.000000
-11.365700 0.000000
-11.303100 0.000000
-11.240500 0.000000
-11.177900 0.000000
-11.115300 0.000000
-11.052700 0.000000
-10.990100 0.000000
-10.927500 0.000000
-10.864800 0.000000
-10.802200 0.000000
-10.739600 0.000000
-10.677000 0.000000
-10.614400 0.000000
-10.551800 0.000000
-10.489200 0.000000
-10.426600 0.000000
-10.364000 0.000000
-10.301400 0.000000
-10.238700 0.000000
-10.176100 0.000000
-10.113500 0.000000
-10.050900 0.000000
-9.988300 0.000000
-9.925700 0.000000
-9.863100 0.000000
-9.800500 0.000000
-9.737900 0.000000
-9.675300 0.000000
-9.612600 0.000000
-9.550000 0.000000
-9.487400 0.000000
-9.424800 0.000000
-9.362200 0.000000
-9.299600 0.000000
-9.237000 0.000000
-9.174400 0.000000
-9.111800 0.000000
-9.049200 0.000000
-8.986500 0.000000
-8.923900 0.000000
-8.861300 0.000000
-8.798700 0.000000
-8.736100 0.000000
-8.673500 0.000000
-8.610900 0.000000
-8.548300 0.000000
-8.485700 0.000000
-8.423100 0.000000
-8.360400 0.000000
-8.297800 0.000000
-8.235200 0.000000
-8.172600 0.000000
-8.110000 0.000000
-8.047400 0.000000
-7.984800 0.000000
-7.922200 0.000000
-7.859600 0.000000
-7.797000 0.000000
-7.734300 0.000000
-7.671700 0.000000
-7.609100 0.000000
-7.546500 0.000000
-7.483900 0.000000
-7.421300 0.000000
-7.358700 0.000000
-7.296100 0.000000
-7.233500 0.000000
-7.170900 0.000000
-7.108200 0.000000
-7.045600 0.000000
-6.983000 0.000000
-6.920400 0.000000
-6.857800 0.000000
-6.795200 0.000000
-6.732600 0.000000
-6.670000 0.000000
-6.607400 0.000000
-6.544800 0.000000
-6.482100 0.000000
-6.419500 0.000000
-6.356900 0.000000
-6.294300 0.000000
-6.231700 0.000000
-6.169100 0.000000
-6.106500 0.000000
-6.043900 0.000000
-5.981300 0.000000
-5.918700 0.000000
-5.856100 0.000000
-5.793400 0.000000
-5.730800 0.000000
-5.668200 0.000000
-5.605600 0.000000
-5.543000 0.000000
-5.480400 0.000000
-5.417800 0.000000
-5.355200 0.000000
-5.292600 0.000000
-5.230000 0.000000
-5.167300 0.000000
-5.104700 0.000000
-5.042100 0.000000
-4.979500 0.000000
-4.916900 0.000000
-4.854300 0.000000
-4.791700 0.000000
-4.729100 0.000000
-4.666500 0.000000
-4.603900 0.000000
-4.541200 0.000000
-4.478600 0.000000
-4.416000 0.000000
-4.353400 0.000000
-4.290800 0.000000
-4.228200 0.000000
-4.165600 0.000000
-4.103000 0.000000
-4.040400 0.000000
-3.977800 0.000000
-3.915100 0.000000
-3.852500 0.000300
-3.789900 0.007100
-3.727300 0.026900
-3.664700 0.073600
-3.602100 0.120900
-3.539500 0.063700
-3.476900 0.125100
-3.414300 0.155300
-3.351700 0.156700
-3.289000 0.223200
-3.226400 0.122100
-3.163800 0.172400
-3.101200 0.231400
-3.038600 0.141900
-2.976000 0.230300
-2.913400 0.255200
-2.850800 0.327600
-2.788200 0.305800
-2.725600 0.179100
-2.662900 0.226900
-2.600300 0.187100
-2.537700 0.324700
-2.475100 0.333900
-2.412500 0.260300
-2.349900 0.454700
-2.287300 0.313400
-2.224700 0.388300
-2.162100 0.315100
-2.099500 0.325100
-2.036800 0.323000
-1.974200 0.323400
-1.911600 0.494900
-1.849000 0.342900
-1.786400 0.352200
-1.723800 0.325000
-1.661200 0.578700
-1.598600 0.665700
-1.536000 0.500500
-1.473400 0.469100
-1.410700 0.457300
-1.348100 0.408300
-1.285500 0.366400
-1.222900 0.432100
-1.160300 0.656200
-1.097700 0.639100
-1.035100 0.212600
-0.972500 0.259200
-0.909900 0.648900
-0.847300 0.627100
-0.784600 0.595300
-0.722000 0.707200
-0.659400 0.431900
-0.596800 0.407400
-0.534200 0.525700
-0.471600 0.598700
-0.409000 0.526900
-0.346400 0.407100
-0.283800 0.608900
-0.221200 0.496100
-0.158500 0.441100
-0.095900 0.711200
-0.033300 0.789900
0.029300 0.625200
0.091900 0.432900
0.154500 0.765700
0.217100 0.876100
0.279700 0.782600
0.342300 0.622700
0.404900 0.701600
0.467600 0.673700
0.530200 0.700000
0.592800 0.625500
0.655400 0.740300
0.718000 0.673300
0.780600 0.651600
0.843200 1.197200
0.905800 1.222400
0.968400 1.103400
1.031000 1.232100
1.093700 1.393400
1.156300 0.887300
1.218900 0.578000
1.281500 0.641000
1.344100 0.784700
1.406700 1.100500
1.469300 1.103600
1.531900 0.851400
1.594500 0.828400
1.657100 0.601100
1.719800 0.807100
1.782400 0.939600
1.845000 1.008500
1.907600 0.649700
1.970200 0.804600
2.032800 0.774300
2.095400 0.565600
2.158000 0.513300
2.220600 0.658500
2.283200 0.838400
2.345900 0.635800
2.408500 0.578100
2.471100 0.530200
2.533700 0.819900
2.596300 0.609400
2.658900 0.567300
2.721500 0.725900
2.784100 0.705200
2.846700 0.522700
2.909300 0.915600
2.972000 0.823200
3.034600 0.673200
3.097200 0.430700
3.159800 0.318500
3.222400 0.409000
3.285000 0.557500
3.347600 0.821700
3.410200 1.039700
3.472800 0.510700
3.535400 0.704100
3.598100 0.962800
3.660700 1.207300
3.723300 1.400200
3.785900 1.381600
3.848500 1.401200
3.911100 1.057800
3.973700 1.152700
4.036300 1.284200
4.098900 1.446000
4.161500 1.103200
4.224100 1.025000
4.286800 1.070600
4.349400 0.760500
4.412000 0.761500
4.474600 1.054300
4.537200 1.222900
4.599800 1.201400
4.662400 1.426300
4.725000 1.319900
4.787600 1.197900
4.850200 0.974800
4.912900 0.816700
4.975500 0.774400
5.038100 0.698400
5.100700 0.657600
5.163300 0.803900
5.225900 0.626800
5.288500 0.807300
5.351100 1.485700
5.413700 1.175000
5.476300 0.685100
5.539000 0.694400
5.601600 1.254300
5.664200 1.566000
5.726800 1.300500
5.789400 1.743700
5.852000 1.592600
5.914600 1.729600
5.977200 1.496700
6.039800 1.411000
6.102400 2.140500
6.165100 1.642300
6.227700 0.917500
6.290300 0.834300
6.352900 1.239400
6.415500 2.102800
6.478100 1.764700
6.540700 1.367600
6.603300 2.153300
6.665900 1.686400
6.728500 1.634700
6.791200 2.077800
6.853800 2.659100
6.916400 2.694300
6.979000 2.677700
7.041600 3.415400
7.104200 3.936300
7.166800 3.734600
7.229400 3.204900
7.292000 3.243100
7.354600 4.113200
7.417300 4.763600
7.479900 4.345100
7.542500 4.100600
7.605100 4.290200
7.667700 4.486200
7.730300 3.452800
7.792900 3.151200
7.855500 3.518000
7.918100 2.622700
7.980700 1.755600
8.043400 1.335500
8.106000 1.773900
8.168600 1.887300
8.231200 1.635100
8.293800 1.462800
8.356400 1.117400
8.419000 1.165900
8.481600 1.319400
8.544200 1.110900
8.606800 0.985400
8.669500 1.040700
8.732100 1.187200
8.794700 1.120800
8.857300 0.956400
8.919900 0.908100
8.982500 1.230900
9.045100 1.193200
9.107700 1.112000
9.170300 1.223500
9.232900 0.897500
9.295600 0.500300
9.358200 0.343000
9.420800 0.086200
9.483400 0.060900
9.546000 0.157500
9.608600 0.350700
9.671200 0.276800
9.733800 0.195500
9.796400 0.143100
9.859000 0.313700
9.921700 0.456000
9.984300 0.328200
10.046900 0.153100
10.109500 0.217500
10.172100 0.204600
10.234700 0.449000
10.297300 0.771500
10.359900 0.676500
10.422500 0.489900
10.485100 0.678600
10.547800 0.817000
10.610400 0.636300
10.673000 0.739100
10.735600 0.831400
10.798200 1.004100
10.860800 0.843700
10.923400 1.008800
10.986000 0.687200
11.048600 0.790400
11.111200 1.497900
11.173900 1.803600
11.236500 0.720400
11.299100 0.660400
11.361700 1.410300
11.424300 1.610400
11.486900 2.084900
11.549500 2.155200
11.612100 1.730800
11.674700 2.073800
11.737300 2.894300
11.800000 2.708700
11.862600 2.433700
11.925200 2.406600
11.987800 2.738900
12.050400 2.705700
12.113000 1.929400
12.175600 1.321200
12.238200 1.518300
12.300800 1.780000
12.363400 2.163000
12.426100 2.086600
12.488700 2.485000
12.551300 2.088500
12.613900 1.763900
12.676500 1.867300
12.739100 1.963500
12.801700 2.042100
12.864300 1.659300
12.926900 1.611000
12.989500 1.766200
13.052200 1.669300
13.114800 1.579300
13.177400 1.519700
13.240000 2.071800
13.302600 1.892400
13.365200 1.370800
13.427800 1.806600
13.490400 2.545000
13.553000 2.231800
13.615600 1.997900
13.678300 2.125600
13.740900 2.437000
13.803500 2.477800
13.866100 1.984200
13.928700 1.956900
13.991300 1.506500
14.053900 1.483400
14.116500 2.163500
14.179100 1.939500
14.241700 1.295200
14.304400 0.950900
14.367000 1.620400
14.429600 1.928200
14.492200 1.420700
14.554800 1.444300
14.617400 1.803400
14.680000 2.077800
14.742600 1.415300
14.805200 1.416200
14.867800 1.725500
14.930400 1.281700
14.993100 1.361400
15.055700 1.820600
15.118300 1.580800
15.180900 1.134000
15.243500 1.311800
15.306100 1.465100
15.368700 1.474100
15.431300 1.730400
15.493900 2.058800
15.556500 1.681000
15.619200 1.514100
15.681800 1.391100
15.744400 1.428700
15.807000 1.620000
15.869600 1.433400
15.932200 1.516600
15.994800 1.482400
16.057400 1.490300
16.120000 1.779300
16.182600 1.969300
16.245300 1.604200
16.307900 1.165000
16.370500 1.429500
16.433100 1.619900
16.495700 1.150700
16.558300 1.035400
16.620900 1.040600
16.683500 1.296800
16.746100 1.378000
16.808700 1.327100
16.871400 1.368400
16.934000 1.312900
16.996600 1.863100
17.059200 1.947800
17.121800 1.639400
17.184400 1.662900
17.247000 1.631000
17.309600 1.838700
17.372200 1.987000
17.434800 1.781700
17.497500 1.313700
17.560100 1.226300
17.622700 1.058000
17.685300 1.291000
17.747900 1.419500
17.810500 1.273300
17.873100 1.527000
17.935700 1.570400
17.998300 1.161100
18.060900 1.337600
18.123600 1.432400
18.186200 1.890200
18.248800 1.726300
18.311400 1.441800
18.374000 1.673800
18.436600 1.888300
18.499200 1.563700
18.561800 1.568900
18.624400 1.244200
18.687000 1.160800
18.749700 1.548800
18.812300 1.742000
18.874900 1.067400
18.937500 1.194800
19.000100 1.289200
19.062700 0.964600
19.125300 0.914800
19.187900 0.913900
19.250500 1.075200
19.313100 1.785500
19.375800 1.652600
19.438400 1.430300
19.501000 1.058900
19.563600 0.904500
19.626200 1.281000
19.688800 1.329200
19.751400 1.359900
19.814000 1.579900
19.876600 1.897200
19.939200 1.906500
20.001900 1.768000
20.064500 1.815900
20.127100 1.493300
20.189700 1.386600
20.252300 1.739800
20.314900 1.913000
20.377500 1.947200
20.440100 1.531300
20.502700 1.852300
20.565300 1.630400
20.628000 1.393400
20.690600 1.447000
20.753200 1.429300
20.815800 1.654200
20.878400 1.363200
20.941000 1.642800
21.003600 1.857600
21.066200 1.547100
21.128800 1.975200
21.191400 1.982100
21.254100 1.572400
21.316700 1.668500
21.379300 1.603200
21.441900 1.348800
21.504500 1.300500
21.567100 1.435600
21.629700 1.334000
21.692300 1.218200
21.754900 1.163700
21.817500 1.167600
21.880200 1.296100
21.942800 1.704100
22.005400 1.304400
22.068000 1.353500
22.130600 1.703500
22.193200 1.012100
22.255800 0.914900
22.318400 1.252800
22.381000 1.245900
22.443600 1.758000
22.506300 1.872200
22.568900 1.484700
22.631500 1.424300
22.694100 1.404000
22.756700 1.385500
22.819300 1.274300
22.881900 1.126900
22.944500 1.099900
23.007100 1.125700
23.069700 1.271200
23.132400 1.047300
23.195000 1.576800
23.257600 2.059200
23.320200 1.272600
23.382800 1.383700
23.445400 1.211800
23.508000 1.444300
23.570600 1.634700
23.633200 2.212900
23.695800 2.215500
23.758500 1.542400
23.821100 2.019200
23.883700 2.201300
23.946300 2.166000
24.008900 2.563900
24.071500 2.012300
24.134100 1.457700
24.196700 1.535500
24.259300 1.835100
24.321900 1.773500
24.384600 2.199400
24.447200 2.205000
24.509800 1.863800
24.572400 1.361300
24.635000 1.379700
24.697600 1.631700
24.760200 1.392000
24.822800 1.417800
24.885400 1.900600
24.948000 1.455400
25.010600 1.316100
25.073300 2.019900
25.135900 1.940700
25.198500 1.764000
25.261100 1.062200
25.323700 0.889900
25.386300 1.152000
25.448900 1.351300
25.511500 1.486200
25.574100 0.964500
25.636700 0.923800
25.699400 1.274000
25.762000 1.259900
25.824600 1.204500
25.887200 1.166400
25.949800 1.256100
26.012400 0.929300
26.075000 1.066200
26.137600 1.176500
26.200200 1.292400
26.262800 1.706900
26.325500 1.749500
26.388100 1.216900
26.450700 1.241900
26.513300 1.021100
26.575900 1.100000
26.638500 1.358500
26.701100 1.706500
26.763700 2.016400
