set title 'mp-655547 - Density of States'
set xlabel 'Energy (eV)'
set ylabel 'DOS (states/eV)'
set grid
set xrange [-10:10]
set yrange [0:19.245]
set xzeroaxis lt -1
set terminal png size 800,600
set output 'mp-655547_dos_gnuplot.png'
plot '-' using 1:2 with lines title 'DOS'
-15.067400 0.000000
-15.047100 0.000000
-15.026700 0.000000
-15.006400 0.000000
-14.986100 0.000000
-14.965700 0.000000
-14.945400 0.000000
-14.925000 0.000000
-14.904700 0.000000
-14.884400 0.000000
-14.864000 0.000000
-14.843700 0.000000
-14.823300 0.000000
-14.803000 0.000000
-14.782700 0.000000
-14.762300 0.000000
-14.742000 0.000000
-14.721600 0.000000
-14.701300 0.000000
-14.681000 0.000000
-14.660600 0.000000
-14.640300 0.000000
-14.619900 0.000000
-14.599600 0.000000
-14.579300 0.000000
-14.558900 0.000000
-14.538600 0.000000
-14.518200 0.000000
-14.497900 0.000000
-14.477600 0.000000
-14.457200 0.000000
-14.436900 0.000000
-14.416500 0.000000
-14.396200 0.000000
-14.375800 0.000000
-14.355500 0.000000
-14.335200 0.000000
-14.314800 0.000000
-14.294500 0.000000
-14.274100 0.000000
-14.253800 0.000000
-14.233500 0.000000
-14.213100 0.000000
-14.192800 0.000000
-14.172400 0.000000
-14.152100 0.000000
-14.131800 0.000000
-14.111400 0.000000
-14.091100 0.000000
-14.070700 0.000000
-14.050400 0.000000
-14.030100 0.000000
-14.009700 0.000000
-13.989400 0.000000
-13.969000 0.000000
-13.948700 0.000000
-13.928400 0.000000
-13.908000 0.000000
-13.887700 0.000000
-13.867300 0.000000
-13.847000 0.000000
-13.826700 0.000000
-13.806300 0.000000
-13.786000 0.000000
-13.765600 0.000000
-13.745300 0.000000
-13.724900 0.000000
-13.704600 0.000000
-13.684300 0.000000
-13.663900 0.000000
-13.643600 0.000000
-13.623200 0.000000
-13.602900 0.000000
-13.582600 0.000000
-13.562200 0.000000
-13.541900 0.000000
-13.521500 0.000000
-13.501200 0.000000
-13.480900 0.000000
-13.460500 0.000000
-13.440200 0.000000
-13.419800 0.000000
-13.399500 0.000000
-13.379200 0.000000
-13.358800 0.000000
-13.338500 0.000000
-13.318100 0.000000
-13.297800 0.000000
-13.277500 0.000000
-13.257100 0.000000
-13.236800 0.000000
-13.216400 0.003000
-13.196100 0.438600
-13.175800 2.008100
-13.155400 3.001100
-13.135100 4.042900
-13.114700 5.363900
-13.094400 8.188200
-13.074000 13.849200
-13.053700 17.548100
-13.033400 24.453500
-13.013000 26.060800
-12.992700 21.833600
-12.972300 18.976600
-12.952000 16.478600
-12.931700 15.066600
-12.911300 14.562800
-12.891000 14.433600
-12.870600 14.260400
-12.850300 13.962300
-12.830000 10.780700
-12.809600 10.430000
-12.789300 12.242000
-12.768900 9.287100
-12.748600 7.545100
-12.728300 7.450800
-12.707900 3.790500
-12.687600 1.274100
-12.667200 2.738300
-12.646900 7.472000
-12.626600 9.205300
-12.606200 6.543700
-12.585900 8.332700
-12.565500 9.000900
-12.545200 10.445000
-12.524900 11.648000
-12.504500 10.078400
-12.484200 9.138400
-12.463800 8.715700
-12.443500 9.061400
-12.423100 9.293400
-12.402800 9.072000
-12.382500 8.940400
-12.362100 9.152900
-12.341800 9.913300
-12.321400 10.015200
-12.301100 9.800400
-12.280800 9.611000
-12.260400 9.416000
-12.240100 8.517800
-12.219700 7.316900
-12.199400 6.611600
-12.179100 6.395000
-12.158700 5.950700
-12.138400 6.918500
-12.118000 5.374800
-12.097700 4.674200
-12.077400 4.148900
-12.057000 3.649400
-12.036700 3.295800
-12.016300 3.146600
-11.996000 3.046100
-11.975700 2.950100
-11.955300 3.099100
-11.935000 3.420900
-11.914600 3.473100
-11.894300 3.392500
-11.874000 4.201600
-11.853600 4.292500
-11.833300 3.403900
-11.812900 2.574000
-11.792600 1.908700
-11.772200 1.214800
-11.751900 0.766600
-11.731600 0.647800
-11.711200 0.558300
-11.690900 0.474100
-11.670500 0.416700
-11.650200 0.402100
-11.629900 0.342700
-11.609500 0.145700
-11.589200 0.109700
-11.568800 0.079800
-11.548500 0.056000
-11.528200 0.037900
-11.507800 0.023500
-11.487500 0.012500
-11.467100 0.004900
-11.446800 0.000800
-11.426500 0.000000
-11.406100 0.000000
-11.385800 9.588600
-11.365400 13.685000
-11.345100 16.913300
-11.324800 22.969700
-11.304400 34.644200
-11.284100 2.500600
-11.263700 74.062300
-11.243400 26.465400
-11.223000 76.375700
-11.202700 0.000000
-11.182400 0.000000
-11.162000 0.000000
-11.141700 0.000000
-11.121300 20.509500
-11.101000 26.805400
-11.080700 100.354100
-11.060300 62.258600
-11.040000 119.866700
-11.019600 99.224200
-10.999300 57.440900
-10.979000 21.767000
-10.958600 55.269600
-10.938300 69.499800
-10.917900 40.389800
-10.897600 64.067200
-10.877300 58.295600
-10.856900 96.593000
-10.836600 100.041500
-10.816200 70.169700
-10.795900 61.836400
-10.775600 70.059000
-10.755200 46.994800
-10.734900 9.853200
-10.714500 6.647900
-10.694200 6.266000
-10.673900 5.939900
-10.653500 4.503300
-10.633200 4.987400
-10.612800 5.580100
-10.592500 5.913800
-10.572100 6.125000
-10.551800 5.877200
-10.531500 5.451800
-10.511100 4.927600
-10.490800 4.746600
-10.470400 4.662200
-10.450100 4.568200
-10.429800 4.448700
-10.409400 4.204400
-10.389100 4.040400
-10.368700 3.924400
-10.348400 3.823200
-10.328100 3.761700
-10.307700 3.688100
-10.287400 3.584600
-10.267000 3.486400
-10.246700 3.486900
-10.226400 3.471400
-10.206000 3.490000
-10.185700 3.622900
-10.165300 4.322900
-10.145000 4.855200
-10.124700 5.048200
-10.104300 4.525500
-10.084000 4.503900
-10.063600 4.637400
-10.043300 4.404400
-10.023000 4.341300
-10.002600 4.296200
-9.982300 4.267900
-9.961900 4.425900
-9.941600 4.569000
-9.921200 4.579200
-9.900900 4.411100
-9.880600 4.172700
-9.860200 4.085500
-9.839900 3.711900
-9.819500 2.609200
-9.799200 2.598800
-9.778900 2.861900
-9.758500 2.701100
-9.738200 2.980500
-9.717800 3.924600
-9.697500 3.819500
-9.677200 3.888600
-9.656800 4.210700
-9.636500 4.918300
-9.616100 5.216200
-9.595800 5.551000
-9.575500 5.052000
-9.555100 4.855800
-9.534800 4.981300
-9.514400 6.146300
-9.494100 6.915000
-9.473800 6.769300
-9.453400 6.392000
-9.433100 5.188300
-9.412700 5.738200
-9.392400 8.231300
-9.372100 8.370000
-9.351700 7.478300
-9.331400 6.249700
-9.311000 5.793800
-9.290700 5.536900
-9.270300 5.110900
-9.250000 4.471900
-9.229700 4.195400
-9.209300 3.977900
-9.189000 3.772700
-9.168600 3.643300
-9.148300 3.333900
-9.128000 3.024700
-9.107600 2.736400
-9.087300 2.553600
-9.066900 2.425500
-9.046600 2.294200
-9.026300 2.237500
-9.005900 2.254000
-8.985600 1.930100
-8.965200 1.797300
-8.944900 1.666700
-8.924600 1.536000
-8.904200 2.370000
-8.883900 1.260700
-8.863500 0.567200
-8.843200 0.071900
-8.822900 0.000000
-8.802500 0.000000
-8.782200 0.000000
-8.761800 0.000000
-8.741500 0.000000
-8.721200 0.000000
-8.700800 0.000000
-8.680500 0.000000
-8.660100 0.000000
-8.639800 0.000000
-8.619400 0.000000
-8.599100 0.000000
-8.578800 0.000000
-8.558400 0.000000
-8.538100 0.000000
-8.517700 0.000000
-8.497400 0.000000
-8.477100 0.000000
-8.456700 0.000000
-8.436400 0.000000
-8.416000 0.000000
-8.395700 0.000000
-8.375400 0.000000
-8.355000 0.000000
-8.334700 0.000000
-8.314300 0.000000
-8.294000 0.000000
-8.273700 0.000000
-8.253300 0.000000
-8.233000 0.000000
-8.212600 0.000000
-8.192300 0.000000
-8.172000 0.000000
-8.151600 0.000000
-8.131300 0.000000
-8.110900 0.000000
-8.090600 0.000000
-8.070300 0.000000
-8.049900 0.000000
-8.029600 0.000000
-8.009200 0.000000
-7.988900 0.000000
-7.968500 0.000000
-7.948200 0.000000
-7.927900 0.000000
-7.907500 0.000000
-7.887200 0.000000
-7.866800 0.000000
-7.846500 0.000000
-7.826200 0.000000
-7.805800 0.000000
-7.785500 0.000000
-7.765100 0.000000
-7.744800 0.000000
-7.724500 0.000000
-7.704100 0.000000
-7.683800 0.000000
-7.663400 0.000000
-7.643100 0.000000
-7.622800 0.000000
-7.602400 0.000000
-7.582100 0.000000
-7.561700 0.000000
-7.541400 0.000000
-7.521100 0.000000
-7.500700 0.000000
-7.480400 0.000000
-7.460000 0.000000
-7.439700 0.000000
-7.419400 0.000000
-7.399000 0.000000
-7.378700 0.000000
-7.358300 0.000000
-7.338000 0.000000
-7.317600 0.000000
-7.297300 0.000000
-7.277000 0.000000
-7.256600 0.000000
-7.236300 0.000000
-7.215900 0.000000
-7.195600 0.000000
-7.175300 0.000000
-7.154900 0.000000
-7.134600 0.000000
-7.114200 0.000000
-7.093900 0.000000
-7.073600 0.000000
-7.053200 0.000000
-7.032900 0.000000
-7.012500 0.000000
-6.992200 0.000000
-6.971900 0.000000
-6.951500 0.000000
-6.931200 0.000000
-6.910800 0.000000
-6.890500 0.000000
-6.870200 0.000000
-6.849800 0.000000
-6.829500 0.000000
-6.809100 0.000000
-6.788800 0.000000
-6.768500 0.000000
-6.748100 0.000000
-6.727800 0.000000
-6.707400 0.000000
-6.687100 0.000000
-6.666700 0.000000
-6.646400 0.000000
-6.626100 0.000000
-6.605700 0.000000
-6.585400 0.000000
-6.565000 0.000000
-6.544700 0.000000
-6.524400 0.000000
-6.504000 0.000000
-6.483700 0.000000
-6.463300 0.000000
-6.443000 0.000000
-6.422700 0.000000
-6.402300 0.000000
-6.382000 0.000000
-6.361600 0.000000
-6.341300 0.000000
-6.321000 0.000000
-6.300600 0.000000
-6.280300 0.000000
-6.259900 0.000000
-6.239600 0.000000
-6.219300 0.000000
-6.198900 0.000000
-6.178600 0.000000
-6.158200 0.000000
-6.137900 0.000000
-6.117600 0.000000
-6.097200 0.000000
-6.076900 0.000000
-6.056500 0.000000
-6.036200 0.000000
-6.015800 0.000000
-5.995500 0.000000
-5.975200 0.000000
-5.954800 0.000000
-5.934500 0.000000
-5.914100 0.000000
-5.893800 0.000000
-5.873500 0.000000
-5.853100 0.000000
-5.832800 0.000000
-5.812400 0.000000
-5.792100 0.000000
-5.771800 0.000000
-5.751400 0.000000
-5.731100 0.000000
-5.710700 0.000000
-5.690400 0.000000
-5.670100 0.000000
-5.649700 0.000000
-5.629400 0.000000
-5.609000 0.000000
-5.588700 0.000000
-5.568400 0.000000
-5.548000 0.000000
-5.527700 0.000000
-5.507300 0.000000
-5.487000 0.000000
-5.466700 0.000000
-5.446300 0.000000
-5.426000 0.000000
-5.405600 0.000000
-5.385300 0.000000
-5.364900 0.000000
-5.344600 0.000000
-5.324300 0.000000
-5.303900 0.000000
-5.283600 0.000000
-5.263200 0.000000
-5.242900 0.000000
-5.222600 0.000000
-5.202200 0.000000
-5.181900 0.000000
-5.161500 0.000000
-5.141200 0.000000
-5.120900 0.000000
-5.100500 0.000000
-5.080200 0.000000
-5.059800 0.000000
-5.039500 0.000000
-5.019200 0.000000
-4.998800 0.000000
-4.978500 0.000000
-4.958100 0.000000
-4.937800 0.000000
-4.917500 0.000000
-4.897100 0.000000
-4.876800 0.000000
-4.856400 0.000000
-4.836100 0.000000
-4.815800 0.000000
-4.795400 0.000000
-4.775100 0.000000
-4.754700 0.000000
-4.734400 0.000000
-4.714000 0.000000
-4.693700 0.000000
-4.673400 0.000000
-4.653000 0.000000
-4.632700 0.000000
-4.612300 0.000000
-4.592000 0.000000
-4.571700 0.000000
-4.551300 0.000000
-4.531000 0.000000
-4.510600 0.000000
-4.490300 0.000000
-4.470000 0.000000
-4.449600 0.000000
-4.429300 0.000000
-4.408900 0.000000
-4.388600 0.000000
-4.368300 0.000000
-4.347900 0.000000
-4.327600 0.000000
-4.307200 0.000000
-4.286900 0.000000
-4.266600 0.000000
-4.246200 0.000000
-4.225900 0.000000
-4.205500 0.000000
-4.185200 0.000000
-4.164800 0.000000
-4.144500 0.000000
-4.124200 0.000000
-4.103800 0.000000
-4.083500 0.000000
-4.063100 0.000000
-4.042800 0.000000
-4.022500 0.000000
-4.002100 0.000000
-3.981800 0.000000
-3.961400 0.000000
-3.941100 0.000000
-3.920800 0.000000
-3.900400 0.000000
-3.880100 0.000000
-3.859700 0.000000
-3.839400 0.000000
-3.819100 0.000000
-3.798700 0.000000
-3.778400 0.000000
-3.758000 0.000000
-3.737700 0.000000
-3.717400 0.000000
-3.697000 0.000000
-3.676700 0.000000
-3.656300 0.000000
-3.636000 0.000000
-3.615700 0.000000
-3.595300 0.000000
-3.575000 0.000000
-3.554600 0.000000
-3.534300 0.000000
-3.513900 0.000000
-3.493600 0.000000
-3.473300 0.000000
-3.452900 0.000000
-3.432600 0.000000
-3.412200 0.000000
-3.391900 0.000000
-3.371600 0.015000
-3.351200 0.273700
-3.330900 0.774700
-3.310500 1.291900
-3.290200 1.494100
-3.269900 1.410400
-3.249500 1.652600
-3.229200 1.849900
-3.208800 2.341200
-3.188500 3.631400
-3.168200 5.106500
-3.147800 5.352300
-3.127500 5.339100
-3.107100 5.363800
-3.086800 5.191500
-3.066500 4.697800
-3.046100 4.688400
-3.025800 4.336800
-3.005400 3.962400
-2.985100 4.068300
-2.964800 4.189000
-2.944400 4.482000
-2.924100 4.824200
-2.903700 4.862900
-2.883400 4.862900
-2.863000 4.491600
-2.842700 4.292400
-2.822400 3.928500
-2.802000 3.394900
-2.781700 2.908000
-2.761300 2.786100
-2.741000 2.738100
-2.720700 2.691300
-2.700300 2.653500
-2.680000 2.717100
-2.659600 2.898600
-2.639300 3.515100
-2.619000 4.327800
-2.598600 4.544900
-2.578300 4.934500
-2.557900 4.901500
-2.537600 4.621700
-2.517300 4.370300
-2.496900 4.224200
-2.476600 4.027300
-2.456200 3.986000
-2.435900 3.912500
-2.415600 3.701100
-2.395200 3.674800
-2.374900 3.290600
-2.354500 3.060000
-2.334200 2.795100
-2.313900 2.700900
-2.293500 2.655800
-2.273200 2.615600
-2.252800 2.617400
-2.232500 2.603800
-2.212100 2.853600
-2.191800 3.201300
-2.171500 3.581300
-2.151100 3.811100
-2.130800 3.579800
-2.110400 3.117000
-2.090100 3.052900
-2.069800 3.094000
-2.049400 3.088600
-2.029100 3.316500
-2.008700 3.559300
-1.988400 3.632900
-1.968100 3.757600
-1.947700 3.867500
-1.927400 3.929200
-1.907000 4.259000
-1.886700 4.460900
-1.866400 4.540000
-1.846000 4.459500
-1.825700 4.139100
-1.805300 3.914800
-1.785000 3.727400
-1.764700 3.550500
-1.744300 3.293400
-1.724000 3.107300
-1.703600 3.088100
-1.683300 2.855500
-1.663000 2.613900
-1.642600 2.452800
-1.622300 2.244800
-1.601900 2.110900
-1.581600 2.045800
-1.561200 2.117900
-1.540900 2.297700
-1.520600 2.491100
-1.500200 2.631300
-1.479900 2.737600
-1.459500 2.833100
-1.439200 3.090000
-1.418900 3.170100
-1.398500 3.407100
-1.378200 3.342500
-1.357800 3.148100
-1.337500 3.020400
-1.317200 2.871300
-1.296800 2.666500
-1.276500 2.480900
-1.256100 2.330400
-1.235800 2.255200
-1.215500 2.212600
-1.195100 2.743800
-1.174800 2.016800
-1.154400 1.820600
-1.134100 1.655700
-1.113800 1.545600
-1.093400 1.484000
-1.073100 1.423000
-1.052700 1.360800
-1.032400 1.300300
-1.012100 1.242100
-0.991700 1.186500
-0.971400 1.204100
-0.951000 1.282600
-0.930700 1.122600
-0.910300 1.045100
-0.890000 0.957100
-0.869700 0.918800
-0.849300 0.887500
-0.829000 0.874500
-0.808600 0.853000
-0.788300 0.813500
-0.768000 0.754700
-0.747600 0.697000
-0.727300 0.648200
-0.706900 0.609600
-0.686600 0.572500
-0.666300 0.530900
-0.645900 0.482900
-0.625600 0.449300
-0.605200 0.423700
-0.584900 0.399300
-0.564600 0.376900
-0.544200 0.356600
-0.523900 0.337100
-0.503500 0.318400
-0.483200 0.299900
-0.462900 0.281500
-0.442500 0.263100
-0.422200 0.244700
-0.401800 0.226400
-0.381500 0.221800
-0.361200 0.233400
-0.340800 0.226800
-0.320500 0.209900
-0.300100 0.187100
-0.279800 0.091800
-0.259400 0.077500
-0.239100 0.064200
-0.218800 0.051900
-0.198400 0.040600
-0.178100 0.030200
-0.157700 0.020900
-0.137400 0.013100
-0.117100 0.007200
-0.096700 0.003000
-0.076400 0.000600
-0.056000 0.000000
-0.035700 0.000000
-0.015400 0.000000
0.005000 0.000000
0.025300 0.000000
0.045700 0.007800
0.066000 0.037800
0.086300 0.078300
0.106700 0.134000
0.127000 0.200400
0.147400 0.276000
0.167700 0.345200
0.188000 0.432600
0.208400 0.589800
0.228700 0.782600
0.249100 0.977300
0.269400 0.954100
0.289700 1.034900
0.310100 1.155000
0.330400 1.242100
0.350800 1.287600
0.371100 1.126700
0.391500 1.186800
0.411800 1.246200
0.432100 1.398500
0.452500 1.531000
0.472800 1.552900
0.493200 1.622400
0.513500 1.695900
0.533800 1.792800
0.554200 2.065700
0.574500 2.370000
0.594900 2.770600
0.615200 2.774100
0.635500 3.053200
0.655900 3.173400
0.676200 3.257500
0.696600 3.401500
0.716900 3.578000
0.737200 3.833800
0.757600 4.166700
0.777900 4.642800
0.798300 4.995000
0.818600 5.009500
0.838900 5.041900
0.859300 5.029000
0.879600 4.804000
0.900000 4.802100
0.920300 4.704200
0.940600 4.512200
0.961000 4.246800
0.981300 4.427600
1.001700 4.194700
1.022000 4.076400
1.042400 4.195300
1.062700 4.547500
1.083000 5.920200
1.103400 6.110700
1.123700 5.589600
1.144100 5.293800
1.164400 4.834300
1.184700 4.309500
1.205100 4.295600
1.225400 4.871700
1.245800 5.155900
1.266100 4.969200
1.286400 4.684700
1.306800 4.911500
1.327100 5.382500
1.347500 6.088700
1.367800 7.424800
1.388100 8.145500
1.408500 8.542300
1.428800 8.522200
1.449200 9.037800
1.469500 10.418000
1.489800 10.667400
1.510200 8.063700
1.530500 7.084300
1.550900 6.398500
1.571200 6.141100
1.591500 5.826500
1.611900 5.651700
1.632200 5.969300
1.652600 6.984700
1.672900 7.719300
1.693300 8.935300
1.713600 7.473600
1.733900 7.795600
1.754300 8.750900
1.774600 9.344200
1.795000 9.934000
1.815300 10.575500
1.835600 10.904700
1.856000 10.713000
1.876300 9.315900
1.896700 8.457800
1.917000 9.185500
1.937300 8.754100
1.957700 7.868700
1.978000 8.257600
1.998400 9.225100
2.018700 9.732400
2.039000 9.156400
2.059400 8.828600
2.079700 7.923300
2.100100 7.657300
2.120400 6.947700
2.140700 6.144200
2.161100 5.969200
2.181400 5.566900
2.201800 5.823000
2.222100 6.183800
2.242500 8.149400
2.262800 6.709300
2.283100 6.292200
2.303500 6.176500
2.323800 6.091500
2.344200 6.361800
2.364500 6.186700
2.384800 6.712300
2.405200 6.420700
2.425500 6.133900
2.445900 5.970800
2.466200 6.263500
2.486500 6.610500
2.506900 6.401700
2.527200 6.040800
2.547600 5.505900
2.567900 5.254100
2.588200 5.340800
2.608600 5.596000
2.628900 5.887000
2.649300 5.644000
2.669600 5.784400
2.689900 6.517500
2.710300 6.952500
2.730600 7.154500
2.751000 7.441700
2.771300 7.336400
2.791600 6.903100
2.812000 6.647900
2.832300 6.982400
2.852700 7.819600
2.873000 7.436800
2.893400 8.315400
2.913700 7.867200
2.934000 8.166600
2.954400 7.190600
2.974700 6.917600
2.995100 6.627900
3.015400 6.648000
3.035700 6.540900
3.056100 6.219300
3.076400 5.975600
3.096800 5.913700
3.117100 5.954900
3.137400 6.321500
3.157800 6.059200
3.178100 5.786300
3.198500 5.475500
3.218800 5.639800
3.239100 6.144300
3.259500 7.033800
3.279800 7.625400
3.300200 8.496900
3.320500 9.982200
3.340800 10.714100
3.361200 11.026200
3.381500 10.389900
3.401900 8.677400
3.422200 7.876500
3.442500 7.995000
3.462900 8.442600
3.483200 8.147300
3.503600 8.445200
3.523900 9.773300
3.544300 10.971500
3.564600 12.661100
3.584900 12.706900
3.605300 12.282800
3.625600 11.321600
3.646000 6.368600
3.666300 5.985300
3.686600 8.491800
3.707000 8.922100
3.727300 9.669900
3.747700 9.744800
3.768000 10.091500
3.788300 10.597900
3.808700 10.434000
3.829000 10.138700
3.849400 10.598100
3.869700 10.901200
3.890000 9.857900
3.910400 8.733000
3.930700 7.844300
3.951100 7.587600
3.971400 7.358300
3.991700 7.577900
4.012100 10.087800
4.032400 13.766000
4.052800 13.432400
4.073100 12.286400
4.093400 10.078400
4.113800 10.440700
4.134100 17.495000
4.154500 15.629000
4.174800 15.323300
4.195200 12.391300
4.215500 10.447900
4.235800 10.317000
4.256200 10.632400
4.276500 8.947300
4.296900 8.153300
4.317200 8.107600
4.337500 10.797200
4.357900 14.022400
4.378200 12.697600
4.398600 10.916600
4.418900 9.104000
4.439200 4.306900
4.459600 4.144900
4.479900 3.986200
4.500300 3.929100
4.520600 4.010100
4.540900 4.353600
4.561300 6.106400
4.581600 5.462200
4.602000 5.501300
4.622300 5.441100
4.642600 5.859800
4.663000 5.991400
4.683300 6.027400
4.703700 6.028600
4.724000 5.890700
4.744300 5.411700
4.764700 5.070000
4.785000 4.834500
4.805400 3.962500
4.825700 2.672100
4.846100 2.090500
4.866400 1.767300
4.886700 1.591800
4.907100 1.350400
4.927400 1.267800
4.947800 1.220100
4.968100 1.138000
4.988400 1.043500
5.008800 0.974200
5.029100 0.914900
5.049500 0.869400
5.069800 0.854200
5.090100 0.897300
5.110500 0.818400
5.130800 0.752000
5.151200 0.771400
5.171500 0.902100
5.191800 0.774300
5.212200 0.771900
5.232500 0.792100
5.252900 0.859600
5.273200 0.929300
5.293500 0.991900
5.313900 1.049800
5.334200 1.103200
5.354600 1.147400
5.374900 1.224000
5.395200 1.318600
5.415600 1.368300
5.435900 1.380900
5.456300 1.368700
5.476600 1.343100
5.497000 1.331500
5.517300 1.335900
5.537600 1.349900
5.558000 1.369000
5.578300 1.392700
5.598700 1.421200
5.619000 1.444400
5.639300 1.468200
5.659700 1.482600
5.680000 1.472900
5.700400 1.423200
5.720700 1.358300
5.741000 1.285700
5.761400 1.216700
5.781700 1.179100
5.802100 1.189100
5.822400 1.238100
5.842700 1.324600
5.863100 1.426300
5.883400 1.554800
5.903800 1.564900
5.924100 1.578600
5.944400 1.651600
5.964800 2.073200
