set title 'mp-571030 - Density of States'
set xlabel 'Energy (eV)'
set ylabel 'DOS (states/eV)'
set grid
set xrange [-10:10]
set yrange [0:109.861]
set xzeroaxis lt -1
set terminal png size 800,600
set output 'mp-571030_dos_gnuplot.png'
plot '-' using 1:2 with lines title 'DOS'
-6.948300 0.000000
-6.931800 0.000000
-6.915400 0.000000
-6.898900 0.000000
-6.882500 0.000000
-6.866100 0.000000
-6.849600 0.000000
-6.833200 0.000000
-6.816800 0.000000
-6.800300 0.000000
-6.783900 0.000000
-6.767400 0.000000
-6.751000 0.000000
-6.734600 0.000000
-6.718100 0.000000
-6.701700 0.000000
-6.685300 0.000000
-6.668800 0.000000
-6.652400 0.000000
-6.635900 0.000000
-6.619500 0.000000
-6.603100 0.000000
-6.586600 0.000000
-6.570200 0.000000
-6.553800 0.000000
-6.537300 0.000000
-6.520900 0.000000
-6.504400 0.000000
-6.488000 0.000000
-6.471600 0.000000
-6.455100 0.000000
-6.438700 0.000000
-6.422300 0.000000
-6.405800 0.000000
-6.389400 0.000000
-6.372900 0.000000
-6.356500 0.000000
-6.340100 0.000000
-6.323600 0.000000
-6.307200 0.000000
-6.290800 0.000000
-6.274300 0.000000
-6.257900 0.000000
-6.241500 0.000000
-6.225000 0.000000
-6.208600 0.000000
-6.192100 0.000000
-6.175700 0.000000
-6.159300 0.000000
-6.142800 0.000000
-6.126400 0.000000
-6.110000 0.000000
-6.093500 0.000000
-6.077100 0.000000
-6.060600 0.000000
-6.044200 0.000000
-6.027800 0.000000
-6.011300 0.000000
-5.994900 0.000000
-5.978500 0.000000
-5.962000 0.000000
-5.945600 0.000000
-5.929100 0.000000
-5.912700 0.000000
-5.896300 0.000000
-5.879800 0.000000
-5.863400 0.000000
-5.847000 0.000000
-5.830500 0.000000
-5.814100 0.000000
-5.797600 0.000000
-5.781200 0.000000
-5.764800 0.000000
-5.748300 0.000000
-5.731900 0.000000
-5.715500 0.000000
-5.699000 0.000000
-5.682600 0.000000
-5.666100 0.000000
-5.649700 0.000000
-5.633300 0.000000
-5.616800 0.000000
-5.600400 0.000000
-5.584000 0.000000
-5.567500 0.000000
-5.551100 0.000000
-5.534600 0.000000
-5.518200 0.000000
-5.501800 0.000000
-5.485300 0.000000
-5.468900 0.000000
-5.452500 0.194100
-5.436000 1.462800
-5.419600 2.412200
-5.403200 11.080700
-5.386700 20.356500
-5.370300 61.694100
-5.353800 50.115100
-5.337400 75.367600
-5.321000 99.873800
-5.304500 53.547600
-5.288100 30.943300
-5.271700 44.478800
-5.255200 20.472100
-5.238800 21.326400
-5.222300 24.996000
-5.205900 38.977800
-5.189500 9.178700
-5.173000 0.000000
-5.156600 0.000000
-5.140200 0.000000
-5.123700 0.000000
-5.107300 0.000000
-5.090800 0.000000
-5.074400 0.000000
-5.058000 0.000000
-5.041500 0.000000
-5.025100 0.000000
-5.008700 0.000000
-4.992200 0.000000
-4.975800 0.000000
-4.959300 0.000000
-4.942900 0.000000
-4.926500 0.000000
-4.910000 0.000000
-4.893600 0.000000
-4.877200 0.000000
-4.860700 0.000000
-4.844300 0.000000
-4.827800 0.000000
-4.811400 0.000000
-4.795000 0.000000
-4.778500 0.000000
-4.762100 0.000000
-4.745700 0.000000
-4.729200 0.000000
-4.712800 0.000000
-4.696300 0.000000
-4.679900 0.000000
-4.663500 0.000000
-4.647000 0.000000
-4.630600 0.000000
-4.614200 0.000000
-4.597700 0.000000
-4.581300 0.000000
-4.564900 0.000000
-4.548400 0.000000
-4.532000 0.000000
-4.515500 0.000000
-4.499100 0.000000
-4.482700 0.000000
-4.466200 0.000000
-4.449800 0.000000
-4.433400 0.000000
-4.416900 0.000000
-4.400500 0.000000
-4.384000 0.000000
-4.367600 0.000000
-4.351200 0.000000
-4.334700 0.000000
-4.318300 0.000000
-4.301900 0.000000
-4.285400 0.000000
-4.269000 0.000000
-4.252500 0.000000
-4.236100 0.000000
-4.219700 0.000000
-4.203200 0.000000
-4.186800 0.000000
-4.170400 0.000000
-4.153900 0.000000
-4.137500 0.000000
-4.121000 0.000000
-4.104600 0.000000
-4.088200 0.000000
-4.071700 0.000000
-4.055300 0.000000
-4.038900 0.000000
-4.022400 0.000000
-4.006000 0.000000
-3.989500 0.000000
-3.973100 0.000000
-3.956700 0.000000
-3.940200 0.000000
-3.923800 0.000000
-3.907400 0.000000
-3.890900 0.000000
-3.874500 0.000000
-3.858000 0.000000
-3.841600 0.000000
-3.825200 0.000000
-3.808700 0.000000
-3.792300 0.000000
-3.775900 0.000000
-3.759400 0.000000
-3.743000 0.000000
-3.726600 0.000000
-3.710100 0.000000
-3.693700 0.000000
-3.677200 0.000000
-3.660800 0.000000
-3.644400 0.000000
-3.627900 0.000000
-3.611500 0.000000
-3.595100 0.000000
-3.578600 0.000000
-3.562200 0.000000
-3.545700 0.000000
-3.529300 0.000000
-3.512900 0.000000
-3.496400 0.000000
-3.480000 0.000000
-3.463600 0.000000
-3.447100 0.000000
-3.430700 0.000000
-3.414200 0.000000
-3.397800 0.000000
-3.381400 0.000000
-3.364900 0.000000
-3.348500 0.000000
-3.332100 0.000000
-3.315600 0.000000
-3.299200 0.000000
-3.282700 0.000000
-3.266300 0.000000
-3.249900 0.000000
-3.233400 0.000000
-3.217000 0.000000
-3.200600 0.000000
-3.184100 0.000000
-3.167700 0.000000
-3.151200 0.000000
-3.134800 0.000000
-3.118400 0.000000
-3.101900 0.000000
-3.085500 0.000000
-3.069100 0.000000
-3.052600 0.000000
-3.036200 0.000000
-3.019800 0.002700
-3.003300 0.022900
-2.986900 0.062900
-2.970400 0.102900
-2.954000 0.098300
-2.937600 0.111200
-2.921100 0.126200
-2.904700 0.143400
-2.888300 0.161500
-2.871800 0.174000
-2.855400 0.179300
-2.838900 0.185000
-2.822500 0.192600
-2.806100 0.200900
-2.789600 0.210300
-2.773200 0.220000
-2.756800 0.230100
-2.740300 0.240700
-2.723900 0.251100
-2.707400 0.259400
-2.691000 0.266600
-2.674600 0.272800
-2.658100 0.279400
-2.641700 0.285800
-2.625300 0.292700
-2.608800 0.299600
-2.592400 0.306700
-2.575900 0.314600
-2.559500 0.323600
-2.543100 0.332400
-2.526600 0.341500
-2.510200 0.349700
-2.493800 0.357600
-2.477300 0.365700
-2.460900 0.372300
-2.444400 0.378700
-2.428000 0.385300
-2.411600 0.392200
-2.395100 0.399500
-2.378700 0.407400
-2.362300 0.415500
-2.345800 0.423800
-2.329400 0.432100
-2.312900 0.440500
-2.296500 0.449000
-2.280100 0.457700
-2.263600 0.466300
-2.247200 0.474700
-2.230800 0.483200
-2.214300 0.491800
-2.197900 0.501700
-2.181500 0.510900
-2.165000 0.519700
-2.148600 0.528700
-2.132100 0.538200
-2.115700 0.548100
-2.099300 0.558200
-2.082800 0.568400
-2.066400 0.578700
-2.050000 0.589100
-2.033500 0.599700
-2.017100 0.610500
-2.000600 0.621800
-1.984200 0.634000
-1.967800 0.646900
-1.951300 0.660200
-1.934900 0.673600
-1.918500 0.687100
-1.902000 0.700900
-1.885600 0.714900
-1.869100 0.729300
-1.852700 0.744300
-1.836300 0.759700
-1.819800 0.776300
-1.803400 0.793300
-1.787000 0.811800
-1.770500 0.832000
-1.754100 0.852300
-1.737600 0.873500
-1.721200 0.895400
-1.704800 0.919200
-1.688300 0.944600
-1.671900 0.971200
-1.655500 0.999500
-1.639000 1.029900
-1.622600 1.062800
-1.606100 1.098200
-1.589700 1.136800
-1.573300 1.187400
-1.556800 1.247900
-1.540400 1.292400
-1.524000 1.344200
-1.507500 1.381800
-1.491100 1.405700
-1.474600 1.425200
-1.458200 1.457900
-1.441800 1.518200
-1.425300 1.576500
-1.408900 1.629700
-1.392500 1.679400
-1.376000 1.737800
-1.359600 1.803900
-1.343200 1.878600
-1.326700 1.963800
-1.310300 2.061300
-1.293800 2.182700
-1.277400 2.355400
-1.261000 2.601800
-1.244500 3.052700
-1.228100 3.477100
-1.211700 3.465900
-1.195200 3.476300
-1.178800 3.529200
-1.162300 3.637600
-1.145900 3.815600
-1.129500 3.966700
-1.113000 3.618400
-1.096600 3.580300
-1.080200 3.740700
-1.063700 5.044600
-1.047300 1.349500
-1.030800 0.000000
-1.014400 0.000000
-0.998000 0.000000
-0.981500 0.000000
-0.965100 0.000000
-0.948700 0.000000
-0.932200 0.000000
-0.915800 0.000000
-0.899300 0.000000
-0.882900 0.000000
-0.866500 0.000000
-0.850000 0.000000
-0.833600 0.000000
-0.817200 0.000000
-0.800700 0.000000
-0.784300 0.000000
-0.767800 0.000000
-0.751400 0.000000
-0.735000 0.000000
-0.718500 0.000000
-0.702100 0.000000
-0.685700 0.000000
-0.669200 0.000000
-0.652800 0.000000
-0.636300 0.000000
-0.619900 0.000000
-0.603500 0.000000
-0.587000 0.000000
-0.570600 0.000000
-0.554200 0.000000
-0.537700 0.000000
-0.521300 0.000000
-0.504900 0.000000
-0.488400 0.000000
-0.472000 0.000000
-0.455500 0.000000
-0.439100 0.000000
-0.422700 0.000000
-0.406200 0.000000
-0.389800 0.000000
-0.373400 0.000000
-0.356900 0.000000
-0.340500 0.000000
-0.324000 0.000000
-0.307600 0.000000
-0.291200 0.000000
-0.274700 0.000000
-0.258300 0.000000
-0.241900 0.000000
-0.225400 0.000000
-0.209000 0.000000
-0.192500 0.000000
-0.176100 0.000000
-0.159700 0.000000
-0.143200 0.000000
-0.126800 0.000000
-0.110400 0.000000
-0.093900 0.000000
-0.077500 0.000000
-0.061000 0.000000
-0.044600 0.000000
-0.028200 0.000000
-0.011700 0.000000
0.004700 0.000000
0.021100 0.000000
0.037600 0.000000
0.054000 0.000000
0.070500 0.000000
0.086900 0.000000
0.103300 0.000000
0.119800 0.000000
0.136200 0.000000
0.152600 0.000000
0.169100 0.000000
0.185500 0.000000
0.202000 0.000000
0.218400 0.000000
0.234800 0.000000
0.251300 0.000000
0.267700 0.000000
0.284100 0.000000
0.300600 0.000000
0.317000 0.000000
0.333400 0.000000
0.349900 0.000000
0.366300 0.000000
0.382800 0.000000
0.399200 0.000000
0.415600 0.000000
0.432100 0.000000
0.448500 0.000000
0.464900 0.000000
0.481400 0.000000
0.497800 0.000000
0.514300 0.000000
0.530700 0.000000
0.547100 0.000000
0.563600 0.000000
0.580000 0.000000
0.596400 0.000000
0.612900 0.000000
0.629300 0.000000
0.645800 0.000000
0.662200 0.000000
0.678600 0.000000
0.695100 0.000000
0.711500 0.000000
0.727900 0.000000
0.744400 0.000000
0.760800 0.000000
0.777300 0.000000
0.793700 0.000000
0.810100 0.000000
0.826600 0.000000
0.843000 0.000000
0.859400 0.000000
0.875900 0.000000
0.892300 0.000000
0.908800 0.000000
0.925200 0.000000
0.941600 0.000000
0.958100 0.000000
0.974500 0.000000
0.990900 0.040100
1.007400 0.214600
1.023800 0.306500
1.040300 0.290800
1.056700 0.319200
1.073100 0.360700
1.089600 0.404900
1.106000 0.411400
1.122400 0.427500
1.138900 0.487200
1.155300 0.573300
1.171700 0.670200
1.188200 0.769700
1.204600 0.900500
1.221100 1.145900
1.237500 1.419100
1.253900 1.596300
1.270400 1.775700
1.286800 1.996800
1.303200 2.312200
1.319700 2.523100
1.336100 2.913100
1.352600 3.376500
1.369000 3.722800
1.385400 3.698800
1.401900 3.642400
1.418300 3.609700
1.434700 3.538200
1.451200 3.544400
1.467600 3.603100
1.484100 3.701100
1.500500 3.659900
1.516900 3.665400
1.533400 3.645800
1.549800 3.602100
1.566200 3.592800
1.582700 3.646900
1.599100 3.773000
1.615600 3.736800
1.632000 3.322300
1.648400 2.939500
1.664900 2.701500
1.681300 2.572000
1.697700 2.423000
1.714200 2.266800
1.730600 2.122100
1.747100 1.991700
1.763500 1.889700
1.779900 1.780500
1.796400 1.668100
1.812800 1.578600
1.829200 1.508500
1.845700 1.465700
1.862100 1.428900
1.878600 1.395900
1.895000 1.473400
1.911400 1.577400
1.927900 1.669300
1.944300 1.791600
1.960700 1.739500
1.977200 1.625100
1.993600 1.559600
2.010000 1.607000
2.026500 1.685800
2.042900 1.763000
2.059400 1.932900
2.075800 2.400800
2.092200 3.245200
2.108700 4.338400
2.125100 5.228800
2.141500 5.283300
2.158000 5.393100
2.174400 5.583100
2.190900 5.727200
2.207300 5.707200
2.223700 5.661000
2.240200 5.804500
2.256600 6.196200
2.273000 6.439900
2.289500 6.880100
2.305900 6.773600
2.322400 7.010200
2.338800 6.562800
2.355200 6.643000
2.371700 7.866000
2.388100 8.341000
2.404500 9.828600
2.421000 12.863600
2.437400 12.518300
2.453900 11.604800
2.470300 10.472200
2.486700 10.018300
2.503200 8.971000
2.519600 8.977400
2.536000 9.872000
2.552500 11.787100
2.568900 13.026100
2.585400 13.187800
2.601800 11.653200
2.618200 10.314100
2.634700 9.502400
2.651100 9.180500
2.667500 10.509300
2.684000 12.358900
2.700400 12.431300
2.716900 9.951000
2.733300 9.199800
2.749700 8.913300
2.766200 8.848500
2.782600 8.908600
2.799000 8.945100
2.815500 8.186200
2.831900 7.850200
2.848300 7.810600
2.864800 7.441400
2.881200 7.001800
2.897700 6.731600
2.914100 6.939200
2.930500 7.701900
2.947000 8.414300
2.963400 7.872700
2.979800 8.704600
2.996300 8.150900
3.012700 6.570700
3.029200 5.299000
3.045600 4.361500
3.062000 4.149400
3.078500 4.920100
3.094900 7.811800
3.111300 8.438800
3.127800 8.048600
3.144200 7.919800
3.160700 7.455100
3.177100 7.493000
3.193500 7.301100
3.210000 7.139700
3.226400 6.871100
3.242800 6.486900
3.259300 5.821800
3.275700 5.751300
3.292200 7.201000
3.308600 7.809100
3.325000 7.884300
3.341500 8.918000
3.357900 9.848400
3.374300 9.930000
3.390800 9.723000
3.407200 10.167600
3.423700 10.635700
3.440100 10.593000
3.456500 10.365500
3.473000 10.436800
3.489400 10.359800
3.505800 9.722800
3.522300 7.324400
3.538700 6.573400
3.555200 6.344500
3.571600 6.828500
3.588000 7.444300
3.604500 7.710300
3.620900 7.102800
3.637300 6.007500
3.653800 5.474900
3.670200 5.011500
3.686600 5.087700
3.703100 5.919200
3.719500 6.960200
3.736000 8.737900
3.752400 8.657700
3.768800 7.656800
3.785300 6.743000
3.801700 6.458400
3.818100 6.227000
3.834600 6.037300
3.851000 5.746900
3.867500 6.250800
3.883900 7.010000
3.900300 7.296600
3.916800 7.539400
3.933200 7.230900
3.949600 6.959300
3.966100 6.777800
3.982500 6.793800
3.999000 6.653700
4.015400 7.099800
4.031800 7.684300
4.048300 7.794400
4.064700 7.702300
4.081100 7.322400
4.097600 6.931300
4.114000 6.682200
4.130500 6.701700
4.146900 6.361200
4.163300 6.115600
4.179800 6.184800
4.196200 6.298000
4.212600 6.871200
4.229100 8.946300
4.245500 8.410100
4.262000 8.205500
4.278400 8.418400
4.294800 8.571300
4.311300 8.680300
4.327700 9.639900
4.344100 9.789000
4.360600 10.259000
4.377000 11.227700
4.393500 10.367100
4.409900 8.646800
4.426300 8.049300
4.442800 8.208100
4.459200 8.060700
4.475600 7.653200
4.492100 7.247900
4.508500 6.751500
4.524900 6.371700
4.541400 6.228500
4.557800 6.243600
4.574300 6.380500
4.590700 6.834300
4.607100 7.792800
4.623600 8.555100
4.640000 9.515000
4.656400 9.583300
4.672900 10.709400
4.689300 14.452800
4.705800 16.304800
4.722200 15.167900
4.738600 12.753700
4.755100 11.254500
4.771500 10.341400
4.787900 9.716500
4.804400 9.474500
4.820800 8.675600
4.837300 8.578500
4.853700 8.804200
4.870100 9.641800
4.886600 11.231500
4.903000 15.435500
4.919400 13.910800
4.935900 12.347800
4.952300 10.602200
4.968800 9.441800
4.985200 9.019500
5.001600 8.687000
5.018100 7.728200
5.034500 5.779500
5.050900 4.033700
5.067400 3.814600
5.083800 3.639200
5.100300 3.546800
5.116700 3.502700
5.133100 3.485900
5.149600 3.451200
5.166000 3.517900
5.182400 3.782700
5.198900 3.720900
5.215300 3.716300
5.231800 3.720600
5.248200 3.834300
5.264600 4.040400
5.281100 4.262400
5.297500 4.569700
5.313900 4.934400
5.330400 6.502900
5.346800 3.475600
5.363200 2.818400
5.379700 3.109700
5.396100 5.273000
5.412600 8.789500
5.429000 8.100300
5.445400 7.391800
5.461900 7.012100
5.478300 7.616500
5.494700 10.194700
5.511200 10.252400
5.527600 9.847300
5.544100 9.880300
5.560500 10.574600
5.576900 10.614000
5.593400 9.752100
5.609800 7.317200
5.626200 4.527200
5.642700 3.452100
5.659100 4.249500
5.675600 5.577900
5.692000 3.570200
5.708400 2.487800
5.724900 2.245800
5.741300 2.297800
5.757700 2.344900
5.774200 2.357700
5.790600 2.396000
5.807100 2.470600
5.823500 2.402100
5.839900 2.198700
5.856400 2.033200
5.872800 1.939600
5.889200 1.872300
5.905700 1.827000
5.922100 1.790900
5.938600 1.756300
5.955000 1.720500
5.971400 1.705600
5.987900 1.664000
6.004300 1.629600
6.020700 1.595300
6.037200 1.563000
6.053600 1.536500
6.070100 1.512300
6.086500 1.491800
6.102900 1.473700
6.119400 1.456400
6.135800 1.439100
6.152200 1.421600
6.168700 1.404600
6.185100 1.388500
6.201500 1.374000
6.218000 1.360500
6.234400 1.347100
6.250900 1.333900
6.267300 1.321400
6.283700 1.311200
6.300200 1.301500
6.316600 1.292200
6.333000 1.283400
6.349500 1.275500
6.365900 1.268400
6.382400 1.261700
6.398800 1.255400
6.415200 1.249700
6.431700 1.245200
6.448100 1.240800
6.464500 1.236900
6.481000 1.233200
6.497400 1.230000
6.513900 1.227500
6.530300 1.225800
6.546700 1.225400
6.563200 1.226800
6.579600 1.229900
6.596000 1.231900
6.612500 1.229900
6.628900 1.223300
6.645400 1.216300
6.661800 1.212100
6.678200 1.211400
6.694700 1.214500
6.711100 1.222300
6.727500 1.231800
6.744000 1.243500
6.760400 1.264300
6.776900 1.302200
6.793300 1.332900
6.809700 1.386800
6.826200 1.501900
6.842600 1.603200
6.859000 1.658500
6.875500 1.673900
6.891900 1.586200
6.908400 1.568100
6.924800 1.522000
6.941200 1.537100
6.957700 1.542900
6.974100 1.554500
6.990500 1.571000
7.007000 1.546300
7.023400 1.529400
7.039800 1.530600
7.056300 1.536500
7.072700 1.545800
7.089200 1.548200
7.105600 1.540600
7.122000 1.532800
7.138500 1.525000
7.154900 1.518200
7.171300 1.514100
7.187800 1.511700
7.204200 1.507700
7.220700 1.502700
7.237100 1.498300
7.253500 1.493600
7.270000 1.488600
7.286400 1.481700
7.302800 1.474300
7.319300 1.469600
7.335700 1.465600
7.352200 1.461400
7.368600 1.458000
7.385000 1.455800
7.401500 1.451000
7.417900 1.443700
7.434300 1.436000
7.450800 1.429300
7.467200 1.422300
7.483700 1.416100
7.500100 1.410400
7.516500 1.404400
7.533000 1.393100
7.549400 1.383800
7.565800 1.376400
7.582300 1.370900
7.598700 1.366300
7.615200 1.362100
7.631600 1.358000
7.648000 1.353300
7.664500 1.349100
7.680900 1.344600
7.697300 1.338400
7.713800 1.331100
7.730200 1.328200
7.746700 1.324900
7.763100 1.321200
7.779500 1.317400
7.796000 1.313300
7.812400 1.308900
7.828800 1.304600
7.845300 1.300400
7.861700 1.296400
7.878100 1.292700
7.894600 1.289400
7.911000 1.286700
7.927500 1.286800
7.943900 1.285200
7.960300 1.281900
7.976800 1.278200
7.993200 1.274400
8.009600 1.271100
8.026100 1.269300
8.042500 1.268900
8.059000 1.268400
8.075400 1.266200
8.091800 1.262400
8.108300 1.257400
8.124700 1.254800
8.141100 1.255400
8.157600 1.259200
8.174000 1.257200
8.190500 1.245300
8.206900 1.236100
8.223300 1.228700
8.239800 1.222700
8.256200 1.218300
8.272600 1.214300
8.289100 1.210800
8.305500 1.207500
8.322000 1.204500
8.338400 1.201700
8.354800 1.200800
8.371300 1.204300
8.387700 1.200300
8.404100 1.198000
8.420600 1.197700
8.437000 1.199500
8.453500 1.203600
8.469900 1.218400
8.486300 1.203900
8.502800 1.200000
8.519200 1.199100
8.535600 1.198500
8.552100 1.200700
8.568500 1.199700
8.585000 1.195700
8.601400 1.189500
8.617800 1.184100
8.634300 1.179500
8.650700 1.172600
8.667100 1.163800
8.683600 1.153100
8.700000 1.142500
8.716400 1.137200
8.732900 1.128300
8.749300 1.098900
8.765800 1.064500
8.782200 1.035000
8.798600 1.009900
8.815100 0.988000
8.831500 0.970800
8.847900 0.957900
8.864400 0.948500
8.880800 0.931600
8.897300 0.914000
8.913700 0.900500
8.930100 0.886100
8.946600 0.872600
8.963000 0.860100
8.979400 0.850300
8.995900 0.842600
9.012300 0.835200
9.028800 0.829400
9.045200 0.826300
9.061600 0.826000
9.078100 0.829200
9.094500 0.836700
9.110900 0.858400
9.127400 0.883900
9.143800 0.911100
9.160300 0.902600
9.176700 0.895100
9.193100 0.886100
9.209600 0.878000
9.226000 0.869300
9.242400 0.859900
9.258900 0.850200
9.275300 0.840200
9.291800 0.830200
9.308200 0.850600
9.324600 0.846900
9.341100 0.829500
9.357500 0.822700
9.373900 0.819800
9.390400 0.808900
9.406800 0.803800
9.423200 0.804600
9.439700 0.807100
9.456100 0.815300
9.472600 0.837200
9.489000 0.851000
9.505400 0.858900
9.521900 0.880600
9.538300 0.859100
9.554700 0.812300
9.571200 0.803600
9.587600 0.811500
9.604100 0.823200
9.620500 0.832900
9.636900 0.845000
9.653400 0.861400
9.669800 0.890500
9.686200 0.926300
9.702700 0.969700
9.719100 1.017000
9.735600 1.088500
9.752000 1.179300
9.768400 1.295500
9.784900 1.447000
9.801300 1.505800
9.817700 1.563600
9.834200 1.680300
9.850600 1.754900
9.867100 1.764500
9.883500 1.787100
9.899900 1.762000
9.916400 1.733900
9.932800 1.705800
9.949200 1.698100
9.965700 1.679200
9.982100 1.637300
9.998600 1.602100
10.015000 1.571900
10.031400 1.543900
10.047900 1.515200
10.064300 1.486700
10.080700 1.462400
10.097200 1.432800
10.113600 1.392100
10.130100 1.352500
10.146500 1.317200
10.162900 1.283100
10.179400 1.252600
10.195800 1.223900
10.212200 1.198900
10.228700 1.177400
10.245100 1.157300
10.261500 1.138000
10.278000 1.119700
10.294400 1.102400
10.310900 1.083700
10.327300 1.063700
10.343700 1.041100
10.360200 1.022300
10.376600 1.003400
10.393000 0.983900
10.409500 0.968100
10.425900 0.955600
10.442400 0.945300
10.458800 0.937700
10.475200 0.932500
10.491700 0.931600
10.508100 0.946800
10.524500 0.949300
10.541000 0.901700
10.557400 0.883200
10.573900 0.871500
