set title 'mp-2793 - Density of States'
set xlabel 'Energy (eV)'
set ylabel 'DOS (states/eV)'
set grid
set xrange [-10:10]
set yrange [0:18.759]
set xzeroaxis lt -1
set terminal png size 800,600
set output 'mp-2793_dos_gnuplot.png'
plot '-' using 1:2 with lines title 'DOS'
-14.679900 0.000000
-14.651900 0.000000
-14.623800 0.000000
-14.595800 0.000000
-14.567700 0.000000
-14.539700 0.000000
-14.511600 0.000000
-14.483600 0.000000
-14.455600 0.000000
-14.427500 0.000000
-14.399500 0.000000
-14.371400 0.000000
-14.343400 0.000000
-14.315300 0.000000
-14.287300 0.000000
-14.259200 0.000000
-14.231200 0.000000
-14.203100 0.000000
-14.175100 0.000000
-14.147100 0.000000
-14.119000 0.000000
-14.091000 0.000000
-14.062900 0.000000
-14.034900 0.000000
-14.006800 0.000000
-13.978800 0.000000
-13.950700 0.000000
-13.922700 0.000000
-13.894600 0.000000
-13.866600 0.000000
-13.838600 0.000000
-13.810500 0.000000
-13.782500 0.000000
-13.754400 0.000000
-13.726400 0.000000
-13.698300 0.000000
-13.670300 0.000000
-13.642200 0.000000
-13.614200 0.000000
-13.586100 0.000000
-13.558100 0.000000
-13.530100 0.000000
-13.502000 0.000000
-13.474000 0.000000
-13.445900 0.000000
-13.417900 0.000000
-13.389800 0.000000
-13.361800 0.000000
-13.333700 0.000000
-13.305700 0.000000
-13.277600 0.000000
-13.249600 0.000000
-13.221500 0.000000
-13.193500 0.000000
-13.165500 0.000000
-13.137400 0.000000
-13.109400 0.000000
-13.081300 0.000000
-13.053300 0.000000
-13.025200 0.000000
-12.997200 0.000000
-12.969100 0.000000
-12.941100 0.000000
-12.913000 0.000000
-12.885000 0.000000
-12.857000 0.000000
-12.828900 0.000000
-12.800900 0.000000
-12.772800 0.000000
-12.744800 0.000000
-12.716700 0.000000
-12.688700 0.000000
-12.660600 0.000000
-12.632600 0.000000
-12.604500 0.000000
-12.576500 0.000000
-12.548500 0.000000
-12.520400 0.000000
-12.492400 0.000000
-12.464300 0.000000
-12.436300 0.000000
-12.408200 0.000000
-12.380200 0.000000
-12.352100 0.000000
-12.324100 0.000000
-12.296000 0.000000
-12.268000 0.000000
-12.240000 0.000000
-12.211900 0.000000
-12.183900 0.000000
-12.155800 0.000000
-12.127800 0.003200
-12.099700 0.335800
-12.071700 0.712400
-12.043600 0.895000
-12.015600 1.131400
-11.987500 1.380400
-11.959500 1.720400
-11.931500 2.227700
-11.903400 2.415000
-11.875400 2.528200
-11.847300 2.830900
-11.819300 3.567700
-11.791200 3.076000
-11.763200 2.248300
-11.735100 2.170600
-11.707100 2.107900
-11.679000 2.045400
-11.651000 1.977600
-11.623000 1.871000
-11.594900 1.858600
-11.566900 1.871200
-11.538800 1.889200
-11.510800 1.914000
-11.482700 1.986300
-11.454700 2.125000
-11.426600 2.342600
-11.398600 2.660000
-11.370500 2.961000
-11.342500 3.361000
-11.314400 6.541100
-11.286400 6.734200
-11.258400 1.889200
-11.230300 2.918700
-11.202300 4.205400
-11.174200 5.146700
-11.146200 4.795300
-11.118100 4.719500
-11.090100 5.596400
-11.062000 6.830300
-11.034000 12.473700
-11.005900 9.457900
-10.977900 4.509400
-10.949900 2.961100
-10.921800 2.049400
-10.893800 1.425100
-10.865700 0.481100
-10.837700 0.000000
-10.809600 0.000000
-10.781600 0.000000
-10.753500 0.000000
-10.725500 0.000000
-10.697400 0.000000
-10.669400 0.000000
-10.641400 0.000000
-10.613300 0.000000
-10.585300 0.000000
-10.557200 0.000000
-10.529200 0.000000
-10.501100 0.000000
-10.473100 0.000000
-10.445000 0.000000
-10.417000 0.000000
-10.388900 0.000000
-10.360900 0.000000
-10.332900 0.000000
-10.304800 0.000000
-10.276800 0.000000
-10.248700 0.000000
-10.220700 0.000000
-10.192600 0.000000
-10.164600 0.000000
-10.136500 0.000000
-10.108500 0.000000
-10.080400 0.000000
-10.052400 0.000000
-10.024400 0.000000
-9.996300 0.000000
-9.968300 0.000000
-9.940200 0.000000
-9.912200 0.000000
-9.884100 0.000000
-9.856100 0.000000
-9.828000 0.000000
-9.800000 0.000000
-9.771900 0.000000
-9.743900 0.000000
-9.715900 0.000000
-9.687800 0.000000
-9.659800 0.000000
-9.631700 0.000000
-9.603700 0.000000
-9.575600 0.000000
-9.547600 0.000000
-9.519500 0.000000
-9.491500 0.000000
-9.463400 0.000000
-9.435400 0.000000
-9.407300 0.000000
-9.379300 0.000000
-9.351300 0.000000
-9.323200 0.000000
-9.295200 0.000000
-9.267100 0.000000
-9.239100 0.000000
-9.211000 0.000000
-9.183000 0.000000
-9.154900 0.000000
-9.126900 0.000000
-9.098800 0.000000
-9.070800 0.000000
-9.042800 0.000000
-9.014700 0.000000
-8.986700 0.000000
-8.958600 0.000000
-8.930600 0.000000
-8.902500 0.000000
-8.874500 0.000000
-8.846400 0.000000
-8.818400 0.000000
-8.790300 0.000000
-8.762300 0.000000
-8.734300 0.000000
-8.706200 0.000000
-8.678200 0.000000
-8.650100 0.000000
-8.622100 0.000000
-8.594000 0.000000
-8.566000 0.000000
-8.537900 0.000000
-8.509900 0.000000
-8.481800 0.000000
-8.453800 0.000000
-8.425800 0.000000
-8.397700 0.000000
-8.369700 0.000000
-8.341600 0.000000
-8.313600 0.000000
-8.285500 0.000000
-8.257500 0.000000
-8.229400 0.000000
-8.201400 0.000000
-8.173300 0.000000
-8.145300 0.000000
-8.117300 0.000000
-8.089200 0.000000
-8.061200 0.000000
-8.033100 0.000000
-8.005100 0.000000
-7.977000 0.000000
-7.949000 0.000000
-7.920900 0.000000
-7.892900 0.000000
-7.864800 0.000000
-7.836800 0.000000
-7.808800 0.000000
-7.780700 0.000000
-7.752700 0.000000
-7.724600 0.000000
-7.696600 0.000000
-7.668500 0.000000
-7.640500 0.000000
-7.612400 0.000000
-7.584400 0.000000
-7.556300 0.000000
-7.528300 0.000000
-7.500300 0.000000
-7.472200 0.000000
-7.444200 0.000000
-7.416100 0.000000
-7.388100 0.000000
-7.360000 0.000000
-7.332000 0.000000
-7.303900 0.000000
-7.275900 0.000000
-7.247800 0.000000
-7.219800 0.000000
-7.191700 0.000000
-7.163700 0.000000
-7.135700 0.000000
-7.107600 0.000000
-7.079600 0.000000
-7.051500 0.000000
-7.023500 0.000000
-6.995400 0.000000
-6.967400 0.000000
-6.939300 0.000000
-6.911300 0.000000
-6.883200 0.000000
-6.855200 0.000000
-6.827200 0.000000
-6.799100 0.000000
-6.771100 0.000000
-6.743000 0.000000
-6.715000 0.000000
-6.686900 0.000000
-6.658900 0.000000
-6.630800 0.000000
-6.602800 0.000000
-6.574700 0.000000
-6.546700 0.000000
-6.518700 0.000000
-6.490600 0.000000
-6.462600 0.000000
-6.434500 0.000000
-6.406500 0.000000
-6.378400 0.000000
-6.350400 0.000000
-6.322300 0.000000
-6.294300 0.000000
-6.266200 0.000000
-6.238200 0.000000
-6.210200 0.000000
-6.182100 0.000000
-6.154100 0.000000
-6.126000 0.000000
-6.098000 0.000000
-6.069900 0.000000
-6.041900 0.000000
-6.013800 0.000000
-5.985800 0.000000
-5.957700 0.000000
-5.929700 0.000000
-5.901700 0.000000
-5.873600 0.000000
-5.845600 0.000000
-5.817500 0.000000
-5.789500 0.000000
-5.761400 0.000000
-5.733400 0.000000
-5.705300 0.000000
-5.677300 0.000000
-5.649200 0.000000
-5.621200 0.000000
-5.593200 0.000000
-5.565100 0.000000
-5.537100 0.000000
-5.509000 0.000000
-5.481000 0.000000
-5.452900 0.000000
-5.424900 0.000000
-5.396800 0.000000
-5.368800 0.000000
-5.340700 0.000000
-5.312700 0.000000
-5.284600 0.000000
-5.256600 0.000000
-5.228600 0.000000
-5.200500 0.000000
-5.172500 0.000000
-5.144400 0.000000
-5.116400 0.000000
-5.088300 0.000000
-5.060300 0.000000
-5.032200 0.000000
-5.004200 0.000000
-4.976100 0.000000
-4.948100 0.000000
-4.920100 0.000000
-4.892000 0.000000
-4.864000 0.000000
-4.835900 0.000000
-4.807900 0.000000
-4.779800 0.035100
-4.751800 0.151900
-4.723700 0.308800
-4.695700 0.420200
-4.667600 0.494400
-4.639600 0.567000
-4.611600 0.668600
-4.583500 0.789600
-4.555500 0.919600
-4.527400 1.091300
-4.499400 2.724500
-4.471300 3.000500
-4.443300 3.072100
-4.415200 3.257600
-4.387200 3.822600
-4.359100 4.680800
-4.331100 3.632500
-4.303100 3.885500
-4.275000 4.283300
-4.247000 6.133900
-4.218900 11.415900
-4.190900 10.605000
-4.162800 8.332900
-4.134800 6.866400
-4.106700 6.557500
-4.078700 4.439400
-4.050600 3.982900
-4.022600 3.922700
-3.994600 2.885200
-3.966500 2.629100
-3.938500 2.602200
-3.910400 2.635500
-3.882400 2.703600
-3.854300 2.821300
-3.826300 3.024500
-3.798200 3.279000
-3.770200 3.184600
-3.742100 2.880800
-3.714100 2.512700
-3.686100 2.151900
-3.658000 1.980600
-3.630000 2.579400
-3.601900 2.571000
-3.573900 2.454700
-3.545800 3.024400
-3.517800 4.331100
-3.489700 4.859000
-3.461700 6.401700
-3.433600 8.878700
-3.405600 10.025200
-3.377500 6.479700
-3.349500 4.929800
-3.321500 4.050600
-3.293400 3.661400
-3.265400 3.725300
-3.237300 3.125900
-3.209300 4.270900
-3.181200 3.793400
-3.153200 3.263000
-3.125100 3.034600
-3.097100 2.757800
-3.069000 2.533100
-3.041000 2.631700
-3.013000 3.406100
-2.984900 3.743400
-2.956900 3.290900
-2.928800 2.848800
-2.900800 2.374800
-2.872700 2.164300
-2.844700 2.153000
-2.816600 2.201400
-2.788600 2.353300
-2.760500 2.787300
-2.732500 4.032700
-2.704500 4.090000
-2.676400 4.538900
-2.648400 5.636800
-2.620300 5.971600
-2.592300 6.305700
-2.564200 7.003800
-2.536200 7.545900
-2.508100 7.472800
-2.480100 6.908100
-2.452000 7.969800
-2.424000 6.835100
-2.396000 6.513400
-2.367900 5.293100
-2.339900 5.267900
-2.311800 2.630700
-2.283800 2.804300
-2.255700 3.034500
-2.227700 3.157100
-2.199600 5.441800
-2.171600 4.656200
-2.143500 4.698200
-2.115500 7.146800
-2.087500 12.861600
-2.059400 15.156900
-2.031400 13.602100
-2.003300 9.419200
-1.975300 6.932100
-1.947200 5.985400
-1.919200 5.827000
-1.891100 6.072900
-1.863100 7.695200
-1.835000 9.189000
-1.807000 10.183900
-1.779000 9.842300
-1.750900 9.769200
-1.722900 9.430900
-1.694800 9.525800
-1.666800 9.414300
-1.638700 10.613800
-1.610700 7.275700
-1.582600 3.803300
-1.554600 2.880400
-1.526500 2.376200
-1.498500 2.259200
-1.470400 2.275100
-1.442400 2.757200
-1.414400 3.539400
-1.386300 4.973300
-1.358300 6.183900
-1.330200 5.275800
-1.302200 4.835000
-1.274100 4.808800
-1.246100 5.187500
-1.218000 4.976500
-1.190000 5.283700
-1.161900 5.377400
-1.133900 6.203900
-1.105900 6.048800
-1.077800 5.350700
-1.049800 5.547100
-1.021700 6.407200
-0.993700 6.996300
-0.965600 7.057500
-0.937600 7.255900
-0.909500 10.319800
-0.881500 8.548800
-0.853400 7.349700
-0.825400 8.441000
-0.797400 9.557400
-0.769300 8.120000
-0.741300 9.446500
-0.713200 16.513100
-0.685200 17.053500
-0.657100 10.926400
-0.629100 6.707600
-0.601000 10.737400
-0.573000 10.343700
-0.544900 6.564800
-0.516900 5.312800
-0.488900 4.879500
-0.460800 4.396000
-0.432800 4.225700
-0.404700 5.394000
-0.376700 5.034200
-0.348600 4.865000
-0.320600 4.991500
-0.292500 5.186500
-0.264500 5.201200
-0.236400 4.813100
-0.208400 4.286300
-0.180400 4.280600
-0.152300 4.178400
-0.124300 4.244500
-0.096200 4.069100
-0.068200 4.173000
-0.040100 4.555200
-0.012100 5.067400
0.016000 5.721700
0.044000 5.215200
0.072100 4.731700
0.100100 4.482800
0.128100 4.017900
0.156200 3.808000
0.184200 3.830700
0.212300 3.950100
0.240300 4.131700
0.268400 4.292000
0.296400 4.744300
0.324500 4.858400
0.352500 5.053300
0.380600 5.292900
0.408600 5.166300
0.436700 5.215900
0.464700 5.685800
0.492700 5.809800
0.520800 5.994300
0.548800 6.155700
0.576900 6.389200
0.604900 5.853300
0.633000 5.201000
0.661000 5.432800
0.689100 5.262100
0.717100 4.590300
0.745200 4.237100
0.773200 3.980900
0.801200 3.907400
0.829300 2.917800
0.857300 2.352900
0.885400 2.047900
0.913400 2.012600
0.941500 1.996300
0.969500 1.872300
0.997600 1.738400
1.025600 1.624500
1.053700 1.484300
1.081700 1.367900
1.109700 1.228300
1.137800 1.210900
1.165800 1.333600
1.193900 1.167800
1.221900 0.935000
1.250000 0.842000
1.278000 0.425200
1.306100 0.387100
1.334100 0.325600
1.362200 0.262800
1.390200 0.232600
1.418200 0.238300
1.446300 0.185100
1.474300 0.131600
1.502400 0.060800
1.530400 0.009600
1.558500 0.000000
1.586500 0.000000
1.614600 0.000000
1.642600 0.000000
1.670700 0.000000
1.698700 0.000000
1.726700 0.000000
1.754800 0.000000
1.782800 0.000000
1.810900 0.000000
1.838900 0.000000
1.867000 0.006000
1.895000 0.039000
1.923100 0.079900
1.951100 0.128600
1.979200 0.178600
2.007200 0.219300
2.035200 0.257200
2.063300 0.291900
2.091300 0.323800
2.119400 0.355000
2.147400 0.391100
2.175500 0.433400
2.203500 0.480900
2.231600 0.543700
2.259600 0.615300
2.287700 0.704400
2.315700 0.744100
2.343700 0.772400
2.371800 0.850200
2.399800 0.943400
2.427900 1.039500
2.455900 1.135700
2.484000 1.431700
2.512000 1.536900
2.540100 1.625200
2.568100 1.714000
2.596200 1.787600
2.624200 1.872500
2.652300 1.948500
2.680300 2.030000
2.708300 2.120100
2.736400 2.223400
2.764400 2.351300
2.792500 2.580400
2.820500 3.225600
2.848600 2.926200
2.876600 2.642000
2.904700 2.502000
2.932700 2.261700
2.960800 2.072500
2.988800 1.986700
3.016800 1.917100
3.044900 1.854300
3.072900 1.803600
3.101000 1.737700
3.129000 1.631300
3.157100 1.550100
3.185100 1.206900
3.213200 0.908900
3.241200 0.830300
3.269300 0.820500
3.297300 0.773400
3.325300 0.714300
3.353400 0.646600
3.381400 0.587300
3.409500 0.538300
3.437500 0.490100
3.465600 0.442100
3.493600 0.394100
3.521700 0.341300
3.549700 0.271700
3.577800 0.194600
3.605800 0.141400
3.633800 0.101500
3.661900 0.067300
3.689900 0.034500
3.718000 0.009300
3.746000 0.000000
3.774100 0.000000
3.802100 0.000000
3.830200 0.000000
3.858200 0.000000
3.886300 0.000000
3.914300 0.000000
3.942300 0.004500
3.970400 0.019500
3.998400 0.045100
4.026500 0.084300
4.054500 0.114000
4.082600 0.133500
4.110600 0.153500
4.138700 0.175200
4.166700 0.195900
4.194800 0.228600
4.222800 0.258600
4.250800 0.289500
4.278900 0.323000
4.306900 0.388800
4.335000 0.645300
4.363000 0.821000
4.391100 0.868700
4.419100 0.918800
4.447200 1.005800
4.475200 1.124500
4.503300 1.244100
4.531300 1.355100
4.559400 1.438800
4.587400 1.507700
4.615400 1.587200
4.643500 1.662100
4.671500 1.734200
4.699600 1.808200
4.727600 1.915500
4.755700 2.050000
4.783700 2.204000
4.811800 2.409700
4.839800 2.568900
4.867900 2.752100
4.895900 2.906600
4.923900 2.997600
4.952000 2.987000
4.980000 2.880900
5.008100 2.738900
5.036100 2.692900
5.064200 2.654600
5.092200 2.604300
5.120300 2.703700
5.148300 2.845400
5.176400 2.904200
5.204400 2.880000
5.232400 2.880500
5.260500 2.871800
5.288500 2.917900
5.316600 3.115000
5.344600 3.129900
5.372700 3.063200
5.400700 2.983800
5.428800 2.879700
5.456800 2.894200
5.484900 3.002400
5.512900 3.008300
5.540900 2.892500
5.569000 2.591900
5.597000 2.666000
5.625100 2.727400
5.653100 2.607600
5.681200 2.441200
5.709200 2.344100
5.737300 2.335800
5.765300 2.406100
5.793400 2.460500
5.821400 2.524700
5.849400 2.556700
5.877500 2.517000
5.905500 2.492100
5.933600 2.451900
5.961600 2.423700
5.989700 2.467800
6.017700 2.493800
6.045800 2.466400
6.073800 2.476000
6.101900 2.540600
6.129900 2.679400
6.157900 2.907900
6.186000 3.164200
6.214000 2.890000
6.242100 2.441300
6.270100 2.272100
6.298200 2.082800
6.326200 2.085400
6.354300 2.198500
6.382300 2.411400
6.410400 2.590600
6.438400 2.730600
6.466500 2.690800
6.494500 2.713700
6.522500 2.309900
6.550600 1.656600
6.578600 1.339600
6.606700 1.156200
6.634700 1.039600
6.662800 1.000100
6.690800 0.988100
6.718900 0.981300
6.746900 1.005400
6.775000 1.065700
6.803000 1.134900
6.831000 1.194300
6.859100 1.175700
6.887100 1.122000
6.915200 1.073800
6.943200 1.043400
6.971300 1.059000
6.999300 1.089600
7.027400 1.131200
7.055400 1.157500
7.083500 1.187000
7.111500 1.251400
7.139500 1.291900
7.167600 1.339200
7.195600 1.377300
7.223700 1.426300
7.251700 1.489600
7.279800 1.560400
7.307800 1.665200
7.335900 1.772700
7.363900 1.844500
7.392000 1.823200
7.420000 1.788200
7.448000 1.776400
7.476100 1.783900
7.504100 1.777200
7.532200 1.771300
7.560200 1.779300
7.588300 1.799100
7.616300 1.792900
7.644400 1.798000
7.672400 1.797700
7.700500 1.802100
7.728500 1.802600
7.756500 1.793500
7.784600 1.797600
7.812600 1.817400
7.840700 1.824800
7.868700 1.845100
7.896800 1.942200
7.924800 1.850500
7.952900 1.839500
7.980900 1.887400
8.009000 1.794700
8.037000 1.804100
8.065000 1.815500
8.093100 1.825900
8.121100 1.825300
8.149200 1.855200
8.177200 1.911400
8.205300 2.023100
8.233300 2.098100
8.261400 2.191400
8.289400 2.283100
8.317500 2.213300
8.345500 2.095900
8.373600 2.119200
8.401600 2.044200
8.429600 1.922500
8.457700 1.742300
8.485700 1.574400
8.513800 1.510600
8.541800 1.516600
8.569900 1.517900
8.597900 1.513000
8.626000 1.583500
8.654000 1.749100
8.682100 1.982400
8.710100 1.989800
8.738100 2.156000
8.766200 2.375100
8.794200 2.250000
8.822300 2.074000
8.850300 1.938200
8.878400 1.838600
8.906400 1.747100
8.934500 1.647000
8.962500 1.615900
8.990600 1.667900
9.018600 1.761100
9.046600 1.880300
9.074700 1.973400
9.102700 2.000700
9.130800 2.039000
9.158800 2.092300
9.186900 2.132300
9.214900 2.323000
9.243000 2.557900
9.271000 2.560800
9.299100 2.639600
9.327100 2.684500
9.355100 2.858400
9.383200 2.961900
9.411200 2.660800
9.439300 2.513500
9.467300 2.436700
9.495400 2.339200
9.523400 2.302500
9.551500 2.279300
9.579500 2.227900
9.607600 2.117600
9.635600 2.088800
9.663600 2.102600
9.691700 2.073000
9.719700 2.058700
9.747800 2.053500
9.775800 2.092200
9.803900 1.990600
9.831900 1.957000
9.860000 1.975200
9.888000 1.985300
9.916100 2.020000
9.944100 2.044200
9.972100 2.065400
10.000200 2.057500
10.028200 1.926900
10.056300 1.895200
10.084300 1.885600
10.112400 1.904100
10.140400 2.025200
10.168500 2.233800
10.196500 2.502700
10.224600 2.728100
10.252600 2.947200
10.280600 3.235300
10.308700 3.433800
10.336700 3.471200
10.364800 3.388800
10.392800 3.272800
10.420900 3.258900
10.448900 3.178800
10.477000 3.014100
10.505000 2.887900
10.533100 2.763000
10.561100 2.647200
10.589200 2.603500
10.617200 2.598300
10.645200 2.609600
10.673300 2.625100
10.701300 2.639000
10.729400 2.637600
10.757400 2.650600
10.785500 2.634500
10.813500 2.568700
10.841600 2.551400
10.869600 2.677100
10.897700 2.803200
10.925700 2.830600
10.953700 2.788600
10.981800 2.728000
11.009800 2.687700
11.037900 2.738000
11.065900 2.663900
11.094000 2.583600
11.122000 2.543800
11.150100 2.563700
11.178100 2.743400
11.206200 2.898700
11.234200 2.974200
11.262200 3.070700
11.290300 3.296000
11.318300 3.608400
11.346400 3.606900
11.374400 3.586700
11.402500 3.613200
11.430500 3.746100
11.458600 3.532900
11.486600 3.440300
11.514700 3.467300
11.542700 3.510300
11.570700 3.593600
11.598800 3.615500
11.626800 3.513300
11.654900 3.251500
11.682900 3.285800
11.711000 3.211300
11.739000 3.258200
11.767100 3.339700
11.795100 3.426200
11.823200 3.309300
11.851200 3.224100
11.879200 3.105300
11.907300 3.138100
11.935300 3.202300
11.963400 3.393400
11.991400 3.433700
12.019500 3.511200
12.047500 3.335200
12.075600 3.305800
12.103600 3.268300
12.131700 3.373300
12.159700 3.548300
12.187700 3.348700
12.215800 3.243900
12.243800 3.194400
12.271900 3.055700
12.299900 2.979500
12.328000 2.936900
12.356000 2.926300
12.384100 3.013300
12.412100 3.256500
12.440200 3.572500
12.468200 3.648100
12.496300 3.478200
12.524300 3.373000
12.552300 3.204300
12.580400 2.978100
12.608400 2.885000
12.636500 3.016200
12.664500 3.250700
12.692600 3.388400
12.720600 3.391700
12.748700 3.273900
12.776700 3.223600
12.804800 3.385900
12.832800 3.423300
12.860800 3.526700
12.888900 3.563400
12.916900 3.599700
12.945000 3.618800
12.973000 3.589600
13.001100 3.606700
13.029100 3.643400
13.057200 3.608900
13.085200 3.549200
13.113300 3.617900
13.141300 3.697400
13.169300 3.775300
13.197400 3.759600
13.225400 3.834000
13.253500 3.640700
13.281500 3.554800
13.309600 3.463900
13.337600 3.425000
13.365700 3.357200
13.393700 3.280900
13.421800 3.115900
13.449800 3.105100
13.477800 3.129000
13.505900 3.284200
13.533900 3.266900
13.562000 3.194000
13.590000 3.154300
13.618100 3.059000
13.646100 3.140800
13.674200 3.302000
13.702200 3.634700
13.730300 4.045700
13.758300 4.128500
13.786300 3.886300
13.814400 3.724500
13.842400 3.664200
13.870500 3.528200
13.898500 3.219200
13.926600 2.997800
13.954600 2.812200
13.982700 2.608800
14.010700 2.394600
14.038800 2.273200
14.066800 2.190500
14.094800 2.174100
14.122900 2.200400
14.150900 2.254900
14.179000 2.336700
14.207000 2.438100
14.235100 2.555700
14.263100 2.672400
14.291200 2.774700
14.319200 2.832900
14.347300 2.946300
14.375300 2.957700
14.403400 2.970800
14.431400 2.998200
14.459400 3.105200
14.487500 3.035500
14.515500 2.888500
14.543600 2.739100
14.571600 2.705800
14.599700 2.625600
14.627700 2.553900
14.655800 2.660100
