set title 'mp-624889 - Density of States'
set xlabel 'Energy (eV)'
set ylabel 'DOS (states/eV)'
set grid
set xrange [-10:10]
set yrange [0:8.838]
set xzeroaxis lt -1
set terminal png size 800,600
set output 'mp-624889_dos_gnuplot.png'
plot '-' using 1:2 with lines title 'DOS'
-17.426500 0.000000
-17.400500 0.000000
-17.374500 0.000000
-17.348400 0.000000
-17.322400 0.000000
-17.296400 0.000000
-17.270400 0.000000
-17.244400 0.000000
-17.218400 0.000000
-17.192400 0.000000
-17.166400 0.000000
-17.140300 0.000000
-17.114300 0.000000
-17.088300 0.000000
-17.062300 0.000000
-17.036300 0.000000
-17.010300 0.000000
-16.984300 0.000000
-16.958300 0.000000
-16.932200 0.000000
-16.906200 0.000000
-16.880200 0.000000
-16.854200 0.000000
-16.828200 0.000000
-16.802200 0.000000
-16.776200 0.000000
-16.750200 0.000000
-16.724100 0.000000
-16.698100 0.000000
-16.672100 0.000000
-16.646100 0.000000
-16.620100 0.000000
-16.594100 0.000000
-16.568100 0.000000
-16.542000 0.000000
-16.516000 0.000000
-16.490000 0.000000
-16.464000 0.000000
-16.438000 0.000000
-16.412000 0.000000
-16.386000 0.000000
-16.360000 0.000000
-16.333900 0.000000
-16.307900 0.000000
-16.281900 0.000000
-16.255900 0.000000
-16.229900 0.000000
-16.203900 0.000000
-16.177900 0.000000
-16.151900 0.000000
-16.125800 0.000000
-16.099800 0.000000
-16.073800 0.000000
-16.047800 0.000000
-16.021800 0.000000
-15.995800 0.000000
-15.969800 0.000000
-15.943800 0.000000
-15.917700 0.000000
-15.891700 0.000000
-15.865700 0.000000
-15.839700 0.000000
-15.813700 0.000000
-15.787700 0.000000
-15.761700 0.000000
-15.735700 0.000000
-15.709600 0.000000
-15.683600 0.000000
-15.657600 0.000000
-15.631600 0.000000
-15.605600 0.000000
-15.579600 0.000000
-15.553600 0.000000
-15.527500 0.000000
-15.501500 0.000000
-15.475500 0.000000
-15.449500 0.000000
-15.423500 0.000000
-15.397500 0.000000
-15.371500 0.000000
-15.345500 0.000000
-15.319400 0.000000
-15.293400 0.000000
-15.267400 0.000000
-15.241400 0.000000
-15.215400 0.000000
-15.189400 0.000000
-15.163400 0.000000
-15.137400 0.000000
-15.111300 0.000000
-15.085300 0.000000
-15.059300 0.001900
-15.033300 0.186900
-15.007300 0.480300
-14.981300 0.701900
-14.955300 0.786200
-14.929300 0.730000
-14.903200 0.762700
-14.877200 0.808600
-14.851200 0.800300
-14.825200 0.770900
-14.799200 0.741400
-14.773200 0.748300
-14.747200 0.762600
-14.721200 0.777200
-14.695100 0.795400
-14.669100 0.806900
-14.643100 0.798500
-14.617100 0.781100
-14.591100 0.765600
-14.565100 0.765600
-14.539100 0.767800
-14.513100 0.770400
-14.487000 0.776300
-14.461000 0.785100
-14.435000 0.796400
-14.409000 0.807800
-14.383000 0.813700
-14.357000 0.806600
-14.331000 0.794000
-14.304900 0.783900
-14.278900 0.782900
-14.252900 0.783500
-14.226900 0.785000
-14.200900 0.788100
-14.174900 0.792800
-14.148900 0.798500
-14.122900 0.804300
-14.096800 0.810000
-14.070800 0.815800
-14.044800 0.821500
-14.018800 0.823100
-13.992800 0.818000
-13.966800 0.811000
-13.940800 0.807700
-13.914800 0.808200
-13.888700 0.808800
-13.862700 0.809700
-13.836700 0.811600
-13.810700 0.814600
-13.784700 0.817900
-13.758700 0.821200
-13.732700 0.824800
-13.706700 0.828900
-13.680600 0.833500
-13.654600 0.838500
-13.628600 0.843700
-13.602600 0.848000
-13.576600 0.846900
-13.550600 0.843200
-13.524600 0.841400
-13.498600 0.842500
-13.472500 0.843500
-13.446500 0.844700
-13.420500 0.846500
-13.394500 0.849300
-13.368500 0.853200
-13.342500 0.857600
-13.316500 0.861600
-13.290400 0.865600
-13.264400 0.869500
-13.238400 0.873600
-13.212400 0.877800
-13.186400 0.882300
-13.160400 0.886800
-13.134400 0.891100
-13.108400 0.891000
-13.082300 0.892800
-13.056300 0.896700
-13.030300 0.900500
-13.004300 0.905200
-12.978300 0.910200
-12.952300 0.915200
-12.926300 0.919700
-12.900300 0.923700
-12.874200 0.927700
-12.848200 0.931700
-12.822200 0.935700
-12.796200 0.939700
-12.770200 0.944400
-12.744200 0.949400
-12.718200 0.952900
-12.692200 0.956400
-12.666100 0.960700
-12.640100 0.967500
-12.614100 0.988400
-12.588100 1.008900
-12.562100 1.021000
-12.536100 1.033100
-12.510100 1.045600
-12.484100 1.058000
-12.458000 1.067300
-12.432000 1.075500
-12.406000 1.083800
-12.380000 1.092000
-12.354000 1.100300
-12.328000 1.108500
-12.302000 1.117100
-12.275900 1.128200
-12.249900 1.142200
-12.223900 1.368900
-12.197900 1.643800
-12.171900 1.855200
-12.145900 2.052700
-12.119900 2.247000
-12.093900 2.468400
-12.067800 2.714500
-12.041800 3.455300
-12.015800 3.658100
-11.989800 3.494400
-11.963800 3.489600
-11.937800 3.518000
-11.911800 3.426600
-11.885800 2.767900
-11.859700 2.346100
-11.833700 2.099200
-11.807700 1.900600
-11.781700 1.841200
-11.755700 1.851000
-11.729700 1.827300
-11.703700 1.698900
-11.677700 1.551000
-11.651600 1.716000
-11.625600 1.321000
-11.599600 1.066500
-11.573600 0.874300
-11.547600 0.740900
-11.521600 0.613900
-11.495600 0.486900
-11.469600 0.386600
-11.443500 0.237800
-11.417500 0.120600
-11.391500 0.065700
-11.365500 0.032400
-11.339500 0.010600
-11.313500 0.000100
-11.287500 0.000000
-11.261500 0.000000
-11.235400 0.000000
-11.209400 0.000000
-11.183400 0.000000
-11.157400 0.000000
-11.131400 0.000000
-11.105400 0.018700
-11.079400 0.079800
-11.053300 0.257500
-11.027300 0.308200
-11.001300 0.340700
-10.975300 0.379300
-10.949300 0.420300
-10.923300 0.481300
-10.897300 0.553300
-10.871300 0.626800
-10.845200 0.690600
-10.819200 0.747800
-10.793200 0.802000
-10.767200 0.854300
-10.741200 0.907300
-10.715200 0.934500
-10.689200 0.982200
-10.663200 1.019400
-10.637100 1.117000
-10.611100 1.223300
-10.585100 1.009300
-10.559100 1.049900
-10.533100 1.088300
-10.507100 1.124900
-10.481100 1.164700
-10.455100 1.205400
-10.429000 1.250400
-10.403000 1.409700
-10.377000 1.458800
-10.351000 1.513500
-10.325000 1.571000
-10.299000 1.640800
-10.273000 1.716700
-10.247000 1.806600
-10.220900 1.906500
-10.194900 2.072300
-10.168900 2.361700
-10.142900 2.638400
-10.116900 2.783500
-10.090900 2.824200
-10.064900 2.727100
-10.038800 2.508200
-10.012800 2.231200
-9.986800 1.978700
-9.960800 1.898300
-9.934800 1.826300
-9.908800 1.757300
-9.882800 1.683200
-9.856800 1.611200
-9.830700 1.548700
-9.804700 1.489400
-9.778700 1.429100
-9.752700 1.360300
-9.726700 1.286800
-9.700700 1.208400
-9.674700 1.133800
-9.648700 1.093000
-9.622600 1.067300
-9.596600 1.107100
-9.570600 1.149700
-9.544600 1.187200
-9.518600 1.255100
-9.492600 1.312500
-9.466600 1.339200
-9.440600 1.306800
-9.414500 1.274600
-9.388500 1.243400
-9.362500 1.213500
-9.336500 1.184800
-9.310500 1.156500
-9.284500 1.128400
-9.258500 1.100700
-9.232500 1.080700
-9.206400 1.080000
-9.180400 1.082500
-9.154400 1.086300
-9.128400 1.091400
-9.102400 0.983400
-9.076400 0.960600
-9.050400 0.939500
-9.024300 0.920700
-8.998300 0.903800
-8.972300 0.887700
-8.946300 0.877900
-8.920300 0.868800
-8.894300 0.859600
-8.868300 0.850500
-8.842300 0.841400
-8.816200 0.832200
-8.790200 0.822500
-8.764200 0.812300
-8.738200 1.301700
-8.712200 0.777400
-8.686200 0.752700
-8.660200 0.727300
-8.634200 0.701700
-8.608100 0.675800
-8.582100 0.649900
-8.556100 0.624300
-8.530100 0.599200
-8.504100 0.588300
-8.478100 0.581100
-8.452100 0.575000
-8.426100 0.569400
-8.400000 0.564300
-8.374000 0.560300
-8.348000 0.556800
-8.322000 0.553300
-8.296000 0.549800
-8.270000 0.547400
-8.244000 0.549500
-8.218000 0.552700
-8.191900 0.576400
-8.165900 0.712300
-8.139900 1.011800
-8.113900 1.010800
-8.087900 1.219000
-8.061900 1.406300
-8.035900 1.438800
-8.009900 1.617200
-7.983800 1.698600
-7.957800 1.746700
-7.931800 1.705100
-7.905800 1.691100
-7.879800 1.672700
-7.853800 1.696300
-7.827800 1.549800
-7.801700 1.444400
-7.775700 1.371000
-7.749700 1.329100
-7.723700 1.297500
-7.697700 1.270100
-7.671700 1.481000
-7.645700 1.373900
-7.619700 1.300300
-7.593600 1.290900
-7.567600 1.282500
-7.541600 1.276000
-7.515600 1.255300
-7.489600 1.182100
-7.463600 1.146600
-7.437600 1.132400
-7.411600 1.118800
-7.385500 1.113300
-7.359500 1.190400
-7.333500 1.315100
-7.307500 1.775600
-7.281500 1.236500
-7.255500 1.083000
-7.229500 1.106400
-7.203500 1.116800
-7.177400 1.136900
-7.151400 1.181300
-7.125400 1.248500
-7.099400 1.327200
-7.073400 1.539200
-7.047400 1.734400
-7.021400 1.683000
-6.995400 1.677900
-6.969300 1.793200
-6.943300 2.012500
-6.917300 2.036200
-6.891300 1.926700
-6.865300 1.890800
-6.839300 1.857400
-6.813300 1.834300
-6.787200 1.796500
-6.761200 1.792200
-6.735200 1.747800
-6.709200 1.713800
-6.683200 1.705000
-6.657200 1.688300
-6.631200 1.666800
-6.605200 1.633300
-6.579100 1.583300
-6.553100 1.502100
-6.527100 1.496500
-6.501100 1.484700
-6.475100 1.531100
-6.449100 1.451400
-6.423100 1.395100
-6.397100 1.364700
-6.371000 1.365200
-6.345000 1.374100
-6.319000 1.391600
-6.293000 1.415100
-6.267000 1.442700
-6.241000 1.477400
-6.215000 1.512700
-6.189000 1.526500
-6.162900 1.531400
-6.136900 1.534200
-6.110900 1.524500
-6.084900 1.502700
-6.058900 1.428700
-6.032900 1.336500
-6.006900 1.317000
-5.980900 1.325200
-5.954800 1.339100
-5.928800 1.355900
-5.902800 1.370900
-5.876800 1.385900
-5.850800 1.402000
-5.824800 1.418700
-5.798800 1.409400
-5.772700 1.417200
-5.746700 1.407500
-5.720700 1.338000
-5.694700 1.185500
-5.668700 1.081900
-5.642700 1.146900
-5.616700 1.512200
-5.590700 1.792400
-5.564600 1.801600
-5.538600 1.759800
-5.512600 1.718700
-5.486600 1.783200
-5.460600 1.763000
-5.434600 1.738700
-5.408600 1.861600
-5.382600 1.924100
-5.356500 1.900000
-5.330500 1.885900
-5.304500 1.950200
-5.278500 2.145800
-5.252500 2.141700
-5.226500 1.992200
-5.200500 1.866700
-5.174500 1.871000
-5.148400 1.721200
-5.122400 1.298000
-5.096400 1.070400
-5.070400 0.805300
-5.044400 0.451000
-5.018400 0.361900
-4.992400 0.375800
-4.966400 0.465600
-4.940300 0.560900
-4.914300 0.705500
-4.888300 0.902200
-4.862300 0.936300
-4.836300 0.876600
-4.810300 0.809000
-4.784300 0.740500
-4.758300 0.671800
-4.732200 0.607100
-4.706200 0.571100
-4.680200 0.552000
-4.654200 0.555900
-4.628200 0.577300
-4.602200 0.606600
-4.576200 0.640400
-4.550100 0.678000
-4.524100 0.753300
-4.498100 0.825900
-4.472100 0.924100
-4.446100 1.062700
-4.420100 1.254300
-4.394100 1.512600
-4.368100 1.662000
-4.342000 1.679600
-4.316000 1.994700
-4.290000 2.410200
-4.264000 2.628200
-4.238000 2.524300
-4.212000 2.302800
-4.186000 2.208000
-4.160000 2.174500
-4.133900 2.347400
-4.107900 2.812400
-4.081900 2.990700
-4.055900 3.323700
-4.029900 3.835400
-4.003900 4.453500
-3.977900 4.250100
-3.951900 3.886700
-3.925800 3.951100
-3.899800 3.985800
-3.873800 4.281800
-3.847800 3.868500
-3.821800 3.935000
-3.795800 3.857400
-3.769800 4.029600
-3.743800 3.479400
-3.717700 3.128500
-3.691700 2.853300
-3.665700 2.652100
-3.639700 2.471900
-3.613700 2.496800
-3.587700 2.215500
-3.561700 1.989300
-3.535600 1.837000
-3.509600 1.751700
-3.483600 1.636400
-3.457600 1.522200
-3.431600 1.384300
-3.405600 1.302700
-3.379600 1.268500
-3.353600 1.204000
-3.327500 1.223500
-3.301500 1.201600
-3.275500 1.218800
-3.249500 1.255700
-3.223500 1.295700
-3.197500 1.374600
-3.171500 1.505000
-3.145500 1.373900
-3.119400 1.326500
-3.093400 1.306000
-3.067400 1.338700
-3.041400 1.381300
-3.015400 1.435300
-2.989400 1.342700
-2.963400 1.302700
-2.937400 1.386000
-2.911300 1.631700
-2.885300 1.732700
-2.859300 1.502100
-2.833300 1.530500
-2.807300 1.403900
-2.781300 1.423700
-2.755300 1.395800
-2.729300 1.157100
-2.703200 1.120400
-2.677200 1.187600
-2.651200 1.298800
-2.625200 1.444500
-2.599200 1.385400
-2.573200 1.288000
-2.547200 1.319900
-2.521100 1.478400
-2.495100 1.698800
-2.469100 1.807600
-2.443100 1.821000
-2.417100 1.956200
-2.391100 2.117900
-2.365100 2.450800
-2.339100 2.821800
-2.313000 2.944300
-2.287000 3.030100
-2.261000 3.112800
-2.235000 3.247300
-2.209000 3.475600
-2.183000 3.509400
-2.157000 3.287700
-2.131000 3.390900
-2.104900 3.344000
-2.078900 3.486200
-2.052900 3.630400
-2.026900 3.739300
-2.000900 3.698300
-1.974900 3.828700
-1.948900 3.975200
-1.922900 4.393800
-1.896800 4.326200
-1.870800 4.213900
-1.844800 3.900300
-1.818800 3.388000
-1.792800 2.933300
-1.766800 2.649200
-1.740800 2.465100
-1.714800 2.362800
-1.688700 2.501400
-1.662700 2.982400
-1.636700 3.363700
-1.610700 3.680000
-1.584700 3.138300
-1.558700 2.987500
-1.532700 2.825000
-1.506700 2.734000
-1.480600 2.620900
-1.454600 2.549100
-1.428600 2.544700
-1.402600 2.594600
-1.376600 2.646600
-1.350600 2.448200
-1.324600 2.411600
-1.298500 2.099200
-1.272500 2.011200
-1.246500 1.920100
-1.220500 1.865400
-1.194500 2.054500
-1.168500 2.385500
-1.142500 2.721400
-1.116500 3.364100
-1.090400 4.287500
-1.064400 5.315800
-1.038400 6.227400
-1.012400 6.494400
-0.986400 7.123100
-0.960400 8.034300
-0.934400 6.077100
-0.908400 3.605600
-0.882300 3.464100
-0.856300 3.455600
-0.830300 4.160700
-0.804300 5.018000
-0.778300 6.426500
-0.752300 4.171400
-0.726300 2.510900
-0.700300 2.066700
-0.674200 2.016200
-0.648200 2.086200
-0.622200 2.094500
-0.596200 2.197700
-0.570200 2.122000
-0.544200 2.095900
-0.518200 2.073500
-0.492200 2.101900
-0.466100 1.921100
-0.440100 1.721800
-0.414100 1.671700
-0.388100 1.631300
-0.362100 1.651500
-0.336100 1.553100
-0.310100 1.619800
-0.284000 1.696600
-0.258000 1.667500
-0.232000 1.714200
-0.206000 1.842400
-0.180000 1.901600
-0.154000 1.876100
-0.128000 1.615200
-0.102000 1.504300
-0.075900 1.458600
-0.049900 1.447200
-0.023900 1.469800
0.002100 1.532000
0.028100 1.591900
0.054100 1.344200
0.080100 1.187700
0.106100 1.089200
0.132200 1.043800
0.158200 1.048600
0.184200 1.063400
0.210200 1.111100
0.236200 1.168200
0.262200 1.140300
0.288200 1.227800
0.314200 1.293800
0.340300 1.445100
0.366300 1.176300
0.392300 1.121900
0.418300 1.167400
0.444300 1.281600
0.470300 1.185600
0.496300 1.304400
0.522300 1.468200
0.548400 1.289700
0.574400 1.314500
0.600400 1.334200
0.626400 1.348100
0.652400 1.354800
0.678400 1.360500
0.704400 1.362700
0.730500 1.363500
0.756500 1.367400
0.782500 1.316300
0.808500 1.283300
0.834500 1.266100
0.860500 1.265000
0.886500 1.265300
0.912500 1.270500
0.938600 1.318600
0.964600 1.508800
0.990600 1.418200
1.016600 1.416000
1.042600 1.397100
1.068600 1.354300
1.094600 1.356800
1.120600 1.299900
1.146700 1.266100
1.172700 1.238200
1.198700 1.210800
1.224700 1.218500
1.250700 1.231100
1.276700 1.298300
1.302700 1.400800
1.328700 1.487100
1.354800 1.544000
1.380800 1.490800
1.406800 1.390300
1.432800 1.306100
1.458800 1.417600
1.484800 1.307200
1.510800 1.304200
1.536800 1.289100
1.562900 1.287300
1.588900 1.273200
1.614900 1.297000
1.640900 1.343900
1.666900 1.406800
1.692900 1.483000
1.718900 1.586900
1.744900 1.790000
1.771000 1.802800
1.797000 1.798100
1.823000 1.779500
1.849000 1.786300
1.875000 1.719100
1.901000 1.718000
1.927000 1.681900
1.953100 1.628500
1.979100 1.554000
2.005100 1.499700
2.031100 1.441100
2.057100 1.432700
2.083100 1.405400
2.109100 1.391000
2.135100 1.405000
2.161200 1.440300
2.187200 1.353100
2.213200 1.351000
2.239200 1.363200
2.265200 1.419200
2.291200 1.497100
2.317200 1.561300
2.343200 1.522500
2.369300 1.481100
2.395300 1.477500
2.421300 1.494800
2.447300 1.524200
2.473300 1.652900
2.499300 1.741200
2.525300 1.779100
2.551300 1.880100
2.577400 1.900700
2.603400 1.880700
2.629400 1.858100
2.655400 1.997500
2.681400 1.861700
2.707400 1.486200
2.733400 1.218300
2.759400 1.076000
2.785500 0.964500
2.811500 0.866800
2.837500 0.779600
2.863500 0.709800
2.889500 0.648600
2.915500 0.703600
2.941500 0.746500
2.967600 0.820600
2.993600 0.904900
3.019600 0.979400
3.045600 1.032900
3.071600 1.032100
3.097600 1.173700
3.123600 1.273000
3.149600 1.322300
3.175700 1.305500
3.201700 1.293500
3.227700 1.483300
3.253700 1.459600
3.279700 1.285200
3.305700 1.272500
3.331700 1.291800
3.357700 1.331900
3.383800 1.345200
3.409800 1.397000
3.435800 1.477100
3.461800 1.593400
3.487800 2.054300
3.513800 1.974000
3.539800 1.965400
3.565800 1.572700
3.591900 1.355300
3.617900 1.243400
3.643900 1.229700
3.669900 1.212700
3.695900 1.196100
3.721900 1.185900
3.747900 1.175200
3.773900 1.232900
3.800000 1.389500
3.826000 1.548300
3.852000 1.482600
3.878000 1.421400
3.904000 1.372500
3.930000 1.355900
3.956000 1.495700
3.982100 1.632700
4.008100 1.728900
4.034100 1.938500
4.060100 2.096600
4.086100 2.201800
4.112100 2.274000
4.138100 2.361200
4.164100 2.435400
4.190200 2.488000
4.216200 2.528200
4.242200 2.567500
4.268200 2.582600
4.294200 3.126300
4.320200 3.500800
4.346200 3.148700
4.372200 2.913900
4.398300 2.648000
4.424300 2.532900
4.450300 2.649200
4.476300 2.530600
4.502300 2.394500
4.528300 2.344300
4.554300 1.998800
4.580300 1.941400
4.606400 1.984500
4.632400 2.046400
4.658400 1.928000
4.684400 1.980900
4.710400 2.064200
4.736400 2.061000
4.762400 2.048400
4.788400 2.094400
4.814500 1.985100
4.840500 1.954100
4.866500 1.986600
4.892500 2.065400
4.918500 2.248900
4.944500 2.360500
4.970500 2.482100
4.996500 2.504400
5.022600 2.390300
5.048600 2.306300
5.074600 2.127800
5.100600 1.854600
5.126600 1.813500
5.152600 1.779800
5.178600 1.749800
5.204700 1.715900
5.230700 1.679300
5.256700 1.665100
5.282700 1.655600
5.308700 1.651800
5.334700 1.651900
5.360700 1.800200
5.386700 1.956800
5.412800 1.977200
5.438800 1.981600
5.464800 2.033700
5.490800 2.200000
5.516800 1.947500
5.542800 1.940400
5.568800 1.979200
5.594800 2.084900
5.620900 2.184600
5.646900 2.351200
5.672900 2.347600
5.698900 2.350300
5.724900 2.504200
5.750900 2.536700
5.776900 2.581100
5.802900 2.548500
5.829000 2.598600
5.855000 2.679200
5.881000 2.663800
5.907000 2.651900
5.933000 2.632300
5.959000 2.696000
5.985000 2.746100
6.011000 2.938000
6.037100 3.285000
6.063100 3.523700
6.089100 3.671800
6.115100 3.355600
6.141100 3.149700
6.167100 2.870000
6.193100 2.797900
6.219200 2.759100
6.245200 2.686800
6.271200 2.887000
6.297200 3.025700
6.323200 3.121500
6.349200 3.247200
6.375200 3.287300
6.401200 3.357000
6.427300 3.670500
6.453300 3.664300
6.479300 3.633000
6.505300 3.342300
6.531300 2.955000
6.557300 2.715600
6.583300 2.579200
6.609300 2.335500
6.635400 2.124900
6.661400 2.000600
6.687400 1.906400
6.713400 1.852800
6.739400 1.819700
6.765400 1.701300
6.791400 1.642200
6.817400 1.506500
6.843500 1.352700
6.869500 1.282900
6.895500 1.255400
6.921500 1.244900
6.947500 1.244900
6.973500 1.252600
6.999500 1.272100
7.025500 1.315500
7.051600 1.412000
7.077600 1.529400
7.103600 1.578100
7.129600 1.576200
7.155600 1.597600
7.181600 1.666900
7.207600 1.787000
7.233700 1.848600
7.259700 1.721800
7.285700 1.593600
7.311700 1.418100
7.337700 1.287400
7.363700 1.239100
7.389700 1.250700
7.415700 1.265200
7.441800 1.282100
7.467800 1.309600
7.493800 1.339800
7.519800 1.380800
7.545800 1.534700
7.571800 1.652900
7.597800 1.753100
7.623800 1.826300
7.649900 1.914500
7.675900 1.977100
7.701900 2.009700
7.727900 2.034700
7.753900 2.087100
7.779900 2.145400
7.805900 2.202300
7.831900 2.270100
7.858000 2.339300
7.884000 2.368700
7.910000 2.433500
7.936000 2.519600
7.962000 3.074000
7.988000 3.122900
8.014000 2.669600
8.040000 2.370800
8.066100 2.202900
8.092100 2.073400
8.118100 1.966900
8.144100 1.887400
8.170100 1.811000
8.196100 1.740800
8.222100 1.672400
8.248100 1.608900
8.274200 1.556500
8.300200 1.508300
8.326200 1.464800
8.352200 1.423300
8.378200 1.375600
8.404200 1.331900
8.430200 1.293300
8.456300 1.257100
8.482300 1.224900
8.508300 1.199800
8.534300 1.183500
8.560300 1.195000
8.586300 1.211100
8.612300 1.226900
8.638300 1.242800
8.664400 1.255500
8.690400 1.249200
8.716400 1.175300
8.742400 1.070000
8.768400 1.014500
8.794400 0.981900
8.820400 0.948400
8.846400 0.918500
8.872500 0.888600
8.898500 0.856500
8.924500 0.825800
8.950500 0.807100
8.976500 0.788700
9.002500 0.770600
9.028500 0.753500
9.054500 0.742100
9.080600 0.729700
9.106600 0.721100
9.132600 0.709300
9.158600 0.698900
9.184600 0.686700
9.210600 0.673400
9.236600 0.660100
9.262600 0.648000
9.288700 0.632200
9.314700 0.607400
9.340700 0.584900
9.366700 0.564400
9.392700 0.548200
9.418700 0.539700
9.444700 0.550800
9.470800 0.551500
9.496800 0.549900
9.522800 0.546300
9.548800 0.541400
9.574800 0.535500
9.600800 0.529300
9.626800 0.540200
9.652800 0.545300
