set title 'mp-568696 - Density of States'
set xlabel 'Energy (eV)'
set ylabel 'DOS (states/eV)'
set grid
set xrange [-10:10]
set yrange [0:41.847]
set xzeroaxis lt -1
set terminal png size 800,600
set output 'mp-568696_dos_gnuplot.png'
plot '-' using 1:2 with lines title 'DOS'
-8.917000 0.000000
-8.899700 0.000000
-8.882400 0.000000
-8.865100 0.000000
-8.847700 0.000000
-8.830400 0.000000
-8.813100 0.000000
-8.795800 0.000000
-8.778400 0.000000
-8.761100 0.000000
-8.743800 0.000000
-8.726500 0.000000
-8.709100 0.000000
-8.691800 0.000000
-8.674500 0.000000
-8.657200 0.000000
-8.639800 0.000000
-8.622500 0.000000
-8.605200 0.000000
-8.587900 0.000000
-8.570500 0.000000
-8.553200 0.000000
-8.535900 0.000000
-8.518600 0.000000
-8.501200 0.000000
-8.483900 0.000000
-8.466600 0.000000
-8.449300 0.000000
-8.431900 0.000000
-8.414600 0.000000
-8.397300 0.000000
-8.380000 0.000000
-8.362600 0.000000
-8.345300 0.000000
-8.328000 0.000000
-8.310700 0.000000
-8.293300 0.000000
-8.276000 0.000000
-8.258700 0.000000
-8.241400 0.000000
-8.224000 0.000000
-8.206700 0.000000
-8.189400 0.000000
-8.172100 0.000000
-8.154700 0.000000
-8.137400 0.000000
-8.120100 0.000000
-8.102800 0.000000
-8.085400 0.000000
-8.068100 0.000000
-8.050800 0.000000
-8.033500 0.000000
-8.016100 0.000000
-7.998800 0.000000
-7.981500 0.000000
-7.964200 0.000000
-7.946800 0.000000
-7.929500 0.000000
-7.912200 0.000000
-7.894900 0.000000
-7.877500 0.000000
-7.860200 0.000000
-7.842900 0.000000
-7.825600 0.000000
-7.808200 0.000000
-7.790900 0.000000
-7.773600 0.000000
-7.756300 0.000000
-7.738900 0.000000
-7.721600 0.000000
-7.704300 0.000000
-7.687000 0.000000
-7.669600 0.000000
-7.652300 0.000000
-7.635000 0.000000
-7.617700 0.000000
-7.600300 0.000000
-7.583000 0.000000
-7.565700 0.000000
-7.548400 0.000000
-7.531000 0.000000
-7.513700 0.000000
-7.496400 0.000000
-7.479100 0.000000
-7.461700 0.000000
-7.444400 0.000000
-7.427100 0.000000
-7.409800 0.000000
-7.392400 0.000000
-7.375100 0.000000
-7.357800 0.000000
-7.340500 0.005200
-7.323200 0.062500
-7.305800 0.119800
-7.288500 0.177000
-7.271200 0.234300
-7.253900 0.291600
-7.236500 0.380500
-7.219200 0.552800
-7.201900 0.725200
-7.184600 0.897600
-7.167200 1.069900
-7.149900 1.242300
-7.132600 1.414600
-7.115300 1.195400
-7.097900 1.315400
-7.080600 1.435500
-7.063300 1.555500
-7.046000 1.675600
-7.028600 1.438800
-7.011300 1.108300
-6.994000 1.123300
-6.976700 1.138300
-6.959300 1.162300
-6.942000 1.235800
-6.924700 1.333100
-6.907400 1.464900
-6.890000 1.596600
-6.872700 1.728400
-6.855400 1.860200
-6.838100 1.991900
-6.820700 2.123700
-6.803400 2.255500
-6.786100 2.387200
-6.768800 2.519000
-6.751400 2.297900
-6.734100 2.376200
-6.716800 2.090400
-6.699500 2.108300
-6.682100 2.123100
-6.664800 2.137900
-6.647500 2.152800
-6.630200 2.167600
-6.612800 2.181500
-6.595500 2.176900
-6.578200 2.171000
-6.560900 2.165100
-6.543500 2.159200
-6.526200 2.153300
-6.508900 2.147400
-6.491600 2.147200
-6.474200 2.148600
-6.456900 2.203600
-6.439600 2.325000
-6.422300 2.446400
-6.404900 2.569400
-6.387600 2.705400
-6.370300 2.841500
-6.353000 2.977600
-6.335600 3.111700
-6.318300 3.237300
-6.301000 3.359100
-6.283700 3.474300
-6.266300 3.589500
-6.249000 2.943600
-6.231700 2.949400
-6.214400 2.955100
-6.197000 2.960900
-6.179700 2.966700
-6.162400 2.972400
-6.145100 2.978200
-6.127700 2.987300
-6.110400 3.000600
-6.093100 3.018100
-6.075800 3.038700
-6.058400 3.059300
-6.041100 3.079900
-6.023800 3.100500
-6.006500 3.121200
-5.989100 3.141800
-5.971800 3.162400
-5.954500 3.183000
-5.937200 3.203700
-5.919800 3.224300
-5.902500 3.244900
-5.885200 3.236400
-5.867900 3.255400
-5.850500 3.271800
-5.833200 3.272600
-5.815900 3.270400
-5.798600 3.306200
-5.781200 3.426200
-5.763900 3.546200
-5.746600 3.666200
-5.729300 3.786300
-5.711900 3.906300
-5.694600 4.026300
-5.677300 4.146300
-5.660000 4.266400
-5.642600 4.392900
-5.625300 4.528100
-5.608000 4.285400
-5.590700 3.957400
-5.573300 3.978300
-5.556000 3.999200
-5.538700 4.020200
-5.521400 4.013000
-5.504000 4.032800
-5.486700 4.025100
-5.469400 4.044200
-5.452100 4.063400
-5.434700 4.082600
-5.417400 4.101700
-5.400100 4.122800
-5.382800 4.144400
-5.365400 4.166000
-5.348100 4.187500
-5.330800 4.209100
-5.313500 4.230700
-5.296200 4.252300
-5.278800 4.273900
-5.261500 4.295400
-5.244200 4.317000
-5.226900 4.338600
-5.209500 4.355800
-5.192200 4.356900
-5.174900 4.356800
-5.157600 4.356900
-5.140200 4.358100
-5.122900 4.359300
-5.105600 4.361700
-5.088300 4.364100
-5.070900 4.366500
-5.053600 4.318400
-5.036300 4.330900
-5.019000 4.400000
-5.001600 4.534300
-4.984300 4.684300
-4.967000 4.834400
-4.949700 4.984400
-4.932300 5.134400
-4.915000 5.283800
-4.897700 5.433200
-4.880400 5.582600
-4.863000 5.732000
-4.845700 5.881400
-4.828400 5.604200
-4.811100 5.290400
-4.793700 5.317000
-4.776400 5.343500
-4.759100 5.371400
-4.741800 5.401900
-4.724400 5.432400
-4.707100 5.462900
-4.689800 5.495000
-4.672500 5.530700
-4.655100 5.572700
-4.637800 5.614700
-4.620500 5.656600
-4.603200 5.698700
-4.585800 5.741700
-4.568500 5.784600
-4.551200 5.828000
-4.533900 5.871600
-4.516500 5.915200
-4.499200 5.958800
-4.481900 6.002400
-4.464600 6.046000
-4.447200 6.040300
-4.429900 6.072400
-4.412600 6.099100
-4.395300 6.127500
-4.377900 6.158700
-4.360600 6.189900
-4.343300 6.221100
-4.326000 6.252300
-4.308600 6.283500
-4.291300 6.594100
-4.274000 6.605600
-4.256700 6.622600
-4.239300 6.646500
-4.222000 7.078800
-4.204700 7.514200
-4.187400 7.638600
-4.170000 7.763200
-4.152700 7.893200
-4.135400 8.025900
-4.118100 8.158700
-4.100700 8.294200
-4.083400 8.430900
-4.066100 8.567600
-4.048800 8.314500
-4.031400 8.305700
-4.014100 8.274400
-3.996800 8.251200
-3.979500 8.228000
-3.962100 8.529700
-3.944800 8.475800
-3.927500 8.421800
-3.910200 8.367900
-3.892800 8.314000
-3.875500 8.260100
-3.858200 8.206200
-3.840900 8.152300
-3.823500 8.101200
-3.806200 8.128900
-3.788900 8.156600
-3.771600 8.102000
-3.754200 8.133400
-3.736900 9.390700
-3.719600 13.015400
-3.702300 8.166200
-3.684900 8.741900
-3.667600 8.724900
-3.650300 9.290700
-3.633000 8.885300
-3.615600 8.872600
-3.598300 8.881400
-3.581000 8.893400
-3.563700 8.905400
-3.546300 8.917400
-3.529000 8.283300
-3.511700 8.876000
-3.494400 9.507500
-3.477000 7.795500
-3.459700 7.765600
-3.442400 7.737500
-3.425100 7.712200
-3.407700 7.709200
-3.390400 7.783100
-3.373100 7.857100
-3.355800 7.948700
-3.338500 8.138600
-3.321100 8.328500
-3.303800 8.516200
-3.286500 9.655200
-3.269200 9.600800
-3.251800 10.331700
-3.234500 10.079500
-3.217200 9.432800
-3.199900 8.566300
-3.182500 8.161000
-3.165200 7.755700
-3.147900 7.350500
-3.130600 7.007800
-3.113200 6.799600
-3.095900 6.591300
-3.078600 6.543900
-3.061300 6.502200
-3.043900 6.517300
-3.026600 6.495000
-3.009300 6.533900
-2.992000 6.633200
-2.974600 6.807700
-2.957300 6.982200
-2.940000 7.555700
-2.922700 8.350400
-2.905300 9.211100
-2.888000 11.039600
-2.870700 14.163200
-2.853400 11.507800
-2.836000 11.161000
-2.818700 9.946900
-2.801400 8.736700
-2.784100 7.563300
-2.766700 6.389800
-2.749400 5.586600
-2.732100 5.319300
-2.714800 5.421300
-2.697400 6.079100
-2.680100 6.837700
-2.662800 7.625800
-2.645500 8.429900
-2.628100 9.234100
-2.610800 10.038300
-2.593500 7.318600
-2.576200 7.793900
-2.558800 4.746500
-2.541500 4.975100
-2.524200 5.203800
-2.506900 15.392000
-2.489500 12.607600
-2.472200 9.951200
-2.454900 13.324400
-2.437600 12.515000
-2.420200 11.705500
-2.402900 10.896100
-2.385600 13.749000
-2.368300 10.287900
-2.350900 5.869200
-2.333600 5.820800
-2.316300 5.772400
-2.299000 5.724000
-2.281600 7.318300
-2.264300 7.686100
-2.247000 1.979000
-2.229700 0.000000
-2.212300 0.000000
-2.195000 0.000000
-2.177700 0.000000
-2.160400 0.000000
-2.143000 0.000000
-2.125700 0.000000
-2.108400 0.000000
-2.091100 0.000000
-2.073700 0.000000
-2.056400 0.000000
-2.039100 0.000000
-2.021800 0.000000
-2.004400 0.000000
-1.987100 0.000000
-1.969800 0.000000
-1.952500 0.000000
-1.935100 0.000000
-1.917800 0.000000
-1.900500 0.000000
-1.883200 0.000000
-1.865800 0.000000
-1.848500 0.000000
-1.831200 0.000000
-1.813900 0.000000
-1.796500 0.000000
-1.779200 0.000000
-1.761900 0.000000
-1.744600 0.000000
-1.727200 0.000000
-1.709900 0.000000
-1.692600 0.000000
-1.675300 0.000000
-1.657900 0.000000
-1.640600 0.000000
-1.623300 0.000000
-1.606000 0.000000
-1.588600 0.000000
-1.571300 0.000000
-1.554000 0.000000
-1.536700 0.000000
-1.519300 0.000000
-1.502000 0.000000
-1.484700 0.000000
-1.467400 0.000000
-1.450000 0.000000
-1.432700 0.000000
-1.415400 0.000000
-1.398100 0.000000
-1.380700 0.000000
-1.363400 0.000000
-1.346100 0.000000
-1.328800 0.000000
-1.311500 0.000000
-1.294100 0.000000
-1.276800 0.000000
-1.259500 0.000000
-1.242200 0.000000
-1.224800 0.000000
-1.207500 0.000000
-1.190200 0.000000
-1.172900 0.000000
-1.155500 0.000000
-1.138200 0.000000
-1.120900 0.000000
-1.103600 0.000000
-1.086200 0.000000
-1.068900 0.000000
-1.051600 0.000000
-1.034300 0.000000
-1.016900 0.000000
-0.999600 0.000000
-0.982300 0.000000
-0.965000 0.000000
-0.947600 0.000000
-0.930300 0.000000
-0.913000 0.000000
-0.895700 0.000000
-0.878300 0.000000
-0.861000 0.000000
-0.843700 0.000000
-0.826400 0.000000
-0.809000 0.000000
-0.791700 0.000000
-0.774400 0.000000
-0.757100 0.000000
-0.739700 0.000000
-0.722400 0.000000
-0.705100 0.000000
-0.687800 0.000000
-0.670400 0.000000
-0.653100 0.000000
-0.635800 0.000000
-0.618500 0.000000
-0.601100 0.000000
-0.583800 0.000000
-0.566500 0.000000
-0.549200 0.000000
-0.531800 0.000000
-0.514500 0.000000
-0.497200 0.022200
-0.479900 0.091900
-0.462500 0.161600
-0.445200 0.231200
-0.427900 0.300900
-0.410600 0.370600
-0.393200 0.440300
-0.375900 0.509900
-0.358600 0.579600
-0.341300 0.649300
-0.323900 0.719000
-0.306600 0.405600
-0.289300 0.412700
-0.272000 1.498400
-0.254600 4.618300
-0.237300 0.948900
-0.220000 0.975300
-0.202700 1.476800
-0.185300 3.380200
-0.168000 7.474500
-0.150700 2.114000
-0.133400 2.178200
-0.116000 2.242300
-0.098700 2.306500
-0.081400 2.370600
-0.064100 2.434800
-0.046700 2.935200
-0.029400 4.685500
-0.012100 6.435700
0.005200 3.287300
0.022600 3.372000
0.039900 3.456600
0.057200 3.540800
0.074500 3.689500
0.091900 3.930300
0.109200 4.171100
0.126500 4.412000
0.143800 4.652800
0.161200 4.893600
0.178500 5.134500
0.195800 5.375300
0.213100 5.616100
0.230500 6.797100
0.247800 8.385500
0.265100 7.060300
0.282400 8.501700
0.299800 8.421400
0.317100 8.341100
0.334400 9.522300
0.351700 10.589700
0.369100 10.268100
0.386400 9.986700
0.403700 9.873700
0.421000 10.307100
0.438400 11.421100
0.455700 14.901500
0.473000 12.238400
0.490300 11.800900
0.507700 11.363300
0.525000 13.609800
0.542300 11.086700
0.559600 10.725400
0.577000 10.611000
0.594300 10.844000
0.611600 11.077100
0.628900 11.310200
0.646200 11.543300
0.663600 25.930900
0.680900 11.210300
0.698200 10.693400
0.715500 13.847500
0.732900 12.323700
0.750200 10.801900
0.767500 10.323000
0.784800 12.170200
0.802200 16.265600
0.819500 19.763900
0.836800 15.060100
0.854100 18.281700
0.871500 13.890200
0.888800 13.367000
0.906100 12.843800
0.923400 12.738200
0.940800 13.022300
0.958100 13.380000
0.975400 14.611600
0.992700 13.937300
1.010100 16.068100
1.027400 6.720000
1.044700 6.681500
1.062000 6.643000
1.079400 6.604500
1.096700 6.572700
1.114000 6.544100
1.131300 6.515400
1.148700 6.546500
1.166000 14.967800
1.183300 6.264600
1.200600 5.796300
1.218000 5.836400
1.235300 5.882500
1.252600 6.006500
1.269900 6.188600
1.287300 6.447900
1.304600 6.732800
1.321900 7.046300
1.339200 7.453000
1.356600 7.932600
1.373900 8.479300
1.391200 9.026100
1.408500 9.573900
1.425900 10.123600
1.443200 10.685700
1.460500 11.310600
1.477800 10.081300
1.495200 10.113500
1.512500 8.671000
1.529800 8.477300
1.547100 8.094400
1.564500 8.202500
1.581800 8.310600
1.599100 8.418600
1.616400 8.533500
1.633800 8.655600
1.651100 8.779500
1.668400 12.058400
1.685700 11.816400
1.703100 11.584700
1.720400 18.413700
1.737700 11.588500
1.755000 8.853900
1.772400 6.443500
1.789700 4.818500
1.807000 4.817300
1.824300 4.816200
1.841700 4.815100
1.859000 4.814000
1.876300 4.814400
1.893600 4.470700
1.911000 4.448700
1.928300 4.426700
1.945600 4.404600
1.962900 4.386600
1.980300 4.375900
1.997600 4.369900
2.014900 4.363900
2.032200 4.357800
2.049600 4.351800
2.066900 4.345800
2.084200 4.339800
2.101500 4.333700
2.118900 4.327700
2.136200 4.324700
2.153500 4.327700
2.170800 4.342600
2.188200 4.380500
2.205500 4.411200
2.222800 4.441900
2.240100 4.472500
2.257500 4.531700
2.274800 4.583400
2.292100 4.637600
2.309400 4.691800
2.326800 4.744500
2.344100 4.797200
2.361400 4.849900
2.378700 4.902600
2.396100 4.955300
2.413400 5.008000
2.430700 5.060700
2.448000 5.113200
2.465400 5.173700
2.482700 5.238300
2.500000 5.298900
2.517300 5.359500
2.534700 5.420100
2.552000 5.489600
2.569300 5.559400
2.586600 5.629100
2.604000 5.698900
2.621300 5.768700
2.638600 11.011700
2.655900 10.098900
2.673200 9.144600
2.690600 8.232400
2.707900 7.320300
2.725200 6.848300
2.742500 7.180500
2.759900 7.333400
2.777200 7.491100
2.794500 7.943100
2.811800 7.959700
2.829200 8.131800
2.846500 8.302000
2.863800 8.531200
2.881100 9.162900
2.898500 10.387500
2.915800 11.746600
2.933100 13.378000
2.950400 14.612700
2.967800 16.407400
2.985100 15.498400
3.002400 12.783700
3.019700 9.901400
3.037100 8.385500
3.054400 7.861500
3.071700 7.842100
3.089000 8.042700
3.106400 8.191800
3.123700 8.392500
3.141000 8.429900
3.158300 8.502100
3.175700 8.719200
3.193000 8.878400
3.210300 8.878400
3.227600 8.905900
3.245000 8.938600
3.262300 8.971300
3.279600 9.003900
3.296900 8.962600
3.314300 8.999000
3.331600 9.030500
3.348900 8.964400
3.366200 8.833200
3.383600 8.906100
3.400900 8.985600
3.418200 10.244400
3.435500 10.076400
3.452900 9.908400
3.470200 9.740400
3.487500 9.572400
3.504800 9.404400
3.522200 9.236400
3.539500 9.068500
3.556800 8.920900
3.574100 8.804200
3.591500 8.691000
3.608800 8.381900
3.626100 8.385800
3.643400 8.392200
3.660800 8.418100
3.678100 8.444100
3.695400 8.470200
3.712700 8.535400
3.730100 8.810700
3.747400 9.131500
3.764700 9.452200
3.782000 9.772800
3.799400 10.067100
3.816700 10.384200
3.834000 10.786000
3.851300 11.226000
3.868700 11.946900
3.886000 12.749800
3.903300 13.251500
3.920600 12.469000
3.938000 12.158600
3.955300 12.090100
3.972600 12.067100
3.989900 12.081800
4.007300 12.096500
4.024600 12.123600
4.041900 12.215300
4.059200 11.681600
4.076600 11.704100
4.093900 11.253200
4.111200 10.802200
4.128500 10.486100
4.145900 10.575200
4.163200 10.664600
4.180500 11.090100
4.197800 11.098600
4.215200 11.110000
4.232500 11.121400
4.249800 11.132800
4.267100 11.155400
4.284500 11.178200
4.301800 11.210100
4.319100 11.243100
4.336400 11.276100
4.353800 11.309100
4.371100 11.342100
4.388400 11.067400
4.405700 12.750700
4.423100 12.729800
4.440400 14.508700
4.457700 14.396700
4.475000 14.282100
4.492400 14.167500
4.509700 38.042900
4.527000 13.045300
4.544300 12.916900
4.561700 12.788100
4.579000 12.664800
4.596300 12.564400
4.613600 12.476700
4.630900 12.367400
4.648300 12.325000
4.665600 12.239900
4.682900 12.278800
4.700200 12.312500
4.717600 18.339500
4.734900 17.591400
4.752200 16.840700
4.769500 15.792400
4.786900 14.852300
4.804200 14.141200
4.821500 13.926500
4.838800 13.856400
4.856200 13.560800
4.873500 13.472000
4.890800 13.384000
4.908100 13.319200
4.925500 12.631500
4.942800 12.630500
4.960100 12.688100
4.977400 12.685000
4.994800 12.687000
5.012100 12.670000
5.029400 12.636700
5.046700 12.612400
5.064100 12.704800
5.081400 12.716600
5.098700 12.729100
5.116000 21.419600
5.133400 15.780800
5.150700 13.827500
5.168000 16.698000
5.185300 16.318200
5.202700 15.939700
5.220000 15.560100
5.237300 15.158700
5.254600 14.753900
5.272000 14.066200
5.289300 13.813700
5.306600 13.664300
5.323900 13.670600
5.341300 13.947900
5.358600 14.371300
5.375900 14.833000
5.393200 15.257800
5.410600 15.651300
5.427900 17.841600
5.445200 21.769600
5.462500 14.964700
5.479900 14.730800
5.497200 14.439500
5.514500 14.053000
5.531800 14.097200
5.549200 14.154300
5.566500 14.211400
5.583800 14.321200
5.601100 14.325600
5.618500 14.350500
5.635800 14.399600
5.653100 14.432300
5.670400 14.464200
5.687800 14.489800
5.705100 14.503200
5.722400 14.618900
5.739700 15.274200
5.757100 15.630200
5.774400 16.011900
5.791700 16.757600
5.809000 17.110700
5.826400 17.440700
5.843700 15.917100
5.861000 15.908300
5.878300 15.904600
5.895700 16.019700
5.913000 16.196100
5.930300 16.378300
5.947600 16.011400
5.965000 16.214800
5.982300 16.449400
5.999600 16.657300
6.016900 16.855400
6.034300 16.627800
6.051600 16.760500
6.068900 16.046200
6.086200 16.045400
6.103600 16.052800
6.120900 16.116000
6.138200 16.174200
6.155500 16.227900
6.172900 16.281500
6.190200 16.330800
6.207500 16.124100
6.224800 16.176000
6.242200 16.243300
6.259500 16.328200
6.276800 16.415000
6.294100 16.503500
6.311500 16.592000
6.328800 16.602600
6.346100 16.340000
6.363400 16.368100
6.380800 17.102500
6.398100 16.966100
6.415400 17.085200
6.432700 15.990100
6.450100 15.952300
6.467400 15.932900
6.484700 16.030200
6.502000 15.979700
6.519400 15.971600
6.536700 16.117500
6.554000 16.166300
6.571300 16.043000
6.588700 15.384400
6.606000 15.450000
6.623300 15.512800
6.640600 15.411800
6.657900 15.294800
6.675300 15.256000
6.692600 15.180000
6.709900 15.094100
6.727200 14.942800
6.744600 14.970200
6.761900 14.819000
6.779200 14.696800
6.796500 13.713100
6.813900 13.533300
6.831200 13.338900
6.848500 13.121600
6.865800 12.905200
6.883200 12.452000
6.900500 12.164600
6.917800 11.874500
6.935100 11.595100
6.952500 11.055500
6.969800 10.907900
6.987100 10.613600
7.004400 10.358300
7.021800 10.087300
7.039100 9.836900
7.056400 9.660100
7.073700 9.590500
7.091100 9.443800
7.108400 9.302200
7.125700 9.159300
7.143000 8.996700
7.160400 8.899800
7.177700 8.685200
7.195000 8.572800
7.212300 8.521500
7.229700 8.352200
7.247000 8.156900
7.264300 8.026400
7.281600 7.859000
7.299000 7.605100
7.316300 7.461400
7.333600 7.236800
7.350900 7.012300
7.368300 6.787700
7.385600 6.563200
7.402900 6.338600
7.420200 6.115800
7.437600 5.913900
7.454900 5.710500
7.472200 5.477800
7.489500 5.261900
7.506900 5.052100
7.524200 4.866700
7.541500 5.044900
7.558800 5.040000
7.576200 4.831400
7.593500 4.648000
7.610800 4.523700
7.628100 4.334500
7.645500 4.145400
7.662800 3.956200
7.680100 3.767100
7.697400 3.578000
7.714800 3.396900
7.732100 3.225400
7.749400 3.045700
7.766700 2.866600
7.784100 2.746000
7.801400 2.625400
7.818700 3.957400
7.836000 3.562800
7.853400 3.499600
7.870700 3.025900
7.888000 2.552100
7.905300 2.078400
7.922700 2.144000
7.940000 1.555100
7.957300 1.052900
7.974600 0.590500
7.992000 0.199200
8.009300 0.000000
8.026600 0.000000
8.043900 0.000000
8.061300 0.000000
8.078600 0.000000
8.095900 0.000000
8.113200 0.000000
8.130600 0.000000
8.147900 0.000000
8.165200 0.000000
8.182500 0.000000
8.199900 0.000000
8.217200 0.000000
8.234500 0.000000
8.251800 0.000000
8.269200 0.000000
8.286500 0.000000
8.303800 0.000000
8.321100 0.000000
8.338500 0.000000
8.355800 0.000000
8.373100 0.000000
8.390400 0.000000
8.407800 0.000000
8.425100 0.000000
8.442400 0.000000
8.459700 0.000000
8.477100 0.000000
8.494400 0.000000
8.511700 0.000000
8.529000 0.000000
8.546400 0.000000
8.563700 0.000000
8.581000 0.000000
8.598300 0.000000
8.615700 0.000000
8.633000 0.000000
8.650300 0.000000
8.667600 0.000000
8.684900 0.000000
8.702300 0.000000
8.719600 0.000000
8.736900 0.000000
8.754200 0.000000
8.771600 0.000000
8.788900 0.000000
8.806200 0.000000
8.823500 0.000000
8.840900 0.000000
8.858200 0.000000
8.875500 0.000000
8.892800 0.000000
8.910200 0.000000
8.927500 0.000000
8.944800 0.000000
8.962100 0.000000
8.979500 0.000000
8.996800 0.000000
9.014100 0.000000
9.031400 0.000000
9.048800 0.000000
9.066100 0.000000
9.083400 0.000000
9.100700 0.000000
9.118100 0.000000
9.135400 0.000000
9.152700 0.000000
9.170000 0.000000
9.187400 0.000000
9.204700 0.000000
9.222000 0.000000
9.239300 0.000000
9.256700 0.000000
9.274000 0.000000
9.291300 0.000000
