set title 'mp-1841 - Density of States'
set xlabel 'Energy (eV)'
set ylabel 'DOS (states/eV)'
set grid
set xrange [-10:10]
set yrange [0:18.561]
set xzeroaxis lt -1
set terminal png size 800,600
set output 'mp-1841_dos_gnuplot.png'
plot '-' using 1:2 with lines title 'DOS'
-3.277900 0.000000
-3.265300 0.000000
-3.252700 0.000000
-3.240100 0.000000
-3.227500 0.000000
-3.214800 0.000000
-3.202200 0.000000
-3.189600 0.000000
-3.177000 0.000000
-3.164400 0.000000
-3.151800 0.000000
-3.139200 0.000000
-3.126600 0.000000
-3.114000 0.000000
-3.101400 0.000000
-3.088800 0.000000
-3.076200 0.000000
-3.063600 0.000000
-3.051000 0.000000
-3.038300 0.000000
-3.025700 0.000000
-3.013100 0.000000
-3.000500 0.000000
-2.987900 0.000000
-2.975300 0.000000
-2.962700 0.000000
-2.950100 0.000000
-2.937500 0.000000
-2.924900 0.000000
-2.912300 0.000000
-2.899700 0.000000
-2.887100 0.000000
-2.874500 0.000000
-2.861800 0.000000
-2.849200 0.000000
-2.836600 0.000000
-2.824000 0.000000
-2.811400 0.000000
-2.798800 0.000000
-2.786200 0.000000
-2.773600 0.000000
-2.761000 0.000000
-2.748400 0.000000
-2.735800 0.000000
-2.723200 0.000000
-2.710600 0.000000
-2.698000 0.000000
-2.685300 0.000000
-2.672700 0.000000
-2.660100 0.000000
-2.647500 0.000000
-2.634900 0.000000
-2.622300 0.000000
-2.609700 0.000000
-2.597100 0.000000
-2.584500 0.000000
-2.571900 0.000000
-2.559300 0.000000
-2.546700 0.000000
-2.534100 0.000000
-2.521500 0.000000
-2.508800 0.000000
-2.496200 0.000000
-2.483600 0.000000
-2.471000 0.000000
-2.458400 0.000000
-2.445800 0.000000
-2.433200 0.000000
-2.420600 0.000000
-2.408000 0.000000
-2.395400 0.000000
-2.382800 0.000000
-2.370200 0.000000
-2.357600 0.000000
-2.345000 0.000000
-2.332300 0.000000
-2.319700 0.000000
-2.307100 0.000000
-2.294500 0.000000
-2.281900 0.000000
-2.269300 0.000000
-2.256700 0.000000
-2.244100 0.000000
-2.231500 0.000000
-2.218900 0.000000
-2.206300 0.000000
-2.193700 0.000000
-2.181100 0.000000
-2.168500 0.000000
-2.155800 0.000000
-2.143200 0.000000
-2.130600 0.000100
-2.118000 0.007400
-2.105400 0.027100
-2.092800 0.059200
-2.080200 0.103600
-2.067600 0.151600
-2.055000 0.133300
-2.042400 0.144400
-2.029800 0.157300
-2.017200 0.171800
-2.004600 0.187900
-1.992000 0.205500
-1.979300 0.224600
-1.966700 0.240500
-1.954100 0.250900
-1.941500 0.255800
-1.928900 0.256200
-1.916300 0.263600
-1.903700 0.270200
-1.891100 0.278500
-1.878500 0.287400
-1.865900 0.296600
-1.853300 0.305900
-1.840700 0.315400
-1.828100 0.325100
-1.815500 0.335400
-1.802800 0.346200
-1.790200 0.357700
-1.777600 0.367500
-1.765000 0.371000
-1.752400 0.376700
-1.739800 0.382900
-1.727200 0.388900
-1.714600 0.394800
-1.702000 0.400300
-1.689400 0.405700
-1.676800 0.411200
-1.664200 0.416800
-1.651600 0.422900
-1.639000 0.430500
-1.626300 0.438900
-1.613700 0.446800
-1.601100 0.454900
-1.588500 0.463100
-1.575900 0.471500
-1.563300 0.479900
-1.550700 0.488500
-1.538100 0.496700
-1.525500 0.503800
-1.512900 0.509200
-1.500300 0.513400
-1.487700 0.517700
-1.475100 0.522400
-1.462500 0.527600
-1.449800 0.533200
-1.437200 0.539300
-1.424600 0.545600
-1.412000 0.552200
-1.399400 0.558700
-1.386800 0.565200
-1.374200 0.571700
-1.361600 0.578200
-1.349000 0.584800
-1.336400 0.591400
-1.323800 0.598200
-1.311200 0.605100
-1.298600 0.612100
-1.286000 0.619200
-1.273300 0.626400
-1.260700 0.633600
-1.248100 0.640900
-1.235500 0.648100
-1.222900 0.656100
-1.210300 0.662600
-1.197700 0.668500
-1.185100 0.674300
-1.172500 0.680200
-1.159900 0.686100
-1.147300 0.692000
-1.134700 0.698100
-1.122100 0.704500
-1.109400 0.711000
-1.096800 0.717600
-1.084200 0.724200
-1.071600 0.730800
-1.059000 0.737500
-1.046400 0.744300
-1.033800 0.751100
-1.021200 0.758000
-1.008600 0.764800
-0.996000 0.771900
-0.983400 0.779300
-0.970800 0.787000
-0.958200 0.795000
-0.945600 0.803200
-0.932900 0.811300
-0.920300 0.819600
-0.907700 0.827800
-0.895100 0.836000
-0.882500 0.844100
-0.869900 0.851900
-0.857300 0.859800
-0.844700 0.867500
-0.832100 0.874700
-0.819500 0.882100
-0.806900 0.889600
-0.794300 0.897200
-0.781700 0.904800
-0.769100 0.912500
-0.756400 0.920200
-0.743800 0.928100
-0.731200 0.936200
-0.718600 0.946400
-0.706000 0.955500
-0.693400 0.964700
-0.680800 0.974100
-0.668200 0.983700
-0.655600 0.993600
-0.643000 1.003700
-0.630400 1.014100
-0.617800 1.024700
-0.605200 1.035400
-0.592600 1.046100
-0.579900 1.057000
-0.567300 1.068200
-0.554700 1.079900
-0.542100 1.092400
-0.529500 1.105700
-0.516900 1.120000
-0.504300 1.135300
-0.491700 1.151600
-0.479100 1.169100
-0.466500 1.188100
-0.453900 1.208700
-0.441300 1.227600
-0.428700 1.249600
-0.416100 1.274500
-0.403400 1.299800
-0.390800 1.325900
-0.378200 1.355800
-0.365600 1.389900
-0.353000 1.423800
-0.340400 1.455500
-0.327800 1.496900
-0.315200 1.513500
-0.302600 1.510300
-0.290000 1.489900
-0.277400 1.460100
-0.264800 1.445100
-0.252200 1.449800
-0.239600 1.451600
-0.226900 1.436500
-0.214300 1.443500
-0.201700 1.452300
-0.189100 1.463200
-0.176500 1.484400
-0.163900 1.521500
-0.151300 1.527200
-0.138700 1.545900
-0.126100 1.595700
-0.113500 1.631000
-0.100900 1.641700
-0.088300 1.654100
-0.075700 1.740500
-0.063100 1.792300
-0.050400 1.827100
-0.037800 1.911000
-0.025200 1.975300
-0.012600 2.028900
-0.000000 2.147900
0.012600 2.155300
0.025200 2.176900
0.037800 2.177900
0.050400 2.185600
0.063000 2.211800
0.075600 2.232700
0.088200 2.301500
0.100800 2.792200
0.113400 2.324000
0.126100 2.353500
0.138700 2.339000
0.151300 2.357100
0.163900 2.321600
0.176500 2.242500
0.189100 2.138300
0.201700 2.181100
0.214300 2.359600
0.226900 2.347000
0.239500 2.624400
0.252100 2.834000
0.264700 2.856700
0.277300 3.058600
0.289900 3.361300
0.302600 3.684800
0.315200 4.322100
0.327800 4.591500
0.340400 4.701800
0.353000 5.109900
0.365600 5.740200
0.378200 6.420600
0.390800 6.424300
0.403400 6.357700
0.416000 6.263800
0.428600 6.080000
0.441200 5.268200
0.453800 4.786600
0.466400 4.401900
0.479100 4.093000
0.491700 3.750800
0.504300 3.251400
0.516900 2.919100
0.529500 2.696300
0.542100 2.504900
0.554700 2.335400
0.567300 2.178600
0.579900 2.047800
0.592500 1.914300
0.605100 1.818800
0.617700 1.682300
0.630300 1.560400
0.642900 1.452800
0.655600 1.338000
0.668200 1.233100
0.680800 1.244300
0.693400 0.988700
0.706000 0.879600
0.718600 0.812400
0.731200 0.771000
0.743800 0.729100
0.756400 0.676700
0.769000 0.640600
0.781600 0.603600
0.794200 0.567300
0.806800 0.529200
0.819400 0.493900
0.832100 0.462200
0.844700 0.435000
0.857300 0.398700
0.869900 0.369000
0.882500 0.361800
0.895100 0.276900
0.907700 0.230600
0.920300 0.190300
0.932900 0.180100
0.945500 0.167700
0.958100 0.013300
0.970700 0.000000
0.983300 0.000000
0.995900 0.000000
1.008600 0.000000
1.021200 0.000000
1.033800 0.000000
1.046400 0.000000
1.059000 0.000000
1.071600 0.000000
1.084200 0.000000
1.096800 0.000000
1.109400 0.000000
1.122000 0.000000
1.134600 0.000000
1.147200 0.000000
1.159800 0.000200
1.172400 0.001700
1.185100 0.004500
1.197700 0.008600
1.210300 0.014100
1.222900 0.020900
1.235500 0.032700
1.248100 0.052400
1.260700 0.080000
1.273300 0.106900
1.285900 0.096200
1.298500 0.091900
1.311100 0.096900
1.323700 0.102100
1.336300 0.107500
1.348900 0.113200
1.361600 0.119000
1.374200 0.125100
1.386800 0.131300
1.399400 0.137600
1.412000 0.179300
1.424600 0.182300
1.437200 0.175800
1.449800 0.179300
1.462400 0.183100
1.475000 0.187000
1.487600 0.191200
1.500200 0.195600
1.512800 0.200200
1.525400 0.204900
1.538100 0.209800
1.550700 0.214900
1.563300 0.220400
1.575900 0.226300
1.588500 0.232400
1.601100 0.238700
1.613700 0.245100
1.626300 0.251600
1.638900 0.258300
1.651500 0.265200
1.664100 0.283800
1.676700 0.294000
1.689300 0.299600
1.701900 0.304700
1.714600 0.309300
1.727200 0.313600
1.739800 0.317800
1.752400 0.322600
1.765000 0.327800
1.777600 0.333300
1.790200 0.339100
1.802800 0.347200
1.815400 0.403100
1.828000 0.433800
1.840600 0.472000
1.853200 0.515900
1.865800 0.557800
1.878400 0.567600
1.891100 0.598300
1.903700 0.628900
1.916300 0.653200
1.928900 0.680000
1.941500 0.735300
1.954100 0.752200
1.966700 0.773400
1.979300 0.799500
1.991900 0.831600
2.004500 0.858300
2.017100 0.885000
2.029700 0.910300
2.042300 0.937900
2.054900 0.967200
2.067600 0.997100
2.080200 1.030000
2.092800 1.069400
2.105400 1.136500
2.118000 1.227500
2.130600 1.208500
2.143200 1.224700
2.155800 1.253700
2.168400 1.265800
2.181000 1.272200
2.193600 1.281000
2.206200 1.294800
2.218800 1.315200
2.231400 1.344800
2.244100 1.384000
2.256700 1.413400
2.269300 1.435000
2.281900 1.458600
2.294500 1.488900
2.307100 1.524200
2.319700 1.563200
2.332300 1.617100
2.344900 1.678700
2.357500 1.748200
2.370100 1.819300
2.382700 1.883100
2.395300 1.945300
2.407900 2.017900
2.420600 2.123700
2.433200 2.211000
2.445800 2.290600
2.458400 2.371800
2.471000 2.465100
2.483600 2.574400
2.496200 2.693200
2.508800 2.815200
2.521400 2.951200
2.534000 3.107500
2.546600 3.287600
2.559200 3.470100
2.571800 3.720600
2.584400 4.057800
2.597100 4.421200
2.609700 4.898200
2.622300 5.534200
2.634900 6.611700
2.647500 7.225000
2.660100 6.667600
2.672700 6.209900
2.685300 5.768100
2.697900 5.262300
2.710500 4.982500
2.723100 4.708600
2.735700 4.736500
2.748300 5.035200
2.760900 5.341100
2.773600 5.394100
2.786200 5.370900
2.798800 5.284800
2.811400 5.206900
2.824000 5.124800
2.836600 5.080200
2.849200 5.556100
2.861800 5.452100
2.874400 5.468100
2.887000 5.348700
2.899600 5.052600
2.912200 4.679600
2.924800 4.267600
2.937400 4.074600
2.950100 3.788500
2.962700 3.714600
2.975300 3.777800
2.987900 3.847100
3.000500 3.979000
3.013100 4.215100
3.025700 4.404500
3.038300 4.475200
3.050900 4.573500
3.063500 4.722300
3.076100 4.908800
3.088700 5.036300
3.101300 5.078300
3.113900 5.124200
3.126600 5.271400
3.139200 5.416200
3.151800 5.508900
3.164400 5.432800
3.177000 5.074100
3.189600 4.878300
3.202200 4.705700
3.214800 4.710300
3.227400 4.782300
3.240000 4.669700
3.252600 4.781600
3.265200 4.968300
3.277800 5.066200
3.290400 5.087700
3.303100 5.178600
3.315700 5.578100
3.328300 6.088900
3.340900 6.236100
3.353500 6.579000
3.366100 6.939800
3.378700 6.538400
3.391300 6.269800
3.403900 5.698400
3.416500 5.186000
3.429100 4.963800
3.441700 4.492000
3.454300 4.363800
3.466900 4.099200
3.479600 4.064700
3.492200 3.815700
3.504800 3.212600
3.517400 2.963500
3.530000 2.785300
3.542600 2.596400
3.555200 2.466300
3.567800 2.426000
3.580400 2.425400
3.593000 2.505700
3.605600 2.648000
3.618200 2.850900
3.630800 3.094300
3.643400 3.415400
3.656100 3.799700
3.668700 4.375500
3.681300 5.046300
3.693900 5.924700
3.706500 6.761300
3.719100 7.594500
3.731700 7.450900
3.744300 7.379900
3.756900 7.551200
3.769500 8.008500
3.782100 7.941000
3.794700 7.616800
3.807300 5.627800
3.819900 3.760200
3.832600 3.503500
3.845200 3.622800
3.857800 4.464600
3.870400 4.466000
3.883000 4.527000
3.895600 5.027000
3.908200 5.649700
3.920800 6.214200
3.933400 6.452400
3.946000 6.525100
3.958600 6.510500
3.971200 6.748100
3.983800 6.956400
3.996400 7.316600
4.009100 7.885600
4.021700 8.501600
4.034300 8.692500
4.046900 8.774300
4.059500 9.159700
4.072100 9.749900
4.084700 11.099800
4.097300 11.375000
4.109900 11.063000
4.122500 10.825000
4.135100 10.802500
4.147700 9.474700
4.160300 8.178000
4.172900 7.413800
4.185600 6.773800
4.198200 6.313900
4.210800 5.909000
4.223400 5.670100
4.236000 5.347000
4.248600 5.374100
4.261200 5.436600
4.273800 5.324000
4.286400 5.339400
4.299000 5.361800
4.311600 5.537000
4.324200 5.606500
4.336800 5.721900
4.349400 6.107900
4.362100 6.809200
4.374700 6.403400
4.387300 5.826400
4.399900 5.567100
4.412500 5.367900
4.425100 4.987000
4.437700 4.641200
4.450300 4.577400
4.462900 4.572800
4.475500 4.734100
4.488100 4.876000
4.500700 5.141800
4.513300 5.376800
4.525900 5.579500
4.538600 5.857800
4.551200 6.374500
4.563800 7.427100
4.576400 7.655300
4.589000 8.590700
4.601600 9.285200
4.614200 9.801900
4.626800 10.573900
4.639400 11.225800
4.652000 11.269200
4.664600 11.058100
4.677200 11.049200
4.689800 10.041800
4.702400 8.941900
4.715100 7.853800
4.727700 7.284800
4.740300 7.183400
4.752900 7.273600
4.765500 6.985900
4.778100 7.270900
4.790700 7.599200
4.803300 7.910800
4.815900 8.314600
4.828500 9.002700
4.841100 10.270800
4.853700 9.654500
4.866300 8.267400
4.878900 7.689400
4.891600 7.009500
4.904200 6.183300
4.916800 5.708600
4.929400 5.377300
4.942000 5.158500
4.954600 5.024300
4.967200 5.037300
4.979800 5.252000
4.992400 5.334500
5.005000 5.354700
5.017600 5.573000
5.030200 6.144000
5.042800 5.888500
5.055400 6.101600
5.068100 6.252200
5.080700 6.234000
5.093300 5.996800
5.105900 5.888500
5.118500 5.727400
5.131100 5.786200
5.143700 6.175300
5.156300 6.530000
5.168900 6.945800
5.181500 7.364200
5.194100 7.711500
5.206700 7.966700
5.219300 7.850600
5.231900 8.149600
5.244600 8.251500
5.257200 8.159400
5.269800 7.936800
5.282400 7.775800
5.295000 6.949900
5.307600 6.522000
5.320200 6.486900
5.332800 6.796100
5.345400 7.102200
5.358000 8.992100
5.370600 10.430600
5.383200 9.767400
5.395800 9.605000
5.408400 9.842800
5.421100 10.554800
5.433700 10.873300
5.446300 11.261400
5.458900 11.307900
5.471500 11.827500
5.484100 11.742900
5.496700 11.448400
5.509300 10.932600
5.521900 10.609000
5.534500 10.702200
5.547100 12.347600
5.559700 12.695500
5.572300 12.954300
5.584900 12.481100
5.597600 11.778900
5.610200 11.033100
5.622800 10.396400
5.635400 10.214700
5.648000 10.098800
5.660600 9.833400
5.673200 9.383200
5.685800 6.551300
5.698400 6.020700
5.711000 6.086800
5.723600 6.520500
5.736200 7.113300
5.748800 7.821500
5.761400 8.821900
5.774100 9.183100
5.786700 9.726500
5.799300 10.736400
5.811900 10.939200
5.824500 10.104800
5.837100 9.030100
5.849700 8.051100
5.862300 7.654100
5.874900 8.208600
5.887500 9.634600
5.900100 11.634100
5.912700 13.856300
5.925300 16.873200
5.937900 16.768800
5.950600 15.502400
5.963200 14.575800
5.975800 13.900200
5.988400 12.578900
6.001000 10.986900
6.013600 9.971000
6.026200 11.362300
6.038800 10.497800
6.051400 11.173700
6.064000 10.777400
6.076600 10.771600
6.089200 10.604400
6.101800 10.677100
6.114400 10.548800
6.127100 9.891700
6.139700 9.300200
6.152300 9.172700
6.164900 9.317300
6.177500 9.793600
6.190100 9.698400
6.202700 8.732600
6.215300 7.296100
6.227900 6.243400
6.240500 5.636700
6.253100 5.218700
6.265700 5.000100
6.278300 4.899700
6.290900 4.749600
6.303600 4.455800
6.316200 4.222600
6.328800 3.951000
6.341400 3.848400
6.354000 3.855900
6.366600 4.007400
6.379200 4.455600
6.391800 4.560200
6.404400 4.853700
6.417000 5.527600
6.429600 6.593100
6.442200 8.247400
6.454800 9.356800
6.467400 11.453500
6.480100 12.822800
6.492700 12.577600
6.505300 11.855300
6.517900 10.378800
6.530500 9.461900
6.543100 9.086400
6.555700 8.948000
6.568300 9.014100
6.580900 8.783100
6.593500 8.305400
6.606100 7.794700
6.618700 7.465900
6.631300 7.353600
6.643900 7.542000
6.656600 7.737900
6.669200 7.928200
6.681800 8.210600
6.694400 8.396200
6.707000 8.951900
6.719600 9.129000
6.732200 9.145400
6.744800 8.904600
6.757400 8.519200
6.770000 8.154200
6.782600 7.776300
6.795200 7.122500
6.807800 6.609400
6.820400 6.141800
6.833100 5.707300
6.845700 5.245500
6.858300 4.982800
6.870900 4.643200
6.883500 4.488400
6.896100 4.429600
6.908700 4.396400
6.921300 4.901900
6.933900 5.693700
6.946500 6.683800
6.959100 7.992200
6.971700 8.757700
6.984300 8.908600
6.996900 9.109900
7.009600 9.473600
7.022200 9.680900
7.034800 10.727400
7.047400 12.221300
7.060000 14.065600
7.072600 13.867600
7.085200 13.404500
7.097800 13.438500
7.110400 14.377900
7.123000 15.530600
7.135600 15.484800
7.148200 14.920500
7.160800 14.485200
7.173400 12.661300
7.186100 10.544300
7.198700 9.211400
7.211300 8.231200
7.223900 7.416500
7.236500 6.999700
7.249100 6.048700
7.261700 4.874400
7.274300 4.453400
7.286900 4.644000
7.299500 5.002400
7.312100 5.601800
7.324700 6.197800
7.337300 6.692600
7.350000 7.192300
7.362600 7.924600
7.375200 8.345000
7.387800 8.533000
7.400400 8.342500
7.413000 8.248000
7.425600 8.357000
7.438200 8.483300
7.450800 8.550600
7.463400 8.404800
7.476000 8.200300
7.488600 8.138400
7.501200 8.315100
7.513800 8.561000
7.526500 8.516700
7.539100 8.431100
7.551700 8.373200
7.564300 9.074600
7.576900 10.434000
7.589500 12.585700
7.602100 14.600000
7.614700 15.698200
7.627300 16.254000
7.639900 15.221600
7.652500 12.567500
7.665100 11.293700
7.677700 9.979300
7.690300 9.552000
7.703000 9.677600
7.715600 9.748800
7.728200 8.566700
7.740800 8.653700
7.753400 8.543100
7.766000 8.607800
7.778600 8.399100
7.791200 8.318200
7.803800 8.402100
7.816400 9.115300
7.829000 10.224700
7.841600 10.598200
7.854200 11.215900
7.866800 11.044100
7.879500 9.450300
7.892100 8.843400
7.904700 8.105100
7.917300 7.922400
7.929900 7.839000
7.942500 8.194300
7.955100 8.639200
7.967700 9.211300
7.980300 10.216800
7.992900 9.634600
8.005500 8.898200
8.018100 8.591900
8.030700 8.006200
8.043300 7.529000
8.056000 7.449200
8.068600 7.604900
8.081200 7.192400
8.093800 6.410500
8.106400 6.074200
8.119000 5.709100
8.131600 5.583900
8.144200 5.737500
8.156800 5.924000
8.169400 6.664900
8.182000 7.463900
8.194600 8.271400
8.207200 8.645700
8.219800 9.349700
8.232500 10.016200
8.245100 9.955200
8.257700 9.316000
8.270300 8.737300
8.282900 7.785100
8.295500 7.294700
8.308100 7.443900
8.320700 7.652200
8.333300 8.143300
8.345900 8.594000
8.358500 9.367600
8.371100 10.018200
8.383700 10.464400
8.396300 9.219600
8.409000 8.991500
8.421600 8.978800
8.434200 9.064800
8.446800 8.639600
8.459400 9.008600
8.472000 8.747400
8.484600 8.191500
8.497200 7.936100
8.509800 7.738800
8.522400 7.617800
8.535000 7.693900
8.547600 8.315300
8.560200 8.555500
8.572800 8.814500
8.585500 9.411500
8.598100 9.869400
8.610700 9.545100
8.623300 8.819800
8.635900 7.969900
8.648500 6.322200
8.661100 5.850900
8.673700 4.476600
8.686300 3.885400
8.698900 3.534400
8.711500 3.579100
8.724100 4.076400
8.736700 4.968500
8.749300 6.092600
8.762000 7.971400
8.774600 10.225100
8.787200 12.168900
8.799800 13.776400
8.812400 12.681100
8.825000 11.704600
8.837600 10.228100
8.850200 9.279100
8.862800 8.735400
8.875400 8.174400
8.888000 7.699000
8.900600 7.398900
8.913200 7.236100
8.925800 7.165900
8.938500 6.948400
8.951100 6.851700
8.963700 6.856600
8.976300 6.935100
8.988900 7.218800
9.001500 7.463000
9.014100 6.690500
9.026700 6.194800
9.039300 5.903900
9.051900 5.767800
9.064500 5.756800
9.077100 5.916000
9.089700 6.476400
9.102300 7.099800
9.115000 7.645700
9.127600 8.306100
9.140200 8.791500
9.152800 9.219100
9.165400 9.708000
9.178000 10.280500
9.190600 10.085300
9.203200 9.813300
9.215800 9.490100
9.228400 9.372900
9.241000 9.567500
9.253600 9.745600
9.266200 9.876000
9.278800 9.715500
9.291500 9.627000
9.304100 9.780100
9.316700 9.803100
9.329300 10.526700
9.341900 10.415100
9.354500 9.646000
9.367100 8.948900
9.379700 7.347700
9.392300 6.166400
9.404900 5.741100
9.417500 6.867000
9.430100 8.156900
9.442700 10.173200
9.455300 11.442900
9.468000 10.093900
9.480600 9.866300
9.493200 9.753900
9.505800 9.489100
9.518400 9.320200
9.531000 9.286300
9.543600 9.187700
9.556200 8.557000
9.568800 8.314200
9.581400 7.596600
9.594000 7.568400
9.606600 8.165000
9.619200 8.246700
9.631800 7.593000
9.644500 6.899500
9.657100 5.602700
9.669700 4.861800
9.682300 4.577500
9.694900 4.503800
9.707500 4.820100
9.720100 4.843400
9.732700 5.344200
9.745300 7.385800
9.757900 7.194700
9.770500 8.235100
9.783100 7.803500
9.795700 5.875000
9.808300 5.124100
9.821000 4.753000
9.833600 4.569800
9.846200 4.405200
9.858800 4.289500
9.871400 4.270900
9.884000 4.410100
9.896600 4.549700
9.909200 4.753700
9.921800 4.871800
9.934400 4.976900
9.947000 5.056400
9.959600 5.004700
9.972200 5.330500
9.984800 5.519300
9.997500 6.213300
10.010100 6.992300
10.022700 5.859200
10.035300 4.355400
10.047900 3.758900
10.060500 3.886800
10.073100 3.760700
10.085700 3.661500
10.098300 4.068700
10.110900 4.011400
10.123500 3.881400
10.136100 3.821400
10.148700 3.743400
10.161300 3.527300
10.174000 3.427100
10.186600 3.374400
10.199200 3.381400
10.211800 3.390300
10.224400 3.391900
10.237000 3.415500
10.249600 3.473500
