set title 'mp-1390618 - Density of States'
set xlabel 'Energy (eV)'
set ylabel 'DOS (states/eV)'
set grid
set xrange [-10:10]
set yrange [0:8.397]
set xzeroaxis lt -1
set terminal png size 800,600
set output 'mp-1390618_dos_gnuplot.png'
plot '-' using 1:2 with lines title 'DOS'
-20.728100 0.000000
-20.690300 0.000000
-20.652600 0.000000
-20.614900 0.000000
-20.577100 0.000000
-20.539400 0.000000
-20.501700 0.000000
-20.463900 0.000000
-20.426200 0.000000
-20.388500 0.000000
-20.350800 0.000000
-20.313000 0.000000
-20.275300 0.000000
-20.237600 0.000000
-20.199800 0.000000
-20.162100 0.000000
-20.124400 0.000000
-20.086600 0.000000
-20.048900 0.000000
-20.011200 0.000000
-19.973400 0.000000
-19.935700 0.000000
-19.898000 0.000000
-19.860300 0.000000
-19.822500 0.000000
-19.784800 0.000000
-19.747100 0.000000
-19.709300 0.000000
-19.671600 0.000000
-19.633900 0.000000
-19.596100 0.000000
-19.558400 0.000000
-19.520700 0.000000
-19.482900 0.000000
-19.445200 0.000000
-19.407500 0.000000
-19.369800 0.000000
-19.332000 0.000000
-19.294300 0.000000
-19.256600 0.000000
-19.218800 0.000000
-19.181100 0.000000
-19.143400 0.000000
-19.105600 0.000000
-19.067900 0.000000
-19.030200 0.000000
-18.992400 0.000000
-18.954700 0.000000
-18.917000 0.000000
-18.879300 0.000000
-18.841500 0.000000
-18.803800 0.000000
-18.766100 0.000000
-18.728300 0.000000
-18.690600 0.000000
-18.652900 0.000000
-18.615100 0.000000
-18.577400 0.000000
-18.539700 0.000000
-18.501900 0.000000
-18.464200 0.000000
-18.426500 0.000000
-18.388700 0.000000
-18.351000 0.000000
-18.313300 0.000000
-18.275600 0.000000
-18.237800 0.000000
-18.200100 0.000000
-18.162400 0.000000
-18.124600 0.000000
-18.086900 0.000000
-18.049200 0.000000
-18.011400 0.000000
-17.973700 0.000000
-17.936000 0.000000
-17.898200 0.000000
-17.860500 0.000000
-17.822800 0.000000
-17.785100 0.000000
-17.747300 0.000000
-17.709600 0.000000
-17.671900 0.000000
-17.634100 0.000000
-17.596400 0.000000
-17.558700 0.000000
-17.520900 0.000000
-17.483200 0.000000
-17.445500 0.000000
-17.407700 0.000000
-17.370000 0.000000
-17.332300 0.000000
-17.294600 0.206200
-17.256800 3.165800
-17.219100 6.125400
-17.181400 4.788800
-17.143600 5.715600
-17.105900 6.642300
-17.068200 8.511600
-17.030400 2.265100
-16.992700 2.169200
-16.955000 2.062600
-16.917200 1.875100
-16.879500 1.687700
-16.841800 1.500200
-16.804100 1.464100
-16.766300 3.648100
-16.728600 4.819600
-16.690900 2.493000
-16.653100 3.299800
-16.615400 12.036000
-16.577700 10.060600
-16.539900 10.976000
-16.502200 10.923600
-16.464500 39.183800
-16.426700 9.567000
-16.389000 25.084200
-16.351300 30.595700
-16.313600 13.708900
-16.275800 24.476100
-16.238100 4.900700
-16.200400 0.000000
-16.162600 0.000000
-16.124900 0.000000
-16.087200 0.000000
-16.049400 0.000000
-16.011700 0.000000
-15.974000 0.000000
-15.936200 0.000000
-15.898500 0.000000
-15.860800 0.000000
-15.823100 0.000000
-15.785300 0.000000
-15.747600 0.000000
-15.709900 0.000000
-15.672100 0.000000
-15.634400 0.000000
-15.596700 0.000000
-15.558900 0.000000
-15.521200 0.000000
-15.483500 0.000000
-15.445700 0.000000
-15.408000 0.000000
-15.370300 0.000000
-15.332600 0.000000
-15.294800 0.000000
-15.257100 0.000000
-15.219400 0.000000
-15.181600 0.000000
-15.143900 0.000000
-15.106200 0.000000
-15.068400 0.000000
-15.030700 0.000000
-14.993000 0.000000
-14.955200 0.000000
-14.917500 0.000000
-14.879800 0.000000
-14.842100 0.000000
-14.804300 0.000000
-14.766600 0.000000
-14.728900 0.000000
-14.691100 0.000000
-14.653400 0.000000
-14.615700 0.000000
-14.577900 0.175600
-14.540200 0.512800
-14.502500 0.926100
-14.464700 1.030400
-14.427000 1.051900
-14.389300 0.891800
-14.351500 0.946500
-14.313800 1.001300
-14.276100 1.056000
-14.238400 1.084800
-14.200600 1.059600
-14.162900 0.978900
-14.125200 0.926600
-14.087400 0.921800
-14.049700 0.957600
-14.012000 0.993300
-13.974200 1.029100
-13.936500 1.064800
-13.898800 1.100600
-13.861000 1.136400
-13.823300 1.172200
-13.785600 1.198700
-13.747900 1.185500
-13.710100 1.171100
-13.672400 1.222900
-13.634700 1.319900
-13.596900 1.429000
-13.559200 1.538200
-13.521500 1.647600
-13.483700 1.757000
-13.446000 1.855900
-13.408300 1.894500
-13.370500 1.925600
-13.332800 1.956300
-13.295100 1.343900
-13.257400 0.974700
-13.219600 0.943100
-13.181900 0.911400
-13.144200 0.878500
-13.106400 0.841000
-13.068700 0.802400
-13.031000 0.763800
-12.993200 0.725200
-12.955500 0.687200
-12.917800 0.686400
-12.880000 0.716300
-12.842300 0.774500
-12.804600 0.874300
-12.766900 0.982600
-12.729100 1.049100
-12.691400 0.637600
-12.653700 0.669800
-12.615900 0.638000
-12.578200 0.643900
-12.540500 0.672100
-12.502700 0.700200
-12.465000 0.728400
-12.427300 0.756600
-12.389500 0.788300
-12.351800 0.845500
-12.314100 0.923100
-12.276400 1.029700
-12.238600 1.135200
-12.200900 1.221700
-12.163200 1.289500
-12.125400 1.342300
-12.087700 1.717900
-12.050000 2.922200
-12.012200 3.735600
-11.974500 4.891900
-11.936800 6.141100
-11.899000 5.008400
-11.861300 4.156500
-11.823600 4.143300
-11.785900 2.900300
-11.748100 0.769100
-11.710400 0.000000
-11.672700 0.000000
-11.634900 0.000000
-11.597200 0.000000
-11.559500 0.000000
-11.521700 0.000000
-11.484000 0.000000
-11.446300 0.000000
-11.408500 0.000000
-11.370800 0.000000
-11.333100 0.000000
-11.295400 0.000000
-11.257600 0.000000
-11.219900 0.000000
-11.182200 0.000000
-11.144400 0.000000
-11.106700 0.000000
-11.069000 0.000000
-11.031200 0.000000
-10.993500 0.000000
-10.955800 0.000000
-10.918000 0.000000
-10.880300 0.000000
-10.842600 0.000000
-10.804900 0.000000
-10.767100 0.000000
-10.729400 0.000000
-10.691700 0.000000
-10.653900 0.000000
-10.616200 0.000000
-10.578500 0.000000
-10.540700 0.000000
-10.503000 0.000000
-10.465300 0.000000
-10.427500 0.000000
-10.389800 0.000000
-10.352100 0.000000
-10.314300 0.000000
-10.276600 0.000000
-10.238900 0.000000
-10.201200 0.000000
-10.163400 0.000000
-10.125700 0.000000
-10.088000 0.000000
-10.050200 0.000000
-10.012500 0.000000
-9.974800 0.000000
-9.937000 0.000000
-9.899300 0.000000
-9.861600 0.000000
-9.823800 0.000000
-9.786100 0.000000
-9.748400 0.000000
-9.710700 0.000000
-9.672900 0.000000
-9.635200 0.000000
-9.597500 0.000000
-9.559700 0.000000
-9.522000 0.000000
-9.484300 0.000000
-9.446500 0.000000
-9.408800 0.000000
-9.371100 0.000000
-9.333300 0.000000
-9.295600 0.000000
-9.257900 0.000000
-9.220200 0.000000
-9.182400 0.000000
-9.144700 0.000000
-9.107000 0.000000
-9.069200 0.000000
-9.031500 0.000000
-8.993800 0.000000
-8.956000 0.000000
-8.918300 0.000000
-8.880600 0.000000
-8.842800 0.000000
-8.805100 0.000000
-8.767400 0.000000
-8.729700 0.000000
-8.691900 0.000000
-8.654200 0.000000
-8.616500 0.000000
-8.578700 0.000000
-8.541000 0.000000
-8.503300 0.000000
-8.465500 0.000000
-8.427800 0.000000
-8.390100 0.000000
-8.352300 0.000000
-8.314600 0.000000
-8.276900 0.000000
-8.239200 0.000000
-8.201400 0.000000
-8.163700 0.000000
-8.126000 0.000000
-8.088200 0.000000
-8.050500 0.000000
-8.012800 0.000000
-7.975000 0.000000
-7.937300 0.000000
-7.899600 0.000000
-7.861800 0.000000
-7.824100 0.000000
-7.786400 0.000000
-7.748700 0.000000
-7.710900 0.000000
-7.673200 0.000000
-7.635500 0.000000
-7.597700 0.000000
-7.560000 0.000000
-7.522300 0.000000
-7.484500 0.000000
-7.446800 0.000000
-7.409100 0.000000
-7.371300 0.000000
-7.333600 0.000000
-7.295900 0.000000
-7.258200 0.000000
-7.220400 0.000000
-7.182700 0.000000
-7.145000 0.000000
-7.107200 0.000000
-7.069500 0.000000
-7.031800 0.000000
-6.994000 0.000000
-6.956300 0.000000
-6.918600 0.000000
-6.880800 0.000000
-6.843100 0.000000
-6.805400 0.000000
-6.767700 0.000000
-6.729900 0.000000
-6.692200 0.000000
-6.654500 0.000000
-6.616700 0.000000
-6.579000 0.000000
-6.541300 0.000000
-6.503500 0.000000
-6.465800 0.000000
-6.428100 0.000000
-6.390300 0.000000
-6.352600 0.000000
-6.314900 0.000000
-6.277100 0.000000
-6.239400 0.000000
-6.201700 0.000000
-6.164000 0.000000
-6.126200 0.000000
-6.088500 0.000000
-6.050800 0.000000
-6.013000 0.000000
-5.975300 0.000000
-5.937600 0.000000
-5.899800 0.000000
-5.862100 0.000000
-5.824400 0.000000
-5.786600 0.000000
-5.748900 0.000000
-5.711200 0.000000
-5.673500 0.000000
-5.635700 0.000000
-5.598000 0.000000
-5.560300 0.000000
-5.522500 0.000000
-5.484800 0.000000
-5.447100 0.000000
-5.409300 0.000000
-5.371600 0.000000
-5.333900 0.000000
-5.296100 0.000000
-5.258400 0.000000
-5.220700 0.000000
-5.183000 0.000000
-5.145200 0.000000
-5.107500 0.000000
-5.069800 0.000000
-5.032000 0.000000
-4.994300 0.000000
-4.956600 0.000000
-4.918800 0.000000
-4.881100 0.000000
-4.843400 0.000000
-4.805600 0.000000
-4.767900 0.000000
-4.730200 0.000000
-4.692500 0.000000
-4.654700 0.000000
-4.617000 0.000000
-4.579300 0.000000
-4.541500 0.000000
-4.503800 0.000000
-4.466100 0.000000
-4.428300 0.000000
-4.390600 0.000000
-4.352900 0.000000
-4.315100 0.000000
-4.277400 0.000000
-4.239700 0.000000
-4.202000 0.000000
-4.164200 0.000000
-4.126500 0.000000
-4.088800 0.000000
-4.051000 0.000000
-4.013300 0.000000
-3.975600 0.000000
-3.937800 0.000000
-3.900100 0.000000
-3.862400 0.000000
-3.824600 0.000000
-3.786900 0.000000
-3.749200 0.000000
-3.711500 0.000000
-3.673700 0.000000
-3.636000 0.000000
-3.598300 0.000000
-3.560500 0.000000
-3.522800 0.000000
-3.485100 0.000000
-3.447300 0.000000
-3.409600 0.000000
-3.371900 0.000000
-3.334100 0.000000
-3.296400 0.000000
-3.258700 0.000000
-3.221000 0.000000
-3.183200 0.000000
-3.145500 0.000000
-3.107800 0.000000
-3.070000 0.787300
-3.032300 1.304600
-2.994600 1.969300
-2.956800 3.097300
-2.919100 2.828200
-2.881400 2.776800
-2.843600 2.829400
-2.805900 1.691100
-2.768200 1.411800
-2.730500 1.321800
-2.692700 1.256200
-2.655000 1.190700
-2.617300 1.130100
-2.579500 1.076500
-2.541800 1.027700
-2.504100 0.983200
-2.466300 0.945000
-2.428600 0.908800
-2.390900 0.872600
-2.353100 0.836400
-2.315400 0.800200
-2.277700 0.732400
-2.239900 0.681700
-2.202200 0.642200
-2.164500 0.603800
-2.126800 0.579100
-2.089000 0.571600
-2.051300 0.564100
-2.013600 0.556600
-1.975800 0.549100
-1.938100 0.541600
-1.900400 0.534100
-1.862600 0.526600
-1.824900 0.519100
-1.787200 0.511600
-1.749400 0.504100
-1.711700 0.496700
-1.674000 0.489100
-1.636300 0.480600
-1.598500 0.471700
-1.560800 0.462900
-1.523100 0.455200
-1.485300 0.447700
-1.447600 0.440300
-1.409900 0.432800
-1.372100 0.425400
-1.334400 0.418700
-1.296700 0.413700
-1.258900 0.407900
-1.221200 0.401300
-1.183500 0.394700
-1.145800 0.388100
-1.108000 0.381600
-1.070300 0.375000
-1.032600 0.368500
-0.994800 0.416300
-0.957100 0.542600
-0.919400 0.719200
-0.881600 0.936800
-0.843900 1.200000
-0.806200 1.453200
-0.768400 1.810700
-0.730700 2.341500
-0.693000 2.748600
-0.655300 2.994800
-0.617500 3.064300
-0.579800 3.074800
-0.542100 3.057200
-0.504300 3.037800
-0.466600 3.202800
-0.428900 2.684900
-0.391100 1.497100
-0.353400 1.183100
-0.315700 1.057700
-0.277900 1.062500
-0.240200 1.503300
-0.202500 1.494100
-0.164800 1.392000
-0.127000 1.465800
-0.089300 1.540300
-0.051600 1.615600
-0.013800 1.691700
0.023900 1.765800
0.061600 1.823100
0.099400 1.864700
0.137100 2.044300
0.174800 2.244100
0.212600 2.413700
0.250300 2.443300
0.288000 2.471500
0.325700 2.469700
0.363500 2.398400
0.401200 2.258200
0.438900 2.086400
0.476700 1.922100
0.514400 1.792000
0.552100 1.637500
0.589900 1.534300
0.627600 1.484200
0.665300 1.433600
0.703100 1.382200
0.740800 1.345900
0.778500 1.309800
0.816200 1.284100
0.854000 1.413400
0.891700 1.603300
0.929400 1.659500
0.967200 1.667700
1.004900 1.608000
1.042600 1.537900
1.080400 1.479700
1.118100 1.446600
1.155800 1.421700
1.193600 1.400200
1.231300 1.382400
1.269000 1.373100
1.306700 1.376300
1.344500 1.389900
1.382200 1.415200
1.419900 1.440900
1.457700 1.463900
1.495400 1.485800
1.533100 1.515600
1.570900 1.676300
1.608600 1.937900
1.646300 2.438500
1.684100 3.036000
1.721800 3.011200
1.759500 2.690500
1.797300 2.618600
1.835000 2.525000
1.872700 2.472100
1.910400 2.442900
1.948200 2.464200
1.985900 2.577900
2.023600 2.661700
2.061400 2.720700
2.099100 3.032000
2.136800 2.793700
2.174600 2.161900
2.212300 1.341900
2.250000 0.595100
2.287800 0.211400
2.325500 0.138200
2.363200 0.276400
2.400900 0.689200
2.438700 1.309000
2.476400 2.094200
2.514100 3.040700
2.551900 4.104200
2.589600 4.552400
2.627300 5.333400
2.665100 5.002700
2.702800 5.941200
2.740500 6.023200
2.778300 6.145200
2.816000 7.634000
2.853700 4.515200
2.891400 4.624000
2.929200 2.756700
2.966900 3.047200
3.004600 3.349400
3.042400 3.581400
3.080100 4.199100
3.117800 5.379100
3.155600 4.554100
3.193300 4.933100
3.231000 5.329200
3.268800 7.426800
3.306500 0.000000
3.344200 0.000000
3.381900 0.000000
3.419700 0.000000
3.457400 0.000000
3.495100 0.000000
3.532900 0.000000
3.570600 0.000000
3.608300 0.000000
3.646100 0.000000
3.683800 0.000000
3.721500 0.000000
3.759300 0.000000
3.797000 0.000000
3.834700 0.000000
3.872400 0.000000
3.910200 0.000000
3.947900 0.000000
3.985600 0.000000
4.023400 0.000000
4.061100 0.000000
4.098800 0.000000
4.136600 0.000000
4.174300 0.000000
4.212000 0.000000
4.249800 0.000000
4.287500 0.000000
4.325200 0.000000
4.362900 0.000000
4.400700 0.000000
4.438400 0.000000
4.476100 0.000000
4.513900 0.000000
4.551600 0.000000
4.589300 0.000000
4.627100 0.000000
4.664800 0.000000
4.702500 0.000000
4.740300 0.000000
4.778000 0.000000
4.815700 0.000000
4.853400 0.000000
4.891200 0.000000
4.928900 0.000000
4.966600 0.000000
5.004400 0.000000
5.042100 0.000000
5.079800 0.000000
5.117600 0.000000
5.155300 0.000000
5.193000 0.000000
5.230800 0.000000
5.268500 0.000000
5.306200 0.000000
5.343900 0.001300
5.381700 0.003100
5.419400 0.005100
5.457100 0.007500
5.494900 0.010100
5.532600 0.012900
5.570300 0.016100
5.608100 0.019500
5.645800 0.023200
5.683500 0.027200
5.721300 0.031400
5.759000 0.036000
5.796700 0.040900
5.834500 0.046100
5.872200 0.051600
5.909900 0.057500
5.947600 0.063600
5.985400 0.070100
6.023100 0.076900
6.060800 0.084000
6.098600 0.091400
6.136300 0.096900
6.174000 0.101600
6.211800 0.107000
6.249500 0.113000
6.287200 0.119600
6.325000 0.126600
6.362700 0.134200
6.400400 0.142200
6.438100 0.150700
6.475900 0.161300
6.513600 0.173200
6.551300 0.185000
6.589100 0.196000
6.626800 0.206200
6.664500 0.216200
6.702300 0.225700
6.740000 0.235000
6.777700 0.243900
6.815500 0.252500
6.853200 0.260400
6.890900 0.265400
6.928600 0.266900
6.966400 0.264700
7.004100 0.261200
7.041800 0.266300
7.079600 0.271500
7.117300 0.276600
7.155000 0.281800
7.192800 0.287000
7.230500 0.292700
7.268200 0.300100
7.306000 0.308200
7.343700 0.317300
7.381400 0.327100
7.419100 0.337600
7.456900 0.348700
7.494600 0.360500
7.532300 0.372900
7.570100 0.385800
7.607800 0.399200
7.645500 0.413500
7.683300 0.428600
7.721000 0.446400
7.758700 0.464500
7.796500 0.482600
7.834200 0.500800
7.871900 0.519000
7.909600 0.537300
7.947400 0.555600
7.985100 0.573900
8.022800 0.592400
8.060600 0.610900
8.098300 0.629500
8.136000 0.648200
8.173800 0.667000
8.211500 0.685900
8.249200 0.704800
8.287000 0.723800
8.324700 0.745200
8.362400 1.024700
8.400100 1.387700
8.437900 1.669500
8.475600 1.796600
8.513300 1.856700
8.551100 1.881100
8.588800 1.869500
8.626500 1.820600
8.664300 1.720900
8.702000 1.561100
8.739700 1.431300
8.777500 1.317400
8.815200 1.201000
8.852900 1.045300
8.890600 1.026200
8.928400 1.007700
8.966100 0.990000
9.003800 0.980300
9.041600 0.977000
9.079300 0.977000
9.117000 0.977100
9.154800 0.977300
9.192500 0.977600
9.230200 1.258300
9.268000 0.281100
9.305700 0.195600
9.343400 0.219700
9.381100 0.243900
9.418900 0.268000
9.456600 0.292100
9.494300 0.283300
9.532100 0.282300
9.569800 0.281500
9.607500 0.268500
9.645300 0.260000
9.683000 0.270500
9.720700 0.280900
9.758500 0.291400
9.796200 0.301900
9.833900 0.312300
9.871700 0.322800
9.909400 0.333200
9.947100 0.343700
9.984800 0.354200
10.022600 0.364600
10.060300 0.375100
10.098000 0.385500
10.135800 0.467100
10.173500 0.559700
10.211200 0.643300
10.249000 0.729800
10.286700 0.789900
10.324400 0.842100
10.362200 0.888300
10.399900 0.929000
10.437600 0.962900
10.475300 0.988600
10.513100 1.013100
10.550800 1.042500
10.588500 1.055200
10.626300 1.067700
10.664000 1.080100
10.701700 1.089900
10.739500 1.088200
10.777200 1.049100
10.814900 1.042700
10.852700 1.038200
10.890400 1.032100
10.928100 1.024400
10.965800 1.015100
11.003600 1.030800
11.041300 1.071000
11.079000 1.035700
11.116800 1.000400
11.154500 0.966200
11.192200 0.933200
11.230000 0.901300
11.267700 0.870600
11.305400 0.840200
11.343200 0.810100
11.380900 0.779800
11.418600 0.749200
11.456300 0.718100
11.494100 0.685800
11.531800 0.652300
11.569500 0.606000
11.607300 0.585800
11.645000 0.565500
11.682700 0.545100
11.720500 0.524500
11.758200 0.503900
11.795900 0.483100
11.833700 0.462100
11.871400 0.441100
11.909100 0.419900
11.946800 0.398600
11.984600 0.377200
12.022300 0.388700
12.060000 0.434300
12.097800 0.475500
12.135500 0.491200
12.173200 0.604000
12.211000 0.826400
12.248700 1.162800
12.286400 1.112700
12.324200 1.079200
12.361900 1.025000
12.399600 1.041300
12.437300 1.060200
12.475100 1.079600
12.512800 1.089400
12.550500 1.103200
12.588300 1.133700
12.626000 1.180500
12.663700 1.243900
12.701500 1.446100
12.739200 1.505700
12.776900 1.583200
12.814700 1.670900
12.852400 1.754900
12.890100 1.820000
12.927800 1.857400
12.965600 1.609800
13.003300 1.641500
13.041000 1.676500
13.078800 1.714700
13.116500 2.229100
13.154200 1.858600
13.192000 1.810700
13.229700 1.720600
13.267400 1.573700
13.305200 1.484100
13.342900 1.378100
13.380600 1.259800
13.418300 1.160500
13.456100 1.057200
13.493800 0.973100
13.531500 0.897800
13.569300 0.828400
13.607000 0.763400
13.644700 0.702100
13.682500 0.692200
13.720200 0.799400
13.757900 0.488800
13.795700 0.394200
13.833400 0.309900
13.871100 0.235700
13.908900 0.171800
13.946600 0.122900
13.984300 0.482700
14.022000 0.819200
14.059800 0.506800
14.097500 0.499900
14.135200 0.509200
14.173000 0.518500
14.210700 0.527800
14.248400 0.537000
14.286200 0.546100
14.323900 0.555200
14.361600 0.569200
14.399400 0.601400
14.437100 0.646300
14.474800 0.708200
14.512500 0.826100
14.550300 0.979100
14.588000 1.133000
14.625700 1.286300
14.663500 2.625600
14.701200 1.992100
14.738900 1.980800
14.776700 2.155300
14.814400 2.440300
14.852100 2.468000
14.889900 2.867900
14.927600 2.987600
14.965300 2.978100
15.003000 2.922000
15.040800 3.450600
15.078500 2.787600
15.116200 2.681500
15.154000 2.595600
15.191700 2.558700
15.229400 2.459600
15.267200 2.215800
15.304900 2.084700
15.342600 1.891700
15.380400 1.772200
15.418100 1.757400
15.455800 1.857900
15.493500 1.958100
15.531300 2.120200
15.569000 2.288000
15.606700 2.592100
15.644500 2.992500
15.682200 3.561300
15.719900 4.419400
15.757700 4.531100
15.795400 4.588800
15.833100 4.064500
15.870900 3.190400
15.908600 2.208300
15.946300 1.644000
15.984000 1.030000
16.021800 0.723500
16.059500 0.504800
16.097200 0.371100
16.135000 0.473400
16.172700 0.596600
16.210400 0.714400
16.248200 0.829400
16.285900 0.941800
16.323600 1.051400
16.361400 1.157300
16.399100 1.257300
16.436800 1.400600
16.474500 1.538400
16.512300 1.669500
16.550000 1.854900
16.587700 2.140400
16.625500 2.400100
16.663200 2.561400
16.700900 2.631300
16.738700 2.682000
16.776400 2.714100
16.814100 2.619700
16.851900 2.342300
16.889600 2.172700
16.927300 2.000000
16.965000 1.787600
17.002800 1.503300
17.040500 1.203800
17.078200 0.981400
17.116000 0.800500
17.153700 0.679800
17.191400 0.592400
17.229200 0.523800
17.266900 0.467900
17.304600 0.388700
17.342400 0.390500
17.380100 0.413600
17.417800 0.443200
17.455500 0.471400
17.493300 0.498200
17.531000 0.524000
17.568700 0.550300
17.606500 0.577000
17.644200 0.604300
17.681900 0.632200
17.719700 0.660500
17.757400 0.684400
17.795100 0.700000
17.832900 0.708100
17.870600 0.719300
17.908300 0.736900
17.946100 0.757000
17.983800 0.767800
18.021500 0.761500
18.059200 0.737800
18.097000 0.715800
18.134700 0.707600
18.172400 0.700700
18.210200 0.707700
18.247900 0.716000
18.285600 0.725700
18.323400 0.736500
