set title 'mp-1022725 - Density of States'
set xlabel 'Energy (eV)'
set ylabel 'DOS (states/eV)'
set grid
set xrange [-10:10]
set yrange [0:1.158]
set xzeroaxis lt -1
set terminal png size 800,600
set output 'mp-1022725_dos_gnuplot.png'
plot '-' using 1:2 with lines title 'DOS'
-17.426600 0.000000
-17.389200 0.000000
-17.351900 0.000000
-17.314500 0.000000
-17.277200 0.000000
-17.239900 0.000000
-17.202500 0.000000
-17.165200 0.000000
-17.127800 0.000000
-17.090500 0.000000
-17.053200 0.000000
-17.015800 0.000000
-16.978500 0.000000
-16.941100 0.000000
-16.903800 0.000000
-16.866400 0.000000
-16.829100 0.000000
-16.791800 0.000000
-16.754400 0.000000
-16.717100 0.000000
-16.679700 0.000000
-16.642400 0.000000
-16.605100 0.000000
-16.567700 0.000000
-16.530400 0.000000
-16.493000 0.000000
-16.455700 0.000000
-16.418400 0.000000
-16.381000 0.000000
-16.343700 0.000000
-16.306300 0.000000
-16.269000 0.000000
-16.231700 0.000000
-16.194300 0.000000
-16.157000 0.000000
-16.119600 0.000000
-16.082300 0.000000
-16.045000 0.000000
-16.007600 0.000000
-15.970300 0.000000
-15.932900 0.000000
-15.895600 0.000000
-15.858300 0.000000
-15.820900 0.000000
-15.783600 0.000000
-15.746200 0.000000
-15.708900 0.000000
-15.671600 0.000000
-15.634200 0.000000
-15.596900 0.000000
-15.559500 0.000000
-15.522200 0.000000
-15.484900 0.000000
-15.447500 0.000000
-15.410200 0.000000
-15.372800 0.000000
-15.335500 0.000000
-15.298200 0.000000
-15.260800 0.000000
-15.223500 0.000000
-15.186100 0.000000
-15.148800 0.000000
-15.111500 0.000000
-15.074100 0.000000
-15.036800 0.000000
-14.999400 0.000000
-14.962100 0.000000
-14.924800 0.000000
-14.887400 0.000000
-14.850100 0.000000
-14.812700 0.000000
-14.775400 0.000000
-14.738100 0.000000
-14.700700 0.000000
-14.663400 0.000000
-14.626000 0.000000
-14.588700 0.000000
-14.551300 0.000000
-14.514000 0.000000
-14.476700 0.000000
-14.439300 0.000000
-14.402000 0.000000
-14.364600 0.000000
-14.327300 0.000000
-14.290000 0.000000
-14.252600 0.000000
-14.215300 0.000000
-14.177900 0.000000
-14.140600 0.000600
-14.103300 0.021500
-14.065900 0.349600
-14.028600 2.837000
-13.991200 12.887400
-13.953900 33.493800
-13.916600 50.178400
-13.879200 52.247000
-13.841900 50.794400
-13.804500 40.723200
-13.767200 19.273700
-13.729900 4.498600
-13.692500 0.479100
-13.655200 0.022300
-13.617800 0.000400
-13.580500 0.000000
-13.543200 0.000000
-13.505800 0.000000
-13.468500 0.000000
-13.431100 0.000000
-13.393800 0.000000
-13.356500 0.000000
-13.319100 0.000000
-13.281800 0.000000
-13.244400 0.000000
-13.207100 0.000000
-13.169800 0.000000
-13.132400 0.000000
-13.095100 0.000000
-13.057700 0.000000
-13.020400 0.000000
-12.983100 0.000000
-12.945700 0.000000
-12.908400 0.000000
-12.871000 0.000000
-12.833700 0.000000
-12.796400 0.000000
-12.759000 0.000000
-12.721700 0.000000
-12.684300 0.000000
-12.647000 0.000000
-12.609700 0.000000
-12.572300 0.000000
-12.535000 0.000000
-12.497600 0.000000
-12.460300 0.000000
-12.422900 0.000000
-12.385600 0.000000
-12.348300 0.000000
-12.310900 0.000000
-12.273600 0.000000
-12.236200 0.000000
-12.198900 0.000000
-12.161600 0.000000
-12.124200 0.000000
-12.086900 0.000000
-12.049500 0.000000
-12.012200 0.000000
-11.974900 0.000000
-11.937500 0.000000
-11.900200 0.000000
-11.862800 0.000000
-11.825500 0.000000
-11.788200 0.000000
-11.750800 0.000000
-11.713500 0.000000
-11.676100 0.000000
-11.638800 0.000000
-11.601500 0.000000
-11.564100 0.000000
-11.526800 0.000000
-11.489400 0.000000
-11.452100 0.000000
-11.414800 0.000000
-11.377400 0.000000
-11.340100 0.000000
-11.302700 0.000000
-11.265400 0.000000
-11.228100 0.000000
-11.190700 0.000000
-11.153400 0.000000
-11.116000 0.000000
-11.078700 0.000000
-11.041400 0.000000
-11.004000 0.000000
-10.966700 0.000000
-10.929300 0.000000
-10.892000 0.000000
-10.854700 0.000000
-10.817300 0.000000
-10.780000 0.000000
-10.742600 0.000000
-10.705300 0.000000
-10.668000 0.000000
-10.630600 0.000000
-10.593300 0.000000
-10.555900 0.000000
-10.518600 0.000000
-10.481300 0.000000
-10.443900 0.000000
-10.406600 0.000000
-10.369200 0.000000
-10.331900 0.000000
-10.294600 0.000000
-10.257200 0.000000
-10.219900 0.000000
-10.182500 0.000000
-10.145200 0.000000
-10.107800 0.000000
-10.070500 0.000000
-10.033200 0.000000
-9.995800 0.000000
-9.958500 0.000000
-9.921100 0.000000
-9.883800 0.000000
-9.846500 0.000000
-9.809100 0.000000
-9.771800 0.000000
-9.734400 0.000000
-9.697100 0.000000
-9.659800 0.000000
-9.622400 0.000000
-9.585100 0.000000
-9.547700 0.000000
-9.510400 0.000000
-9.473100 0.000000
-9.435700 0.000000
-9.398400 0.000000
-9.361000 0.000000
-9.323700 0.000000
-9.286400 0.000000
-9.249000 0.000000
-9.211700 0.000000
-9.174300 0.000000
-9.137000 0.000000
-9.099700 0.000000
-9.062300 0.000000
-9.025000 0.000000
-8.987600 0.000000
-8.950300 0.000000
-8.913000 0.000000
-8.875600 0.000000
-8.838300 0.000000
-8.800900 0.000000
-8.763600 0.000000
-8.726300 0.000000
-8.688900 0.000000
-8.651600 0.000000
-8.614200 0.000000
-8.576900 0.000000
-8.539600 0.000000
-8.502200 0.000000
-8.464900 0.000000
-8.427500 0.000000
-8.390200 0.000000
-8.352900 0.000000
-8.315500 0.000000
-8.278200 0.000000
-8.240800 0.000000
-8.203500 0.000000
-8.166200 0.000000
-8.128800 0.000000
-8.091500 0.000000
-8.054100 0.000000
-8.016800 0.000000
-7.979500 0.000000
-7.942100 0.000000
-7.904800 0.000000
-7.867400 0.000000
-7.830100 0.000000
-7.792700 0.000000
-7.755400 0.000000
-7.718100 0.000000
-7.680700 0.000000
-7.643400 0.000000
-7.606000 0.000000
-7.568700 0.000000
-7.531400 0.000000
-7.494000 0.000000
-7.456700 0.000000
-7.419300 0.000000
-7.382000 0.000000
-7.344700 0.000000
-7.307300 0.000000
-7.270000 0.000000
-7.232600 0.000000
-7.195300 0.000000
-7.158000 0.000000
-7.120600 0.000000
-7.083300 0.000000
-7.045900 0.000000
-7.008600 0.000000
-6.971300 0.000000
-6.933900 0.000000
-6.896600 0.000000
-6.859200 0.000000
-6.821900 0.000000
-6.784600 0.000000
-6.747200 0.000000
-6.709900 0.000000
-6.672500 0.000000
-6.635200 0.000000
-6.597900 0.000000
-6.560500 0.000000
-6.523200 0.000000
-6.485800 0.000000
-6.448500 0.000000
-6.411200 0.000000
-6.373800 0.000000
-6.336500 0.000000
-6.299100 0.000000
-6.261800 0.000000
-6.224500 0.000000
-6.187100 0.000000
-6.149800 0.000000
-6.112400 0.000000
-6.075100 0.000000
-6.037800 0.000000
-6.000400 0.000000
-5.963100 0.000000
-5.925700 0.000000
-5.888400 0.000000
-5.851100 0.000000
-5.813700 0.000000
-5.776400 0.000000
-5.739000 0.000000
-5.701700 0.000000
-5.664300 0.000000
-5.627000 0.000000
-5.589700 0.000000
-5.552300 0.000000
-5.515000 0.000000
-5.477600 0.000000
-5.440300 0.000000
-5.403000 0.000000
-5.365600 0.000000
-5.328300 0.000000
-5.290900 0.000000
-5.253600 0.000000
-5.216300 0.000000
-5.178900 0.000000
-5.141600 0.000000
-5.104200 0.000000
-5.066900 0.000000
-5.029600 0.000000
-4.992200 0.000000
-4.954900 0.000000
-4.917500 0.000000
-4.880200 0.000000
-4.842900 0.000000
-4.805500 0.000000
-4.768200 0.000000
-4.730800 0.000000
-4.693500 0.000000
-4.656200 0.000000
-4.618800 0.000000
-4.581500 0.000000
-4.544100 0.000000
-4.506800 0.000000
-4.469500 0.000000
-4.432100 0.000000
-4.394800 0.000000
-4.357400 0.000000
-4.320100 0.000000
-4.282800 0.000000
-4.245400 0.000000
-4.208100 0.000000
-4.170700 0.000000
-4.133400 0.000000
-4.096100 0.000000
-4.058700 0.000000
-4.021400 0.000000
-3.984000 0.000000
-3.946700 0.000000
-3.909400 0.000000
-3.872000 0.000000
-3.834700 0.000000
-3.797300 0.000000
-3.760000 0.000000
-3.722700 0.000000
-3.685300 0.000000
-3.648000 0.000000
-3.610600 0.000000
-3.573300 0.000000
-3.536000 0.000000
-3.498600 0.000000
-3.461300 0.000000
-3.423900 0.000000
-3.386600 0.000000
-3.349200 0.000000
-3.311900 0.000000
-3.274600 0.000000
-3.237200 0.000100
-3.199900 0.001800
-3.162500 0.010500
-3.125200 0.026700
-3.087900 0.036500
-3.050500 0.056600
-3.013200 0.084900
-2.975800 0.072400
-2.938500 0.070700
-2.901200 0.091900
-2.863800 0.091800
-2.826500 0.105700
-2.789100 0.124900
-2.751800 0.128300
-2.714500 0.144900
-2.677100 0.114100
-2.639800 0.081600
-2.602400 0.122100
-2.565100 0.146100
-2.527800 0.153400
-2.490400 0.177600
-2.453100 0.171000
-2.415700 0.171000
-2.378400 0.183700
-2.341100 0.165900
-2.303700 0.141300
-2.266400 0.151400
-2.229000 0.136100
-2.191700 0.123200
-2.154400 0.171300
-2.117000 0.212900
-2.079700 0.273300
-2.042300 0.315200
-2.005000 0.255800
-1.967700 0.137500
-1.930300 0.078900
-1.893000 0.158300
-1.855600 0.256400
-1.818300 0.231400
-1.781000 0.204500
-1.743600 0.258500
-1.706300 0.244600
-1.668900 0.130100
-1.631600 0.131200
-1.594300 0.253000
-1.556900 0.310900
-1.519600 0.292400
-1.482200 0.295200
-1.444900 0.329600
-1.407600 0.304400
-1.370200 0.239000
-1.332900 0.191000
-1.295500 0.138800
-1.258200 0.144800
-1.220800 0.238600
-1.183500 0.293900
-1.146200 0.311600
-1.108800 0.296700
-1.071500 0.223100
-1.034100 0.224600
-0.996800 0.326400
-0.959500 0.378800
-0.922100 0.320500
-0.884800 0.240200
-0.847400 0.252400
-0.810100 0.320800
-0.772800 0.378100
-0.735400 0.389900
-0.698100 0.344600
-0.660700 0.295300
-0.623400 0.248400
-0.586100 0.195100
-0.548700 0.143400
-0.511400 0.202000
-0.474000 0.302100
-0.436700 0.283000
-0.399400 0.293000
-0.362000 0.413300
-0.324700 0.492100
-0.287300 0.461200
-0.250000 0.346200
-0.212700 0.330100
-0.175300 0.403800
-0.138000 0.412800
-0.100600 0.357500
-0.063300 0.267700
-0.026000 0.200900
0.011400 0.232400
0.048700 0.366500
0.086100 0.500000
0.123400 0.454700
0.160700 0.344500
0.198100 0.358200
0.235400 0.363600
0.272800 0.274300
0.310100 0.219600
0.347400 0.248700
0.384800 0.324000
0.422100 0.452100
0.459500 0.569600
0.496800 0.632300
0.534100 0.535200
0.571500 0.369100
0.608800 0.373200
0.646200 0.494900
0.683500 0.553300
0.720800 0.492000
0.758200 0.339100
0.795500 0.242600
0.832900 0.323700
0.870200 0.518500
0.907500 0.653300
0.944900 0.639300
0.982200 0.514300
1.019600 0.470000
1.056900 0.492500
1.094300 0.391600
1.131600 0.302300
1.168900 0.377000
1.206300 0.563900
1.243600 0.696400
1.281000 0.742100
1.318300 0.695500
1.355600 0.560500
1.393000 0.494000
1.430300 0.527100
1.467700 0.564600
1.505000 0.541000
1.542300 0.411200
1.579700 0.348100
1.617000 0.394200
1.654400 0.472600
1.691700 0.438800
1.729000 0.374400
1.766400 0.430600
1.803700 0.444900
1.841100 0.402100
1.878400 0.350400
1.915700 0.375300
1.953100 0.467100
1.990400 0.553800
2.027800 0.616800
2.065100 0.513200
2.102400 0.452800
2.139800 0.453700
2.177100 0.411700
2.214500 0.366500
2.251800 0.378300
2.289100 0.474300
2.326500 0.531600
2.363800 0.503300
2.401200 0.384700
2.438500 0.236900
2.475800 0.241800
2.513200 0.333200
2.550500 0.350200
2.587900 0.324400
2.625200 0.326000
2.662500 0.391000
2.699900 0.391500
2.737200 0.309300
2.774600 0.332000
2.811900 0.366300
2.849200 0.272500
2.886600 0.156700
2.923900 0.142000
2.961300 0.195700
2.998600 0.243900
3.035900 0.283100
3.073300 0.243900
3.110600 0.109100
3.148000 0.033800
3.185300 0.025800
3.222600 0.028600
3.260000 0.046300
3.297300 0.072800
3.334700 0.078500
3.372000 0.061900
3.409400 0.058900
3.446700 0.073100
3.484000 0.097800
3.521400 0.103100
3.558700 0.133500
3.596100 0.215500
3.633400 0.288700
3.670700 0.204500
3.708100 0.079300
3.745400 0.054700
3.782800 0.077500
3.820100 0.126900
3.857400 0.132700
3.894800 0.160100
3.932100 0.299700
3.969500 0.368700
4.006800 0.278900
4.044100 0.261500
4.081500 0.314300
4.118800 0.283300
4.156200 0.230400
4.193500 0.231300
4.230800 0.216400
4.268200 0.186700
4.305500 0.237000
4.342900 0.347000
4.380200 0.438100
4.417500 0.435900
4.454900 0.430000
4.492200 0.481300
4.529600 0.412000
4.566900 0.294800
4.604200 0.244500
4.641600 0.238300
4.678900 0.361300
4.716300 0.508200
4.753600 0.540100
4.790900 0.569400
4.828300 0.591400
4.865600 0.635100
4.903000 0.645300
4.940300 0.596900
4.977600 0.577800
5.015000 0.618400
5.052300 0.595800
5.089700 0.704200
5.127000 0.831700
5.164300 0.863900
5.201700 0.827400
5.239000 0.712000
5.276400 0.574300
5.313700 0.362700
5.351000 0.256500
5.388400 0.396200
5.425700 0.644800
5.463100 0.874600
5.500400 0.893100
5.537800 0.717900
5.575100 0.615800
5.612400 0.638500
5.649800 0.682700
5.687100 0.677500
5.724500 0.668800
5.761800 0.585100
5.799100 0.398300
5.836500 0.326700
5.873800 0.549500
5.911200 0.692700
5.948500 0.636400
5.985800 0.579800
6.023200 0.441100
6.060500 0.340400
6.097900 0.349600
6.135200 0.266500
6.172500 0.183300
6.209900 0.272200
6.247200 0.452900
6.284600 0.629000
6.321900 0.751700
6.359200 0.744200
6.396600 0.671400
6.433900 0.577200
6.471300 0.637200
6.508600 0.765100
6.545900 0.690700
6.583300 0.476600
6.620600 0.381400
6.658000 0.489300
6.695300 0.640600
6.732600 0.615100
6.770000 0.495500
6.807300 0.434100
6.844700 0.496000
6.882000 0.515800
6.919300 0.390500
6.956700 0.306000
6.994000 0.250100
7.031400 0.277500
7.068700 0.486800
7.106000 0.557300
7.143400 0.440800
7.180700 0.473200
7.218100 0.632800
7.255400 0.775200
7.292700 0.687400
7.330100 0.654700
7.367400 0.793000
7.404800 0.793600
7.442100 0.705700
7.479400 0.732700
7.516800 0.681600
7.554100 0.582700
7.591500 0.595000
7.628800 0.633700
7.666100 0.539800
7.703500 0.302600
7.740800 0.166100
7.778200 0.225500
7.815500 0.297700
7.852900 0.366300
7.890200 0.365300
7.927500 0.349000
7.964900 0.472100
8.002200 0.705600
8.039600 0.860600
8.076900 0.887900
8.114200 0.926000
8.151600 0.787600
8.188900 0.550400
8.226300 0.349000
8.263600 0.279800
8.300900 0.489200
8.338300 0.773000
8.375600 0.879300
8.413000 0.823800
8.450300 0.753100
8.487600 0.661100
8.525000 0.577800
8.562300 0.549000
8.599700 0.527000
8.637000 0.542200
8.674300 0.537900
8.711700 0.548800
8.749000 0.558300
8.786400 0.567300
8.823700 0.631100
8.861000 0.708900
8.898400 0.723800
8.935700 0.813500
8.973100 0.894100
9.010400 0.796400
9.047700 0.646100
9.085100 0.549300
9.122400 0.480800
9.159800 0.491700
9.197100 0.549700
9.234400 0.571800
9.271800 0.680300
9.309100 0.635100
9.346500 0.515800
9.383800 0.595700
9.421100 0.716600
9.458500 0.744500
9.495800 0.905500
9.533200 1.052300
9.570500 1.038700
9.607800 0.955300
9.645200 0.812000
9.682500 0.823300
9.719900 0.929800
9.757200 0.914300
9.794500 0.895700
9.831900 0.970700
9.869200 0.735800
9.906600 0.376800
9.943900 0.294300
9.981300 0.478300
10.018600 0.709700
10.055900 0.675400
10.093300 0.513900
10.130600 0.592600
10.168000 0.822600
10.205300 0.915400
10.242600 0.886700
10.280000 0.729700
10.317300 0.749700
10.354700 0.921000
10.392000 0.825100
10.429300 0.561900
10.466700 0.731100
10.504000 1.082500
10.541400 1.091100
10.578700 0.969500
10.616000 0.808400
10.653400 0.629000
10.690700 0.543900
10.728100 0.576300
10.765400 0.691700
10.802700 0.795400
10.840100 0.775100
10.877400 0.718600
10.914800 0.713100
10.952100 0.581800
10.989400 0.439600
11.026800 0.519200
11.064100 0.657800
11.101500 0.695300
11.138800 0.734400
11.176100 0.769000
11.213500 0.775300
11.250800 0.701400
11.288200 0.619600
11.325500 0.579800
11.362800 0.540300
11.400200 0.481000
11.437500 0.498100
11.474900 0.643800
11.512200 0.721000
11.549500 0.750400
11.586900 0.802700
11.624200 0.756000
11.661600 0.670100
11.698900 0.680400
11.736200 0.594900
11.773600 0.483300
11.810900 0.535100
11.848300 0.621000
11.885600 0.613100
11.922900 0.537900
11.960300 0.493200
11.997600 0.594300
12.035000 0.666800
12.072300 0.620500
12.109600 0.488200
12.147000 0.388000
12.184300 0.564500
12.221700 0.891200
12.259000 1.059100
12.296400 0.880600
12.333700 0.502300
12.371000 0.331200
12.408400 0.356200
12.445700 0.408300
12.483100 0.500900
12.520400 0.477000
12.557700 0.388100
12.595100 0.441700
12.632400 0.552300
12.669800 0.551000
12.707100 0.481000
12.744400 0.388200
12.781800 0.343600
12.819100 0.407800
12.856500 0.590600
12.893800 0.734800
12.931100 0.795600
12.968500 0.738500
13.005800 0.523000
13.043200 0.385000
13.080500 0.444400
13.117800 0.528900
13.155200 0.591400
13.192500 0.527200
13.229900 0.378800
13.267200 0.285600
13.304500 0.306900
13.341900 0.477100
13.379200 0.648200
13.416600 0.742100
13.453900 0.789200
13.491200 0.698900
13.528600 0.554500
13.565900 0.491200
13.603300 0.457200
13.640600 0.519900
13.677900 0.746900
13.715300 0.759300
13.752600 0.553900
13.790000 0.438500
13.827300 0.404600
13.864600 0.384900
13.902000 0.409300
13.939300 0.494000
13.976700 0.513600
14.014000 0.548300
14.051300 0.590500
14.088700 0.470400
14.126000 0.390600
14.163400 0.536800
14.200700 0.700100
14.238000 0.668300
14.275400 0.620800
14.312700 0.622100
14.350100 0.550400
14.387400 0.523500
14.424700 0.698500
14.462100 0.841100
14.499400 0.747500
14.536800 0.660000
14.574100 0.596200
14.611500 0.513900
14.648800 0.522900
14.686100 0.573900
14.723500 0.711900
14.760800 0.881700
14.798200 0.896500
14.835500 0.790000
14.872800 0.753100
14.910200 0.748700
14.947500 0.637500
14.984900 0.508900
15.022200 0.537000
15.059500 0.600100
15.096900 0.554200
15.134200 0.455200
15.171600 0.392700
15.208900 0.495400
15.246200 0.591600
15.283600 0.532500
15.320900 0.471100
15.358300 0.546800
15.395600 0.588900
15.432900 0.486000
15.470300 0.437800
15.507600 0.460900
15.545000 0.493000
15.582300 0.576000
15.619600 0.597800
15.657000 0.473600
15.694300 0.479100
15.731700 0.651400
15.769000 0.740100
15.806300 0.673700
15.843700 0.736100
15.881000 0.935900
15.918400 0.971100
15.955700 0.833200
15.993000 0.698800
16.030400 0.702400
16.067700 0.786700
16.105100 0.785300
16.142400 0.759600
16.179700 0.870500
16.217100 1.015600
16.254400 0.893900
16.291800 0.825300
16.329100 0.906800
16.366400 0.799200
16.403800 0.638500
16.441100 0.807100
16.478500 1.105300
16.515800 1.006300
16.553100 0.705500
16.590500 0.615900
16.627800 0.747000
16.665200 0.770600
16.702500 0.621100
16.739900 0.581300
16.777200 0.739600
16.814500 0.921100
16.851900 0.930200
16.889200 0.858300
16.926600 0.778100
16.963900 0.669200
17.001200 0.638200
17.038600 0.780700
17.075900 0.972300
17.113300 0.944600
17.150600 0.772900
17.187900 0.668600
17.225300 0.637800
17.262600 0.608200
17.300000 0.637900
17.337300 0.667400
17.374600 0.612800
17.412000 0.560000
17.449300 0.580600
17.486700 0.779200
17.524000 0.929000
17.561300 0.889200
17.598700 0.858100
17.636000 0.749600
17.673400 0.690200
17.710700 0.693700
17.748000 0.791100
17.785400 0.874100
17.822700 0.847400
17.860100 0.872900
17.897400 0.871600
17.934700 0.754600
17.972100 0.655700
18.009400 0.712300
18.046800 0.760400
18.084100 0.672400
18.121400 0.535400
18.158800 0.458400
18.196100 0.492000
18.233500 0.394800
18.270800 0.334900
18.308100 0.556900
18.345500 0.758600
18.382800 0.812900
18.420200 0.738800
18.457500 0.627500
18.494800 0.640200
18.532200 0.778700
18.569500 0.924600
18.606900 0.919200
18.644200 0.859600
18.681500 0.803800
18.718900 0.702600
18.756200 0.744600
18.793600 0.801700
18.830900 0.690900
18.868200 0.682900
18.905600 0.749400
18.942900 0.673100
18.980300 0.679400
19.017600 0.933500
19.055000 0.976400
19.092300 0.750700
19.129600 0.590700
19.167000 0.609900
19.204300 0.657900
19.241700 0.679600
19.279000 0.639400
19.316300 0.598500
19.353700 0.757500
19.391000 0.955400
19.428400 0.981100
19.465700 0.914200
19.503000 0.953800
19.540400 1.078100
19.577700 1.052600
19.615100 0.948100
19.652400 1.005200
19.689700 1.191700
19.727100 1.249000
19.764400 1.109000
19.801800 0.869800
19.839100 0.767800
19.876400 0.803500
19.913800 0.796700
19.951100 0.778300
19.988500 0.871700
20.025800 1.047800
20.063100 1.242900
20.100500 1.361500
20.137800 1.277700
20.175200 1.106500
20.212500 1.016500
20.249800 1.048000
20.287200 1.052500
20.324500 0.799100
20.361900 0.497100
20.399200 0.482900
20.436500 0.642300
20.473900 0.845900
20.511200 0.942500
20.548600 0.806000
20.585900 0.668800
20.623200 0.750400
20.660600 1.019500
20.697900 1.216600
20.735300 1.149700
20.772600 0.987000
20.809900 0.866100
20.847300 0.861200
20.884600 0.934000
20.922000 1.031800
20.959300 1.162300
20.996600 1.204700
21.034000 1.129100
21.071300 0.947000
21.108700 0.820800
21.146000 0.774800
21.183400 0.816700
21.220700 0.908700
21.258000 0.887000
21.295400 0.830600
21.332700 0.705900
21.370100 0.718700
21.407400 1.031300
