set title 'mp-1079020 - Density of States'
set xlabel 'Energy (eV)'
set ylabel 'DOS (states/eV)'
set grid
set xrange [-10:10]
set yrange [0:6.435]
set xzeroaxis lt -1
set terminal png size 800,600
set output 'mp-1079020_dos_gnuplot.png'
plot '-' using 1:2 with lines title 'DOS'
-22.977600 0.000000
-22.953600 0.000000
-22.929700 0.000000
-22.905700 0.000000
-22.881800 0.000000
-22.857800 0.000000
-22.833900 0.000000
-22.809900 0.000000
-22.786000 0.000000
-22.762100 0.000000
-22.738100 0.000000
-22.714200 0.000000
-22.690200 0.000000
-22.666300 0.000000
-22.642300 0.000000
-22.618400 0.000000
-22.594400 0.000000
-22.570500 0.000000
-22.546600 0.000000
-22.522600 0.000000
-22.498700 0.000000
-22.474700 0.000000
-22.450800 0.000000
-22.426800 0.000000
-22.402900 0.000000
-22.378900 0.000000
-22.355000 0.000000
-22.331100 0.000000
-22.307100 0.000000
-22.283200 0.000000
-22.259200 0.000000
-22.235300 0.000000
-22.211300 0.000000
-22.187400 0.000000
-22.163400 0.000000
-22.139500 0.000000
-22.115600 0.000000
-22.091600 0.000000
-22.067700 0.000000
-22.043700 0.000000
-22.019800 0.000000
-21.995800 0.000000
-21.971900 0.000000
-21.947900 0.000000
-21.924000 0.000000
-21.900100 0.000000
-21.876100 0.000000
-21.852200 0.000000
-21.828200 0.000000
-21.804300 0.000000
-21.780300 0.000000
-21.756400 0.000000
-21.732400 0.000000
-21.708500 0.000000
-21.684600 0.000000
-21.660600 0.000000
-21.636700 0.000000
-21.612700 0.000000
-21.588800 0.000000
-21.564800 0.000000
-21.540900 0.000000
-21.516900 0.000000
-21.493000 0.000000
-21.469100 0.000000
-21.445100 0.000000
-21.421200 0.000000
-21.397200 0.000000
-21.373300 0.000000
-21.349300 0.000000
-21.325400 0.000000
-21.301400 0.000000
-21.277500 0.000000
-21.253600 0.000000
-21.229600 0.000000
-21.205700 0.000000
-21.181700 0.000000
-21.157800 0.000000
-21.133800 0.000000
-21.109900 0.000000
-21.085900 0.000000
-21.062000 0.000000
-21.038000 0.000000
-21.014100 0.000000
-20.990200 0.000000
-20.966200 0.000000
-20.942300 0.000000
-20.918300 0.000000
-20.894400 0.000000
-20.870400 0.000000
-20.846500 0.000000
-20.822500 0.000000
-20.798600 54.588300
-20.774700 395.472900
-20.750700 600.286700
-20.726800 376.015200
-20.702800 338.218900
-20.678900 631.307000
-20.654900 450.127900
-20.631000 0.000000
-20.607000 0.000000
-20.583100 0.000000
-20.559200 0.000000
-20.535200 0.000000
-20.511300 0.000000
-20.487300 0.000000
-20.463400 0.000000
-20.439400 0.000000
-20.415500 0.000000
-20.391500 0.000000
-20.367600 0.000000
-20.343700 0.000000
-20.319700 0.000000
-20.295800 0.000000
-20.271800 0.000000
-20.247900 0.000000
-20.223900 0.000000
-20.200000 0.000000
-20.176000 0.000000
-20.152100 0.000000
-20.128200 0.000000
-20.104200 0.000000
-20.080300 0.000000
-20.056300 0.000000
-20.032400 0.000000
-20.008400 0.000000
-19.984500 0.000000
-19.960500 0.000000
-19.936600 0.000000
-19.912700 0.000000
-19.888700 0.000000
-19.864800 0.000000
-19.840800 0.000000
-19.816900 0.000000
-19.792900 0.000000
-19.769000 0.000000
-19.745000 0.000000
-19.721100 0.000000
-19.697200 0.000000
-19.673200 0.000000
-19.649300 0.000000
-19.625300 0.000000
-19.601400 0.000000
-19.577400 0.000000
-19.553500 0.000000
-19.529500 0.000000
-19.505600 0.000000
-19.481600 0.000000
-19.457700 0.000000
-19.433800 0.000000
-19.409800 0.000000
-19.385900 0.000000
-19.361900 0.000000
-19.338000 0.000000
-19.314000 0.000000
-19.290100 0.000000
-19.266100 0.000000
-19.242200 0.000000
-19.218300 0.000000
-19.194300 0.000000
-19.170400 0.000000
-19.146400 0.000000
-19.122500 0.000000
-19.098500 0.000000
-19.074600 0.000000
-19.050600 0.000000
-19.026700 0.000000
-19.002800 0.000000
-18.978800 0.000000
-18.954900 0.000000
-18.930900 0.000000
-18.907000 0.000000
-18.883000 0.000000
-18.859100 0.000000
-18.835100 0.000000
-18.811200 0.000000
-18.787300 0.000000
-18.763300 0.000000
-18.739400 0.000000
-18.715400 0.000000
-18.691500 0.000000
-18.667500 0.000000
-18.643600 0.000000
-18.619600 0.000000
-18.595700 0.000000
-18.571800 0.000000
-18.547800 0.000000
-18.523900 0.000000
-18.499900 0.000000
-18.476000 0.000000
-18.452000 0.000000
-18.428100 0.000000
-18.404100 0.000000
-18.380200 0.000000
-18.356300 0.000000
-18.332300 0.000000
-18.308400 0.000000
-18.284400 0.000000
-18.260500 0.000000
-18.236500 0.000000
-18.212600 0.000000
-18.188600 0.000000
-18.164700 0.000000
-18.140800 0.000000
-18.116800 0.000000
-18.092900 0.000000
-18.068900 0.000000
-18.045000 0.000000
-18.021000 0.000000
-17.997100 0.000000
-17.973100 0.000000
-17.949200 0.000000
-17.925200 0.000000
-17.901300 0.000000
-17.877400 0.000000
-17.853400 0.000000
-17.829500 0.000000
-17.805500 0.000000
-17.781600 0.000000
-17.757600 0.000000
-17.733700 0.000000
-17.709700 0.000000
-17.685800 0.000000
-17.661900 0.000000
-17.637900 0.000000
-17.614000 0.000000
-17.590000 0.000000
-17.566100 0.000000
-17.542100 0.000000
-17.518200 0.000000
-17.494200 0.000000
-17.470300 0.000000
-17.446400 0.000000
-17.422400 0.000000
-17.398500 0.000000
-17.374500 0.000000
-17.350600 0.000000
-17.326600 0.000000
-17.302700 0.000000
-17.278700 0.000000
-17.254800 0.000000
-17.230900 0.000000
-17.206900 0.000000
-17.183000 0.000000
-17.159000 0.000000
-17.135100 0.000000
-17.111100 0.000000
-17.087200 0.000000
-17.063200 0.000000
-17.039300 0.000000
-17.015400 0.000000
-16.991400 0.000000
-16.967500 0.000000
-16.943500 0.000000
-16.919600 0.000000
-16.895600 0.000000
-16.871700 0.000000
-16.847700 0.000000
-16.823800 0.000000
-16.799900 0.000000
-16.775900 0.000000
-16.752000 0.000000
-16.728000 0.000000
-16.704100 0.000000
-16.680100 0.000000
-16.656200 0.000000
-16.632200 0.000000
-16.608300 0.000000
-16.584400 0.000000
-16.560400 0.000000
-16.536500 0.000000
-16.512500 0.000000
-16.488600 0.000000
-16.464600 0.000000
-16.440700 0.000000
-16.416700 0.000000
-16.392800 0.000000
-16.368800 0.000000
-16.344900 0.000000
-16.321000 0.000000
-16.297000 0.000000
-16.273100 0.000000
-16.249100 0.000000
-16.225200 0.000000
-16.201200 0.000000
-16.177300 0.000000
-16.153300 0.000000
-16.129400 0.000000
-16.105500 0.000000
-16.081500 0.000000
-16.057600 0.000000
-16.033600 0.000000
-16.009700 0.000000
-15.985700 0.000000
-15.961800 0.000000
-15.937800 0.000000
-15.913900 0.000000
-15.890000 0.000000
-15.866000 0.000000
-15.842100 0.000000
-15.818100 0.000000
-15.794200 0.000000
-15.770200 0.000000
-15.746300 0.000000
-15.722300 0.000000
-15.698400 0.000000
-15.674500 0.000000
-15.650500 0.000000
-15.626600 0.000000
-15.602600 0.000000
-15.578700 0.000000
-15.554700 0.000000
-15.530800 0.000000
-15.506800 0.000000
-15.482900 0.000000
-15.459000 0.000000
-15.435000 0.000000
-15.411100 0.000000
-15.387100 0.000000
-15.363200 0.000000
-15.339200 0.000000
-15.315300 0.000000
-15.291300 0.000000
-15.267400 0.000000
-15.243500 0.000000
-15.219500 0.000000
-15.195600 0.000000
-15.171600 0.000000
-15.147700 0.000000
-15.123700 0.000000
-15.099800 0.000000
-15.075800 0.000000
-15.051900 0.000000
-15.028000 0.000000
-15.004000 0.000000
-14.980100 0.000000
-14.956100 0.000000
-14.932200 0.000000
-14.908200 0.000000
-14.884300 0.000000
-14.860300 0.000000
-14.836400 0.000000
-14.812400 0.000000
-14.788500 0.000000
-14.764600 0.000000
-14.740600 0.000000
-14.716700 0.000000
-14.692700 0.000000
-14.668800 0.000000
-14.644800 0.000000
-14.620900 0.000000
-14.596900 0.000000
-14.573000 0.000000
-14.549100 0.000000
-14.525100 0.000000
-14.501200 0.000000
-14.477200 0.000000
-14.453300 0.000000
-14.429300 0.000000
-14.405400 0.000000
-14.381400 0.000000
-14.357500 0.000000
-14.333600 0.000000
-14.309600 0.000000
-14.285700 0.000000
-14.261700 0.000000
-14.237800 0.000000
-14.213800 0.000000
-14.189900 0.000000
-14.165900 0.000000
-14.142000 0.000000
-14.118100 0.000000
-14.094100 0.000000
-14.070200 0.000000
-14.046200 0.000000
-14.022300 0.000000
-13.998300 0.000000
-13.974400 0.000000
-13.950400 0.000000
-13.926500 0.000000
-13.902600 0.000000
-13.878600 0.000000
-13.854700 0.000000
-13.830700 0.000000
-13.806800 0.000000
-13.782800 0.000000
-13.758900 0.000000
-13.734900 0.000000
-13.711000 0.000000
-13.687100 0.000000
-13.663100 0.000000
-13.639200 0.000000
-13.615200 0.000000
-13.591300 0.000000
-13.567300 0.000000
-13.543400 0.000000
-13.519400 0.000000
-13.495500 0.000000
-13.471600 0.000000
-13.447600 0.000000
-13.423700 0.000000
-13.399700 0.000000
-13.375800 0.000000
-13.351800 0.000000
-13.327900 0.000000
-13.303900 0.000000
-13.280000 0.000000
-13.256000 0.000000
-13.232100 0.000000
-13.208200 0.000000
-13.184200 0.000000
-13.160300 0.000000
-13.136300 0.000000
-13.112400 0.000000
-13.088400 0.000000
-13.064500 0.000000
-13.040500 0.000000
-13.016600 0.000000
-12.992700 0.000000
-12.968700 0.000000
-12.944800 0.000000
-12.920800 0.000000
-12.896900 0.000000
-12.872900 0.000000
-12.849000 0.000000
-12.825000 0.000000
-12.801100 0.000000
-12.777200 0.000000
-12.753200 0.000000
-12.729300 0.000000
-12.705300 0.000000
-12.681400 0.000000
-12.657400 0.000000
-12.633500 0.000000
-12.609500 0.000000
-12.585600 0.000000
-12.561700 0.000000
-12.537700 0.000000
-12.513800 0.000000
-12.489800 0.000000
-12.465900 0.000000
-12.441900 0.000000
-12.418000 0.000000
-12.394000 0.000000
-12.370100 0.000000
-12.346200 0.000000
-12.322200 0.000000
-12.298300 0.000000
-12.274300 0.000000
-12.250400 0.000000
-12.226400 0.000000
-12.202500 0.000000
-12.178500 0.000000
-12.154600 0.000000
-12.130700 0.000000
-12.106700 0.000000
-12.082800 0.000000
-12.058800 0.000000
-12.034900 0.000000
-12.010900 0.000000
-11.987000 0.000000
-11.963000 0.000000
-11.939100 0.000000
-11.915200 0.000000
-11.891200 0.000000
-11.867300 0.000000
-11.843300 0.000000
-11.819400 0.000000
-11.795400 0.000000
-11.771500 0.000000
-11.747500 0.000000
-11.723600 0.000000
-11.699600 0.000000
-11.675700 0.000000
-11.651800 0.000000
-11.627800 0.000000
-11.603900 0.000000
-11.579900 0.000000
-11.556000 0.000000
-11.532000 0.000000
-11.508100 0.000000
-11.484100 0.000000
-11.460200 0.000000
-11.436300 0.000000
-11.412300 0.000000
-11.388400 0.000000
-11.364400 0.000000
-11.340500 0.000000
-11.316500 0.000000
-11.292600 0.000000
-11.268600 0.000000
-11.244700 0.000000
-11.220800 0.000000
-11.196800 0.000000
-11.172900 0.000000
-11.148900 0.000000
-11.125000 0.000000
-11.101000 0.000000
-11.077100 0.000000
-11.053100 0.000000
-11.029200 0.000000
-11.005300 0.000000
-10.981300 0.000000
-10.957400 0.000000
-10.933400 0.000000
-10.909500 0.000000
-10.885500 0.000000
-10.861600 0.000000
-10.837600 0.000000
-10.813700 0.000000
-10.789800 0.000000
-10.765800 0.000000
-10.741900 0.000000
-10.717900 0.000000
-10.694000 0.000000
-10.670000 0.000000
-10.646100 0.000000
-10.622100 0.000000
-10.598200 0.000000
-10.574300 0.000000
-10.550300 0.000000
-10.526400 0.000000
-10.502400 0.000000
-10.478500 0.000000
-10.454500 0.000000
-10.430600 0.000000
-10.406600 0.000000
-10.382700 0.000000
-10.358800 0.000000
-10.334800 0.000000
-10.310900 0.000000
-10.286900 0.000000
-10.263000 0.000000
-10.239000 0.000000
-10.215100 0.000000
-10.191100 0.000000
-10.167200 0.000000
-10.143300 0.000000
-10.119300 0.000000
-10.095400 0.000000
-10.071400 0.000000
-10.047500 0.000000
-10.023500 0.000000
-9.999600 0.000000
-9.975600 0.000000
-9.951700 0.000000
-9.927700 0.000000
-9.903800 0.000000
-9.879900 0.000000
-9.855900 0.000000
-9.832000 0.000000
-9.808000 0.000000
-9.784100 0.000000
-9.760100 0.000000
-9.736200 0.000000
-9.712200 0.000000
-9.688300 0.000000
-9.664400 0.000000
-9.640400 0.000000
-9.616500 0.000000
-9.592500 0.000000
-9.568600 0.000000
-9.544600 0.000000
-9.520700 0.000000
-9.496700 0.000000
-9.472800 0.000000
-9.448900 0.000000
-9.424900 0.000000
-9.401000 0.000000
-9.377000 0.000000
-9.353100 0.000000
-9.329100 0.000000
-9.305200 0.000000
-9.281200 0.000000
-9.257300 0.000000
-9.233400 0.000000
-9.209400 0.000000
-9.185500 0.000000
-9.161500 0.000000
-9.137600 0.000000
-9.113600 0.000000
-9.089700 0.000000
-9.065700 0.000000
-9.041800 0.000000
-9.017900 0.000000
-8.993900 0.000000
-8.970000 0.000000
-8.946000 0.000000
-8.922100 0.000000
-8.898100 0.000000
-8.874200 0.000000
-8.850200 0.023400
-8.826300 0.098500
-8.802400 0.224600
-8.778400 0.313800
-8.754500 0.346800
-8.730500 0.352400
-8.706600 0.383900
-8.682600 0.425600
-8.658700 0.468300
-8.634700 0.510800
-8.610800 0.552900
-8.586900 0.584900
-8.562900 0.602100
-8.539000 0.611200
-8.515000 0.626300
-8.491100 0.648000
-8.467100 0.670100
-8.443200 0.693100
-8.419200 0.716600
-8.395300 0.739300
-8.371300 0.760200
-8.347400 0.781200
-8.323500 0.804100
-8.299500 0.829000
-8.275600 0.852000
-8.251600 0.869800
-8.227700 0.881800
-8.203700 0.891400
-8.179800 0.904600
-8.155800 0.919900
-8.131900 0.935700
-8.108000 0.951600
-8.084000 0.967200
-8.060100 0.982300
-8.036100 0.996700
-8.012200 1.010700
-7.988200 1.025600
-7.964300 1.041400
-7.940300 1.058100
-7.916400 1.075400
-7.892500 1.093000
-7.868500 1.110600
-7.844600 1.128300
-7.820600 1.143700
-7.796700 1.158900
-7.772700 1.173500
-7.748800 1.188700
-7.724800 1.204400
-7.700900 1.234000
-7.677000 1.277500
-7.653000 1.315200
-7.629100 1.333800
-7.605100 1.343300
-7.581200 1.352500
-7.557200 1.362200
-7.533300 1.372500
-7.509300 1.382000
-7.485400 1.390400
-7.461500 1.397800
-7.437500 1.402200
-7.413600 1.402600
-7.389600 1.404200
-7.365700 1.407600
-7.341700 1.406100
-7.317800 1.395000
-7.293800 1.378100
-7.269900 1.365100
-7.246000 1.362900
-7.222000 1.379700
-7.198100 1.426700
-7.174100 1.529400
-7.150200 1.597100
-7.126200 1.608600
-7.102300 1.574300
-7.078300 1.553100
-7.054400 1.534800
-7.030500 1.507300
-7.006500 1.483200
-6.982600 1.480200
-6.958600 1.485100
-6.934700 1.486000
-6.910700 1.480900
-6.886800 1.480700
-6.862800 1.485300
-6.838900 1.494300
-6.814900 1.505300
-6.791000 1.522100
-6.767100 1.550500
-6.743100 1.588000
-6.719200 1.635000
-6.695200 1.689700
-6.671300 1.772200
-6.647300 1.882500
-6.623400 1.972100
-6.599400 2.028600
-6.575500 2.044700
-6.551600 2.038000
-6.527600 2.055900
-6.503700 2.056600
-6.479700 2.023300
-6.455800 1.953200
-6.431800 1.895300
-6.407900 1.855100
-6.383900 1.852200
-6.360000 1.867600
-6.336100 1.900400
-6.312100 1.915100
-6.288200 1.896300
-6.264200 1.851200
-6.240300 1.808300
-6.216300 1.790600
-6.192400 1.786800
-6.168400 1.779400
-6.144500 1.784900
-6.120600 1.789300
-6.096600 1.732500
-6.072700 1.746400
-6.048700 1.763200
-6.024800 1.733400
-6.000800 1.686000
-5.976900 1.641700
-5.952900 1.609600
-5.929000 1.596900
-5.905100 1.636800
-5.881100 1.694500
-5.857200 1.752000
-5.833200 1.805200
-5.809300 1.853600
-5.785300 1.896700
-5.761400 1.947800
-5.737400 2.034700
-5.713500 2.145800
-5.689600 2.256900
-5.665600 2.316700
-5.641700 2.369900
-5.617700 2.452100
-5.593800 2.493700
-5.569800 2.534700
-5.545900 2.601400
-5.521900 2.633900
-5.498000 2.581600
-5.474100 2.472000
-5.450100 2.381800
-5.426200 2.265400
-5.402200 2.209400
-5.378300 2.189800
-5.354300 2.172600
-5.330400 2.168500
-5.306400 2.181300
-5.282500 2.208700
-5.258500 2.221000
-5.234600 2.224800
-5.210700 2.231400
-5.186700 2.260500
-5.162800 2.279100
-5.138800 2.265300
-5.114900 2.242800
-5.090900 2.239300
-5.067000 2.235000
-5.043000 2.259400
-5.019100 2.330400
-4.995200 2.390500
-4.971200 2.398000
-4.947300 2.392400
-4.923300 2.397400
-4.899400 2.401700
-4.875400 2.387500
-4.851500 2.399900
-4.827500 2.429000
-4.803600 2.461400
-4.779700 2.495000
-4.755700 2.535700
-4.731800 2.596900
-4.707800 2.619400
-4.683900 2.623400
-4.659900 2.616800
-4.636000 2.525400
-4.612000 2.482400
-4.588100 2.482200
-4.564200 2.488700
-4.540200 2.491500
-4.516300 2.498200
-4.492300 2.523700
-4.468400 2.547900
-4.444400 2.571500
-4.420500 2.603400
-4.396500 2.646500
-4.372600 2.694000
-4.348700 2.728300
-4.324700 2.759200
-4.300800 2.785300
-4.276800 2.830600
-4.252900 2.807300
-4.228900 2.793900
-4.205000 2.798500
-4.181000 2.830400
-4.157100 2.880100
-4.133200 2.880400
-4.109200 2.921200
-4.085300 3.013700
-4.061300 3.043500
-4.037400 3.054100
-4.013400 3.069900
-3.989500 3.079800
-3.965500 3.086100
-3.941600 3.082800
-3.917700 3.062000
-3.893700 3.016000
-3.869800 2.972000
-3.845800 2.938600
-3.821900 2.983300
-3.797900 3.131800
-3.774000 3.332400
-3.750000 3.551400
-3.726100 3.682900
-3.702100 3.686100
-3.678200 3.715900
-3.654300 3.744700
-3.630300 3.694600
-3.606400 3.579600
-3.582400 3.437400
-3.558500 3.279600
-3.534500 3.099000
-3.510600 2.963000
-3.486600 2.831800
-3.462700 2.732700
-3.438800 2.643500
-3.414800 2.579700
-3.390900 2.559500
-3.366900 2.471300
-3.343000 2.380300
-3.319000 2.293400
-3.295100 2.276200
-3.271100 2.273100
-3.247200 2.306600
-3.223300 2.350500
-3.199300 2.392500
-3.175400 2.412600
-3.151400 2.429800
-3.127500 2.406800
-3.103500 2.350400
-3.079600 2.353000
-3.055600 2.432200
-3.031700 2.520800
-3.007800 2.621000
-2.983800 2.667000
-2.959900 2.610400
-2.935900 2.495000
-2.912000 2.439200
-2.888000 2.181700
-2.864100 2.104700
-2.840100 2.058100
-2.816200 2.020900
-2.792300 1.951500
-2.768300 1.917700
-2.744400 1.931700
-2.720400 2.005200
-2.696500 2.213700
-2.672500 2.458400
-2.648600 2.657000
-2.624600 2.818700
-2.600700 2.900800
-2.576800 2.905000
-2.552800 2.938100
-2.528900 2.998600
-2.504900 3.098800
-2.481000 3.053200
-2.457000 3.194300
-2.433100 3.271000
-2.409100 3.289700
-2.385200 3.370300
-2.361300 3.417700
-2.337300 3.373700
-2.313400 3.371100
-2.289400 3.428900
-2.265500 3.591400
-2.241500 3.514000
-2.217600 3.459500
-2.193600 3.417000
-2.169700 3.370100
-2.145700 3.348800
-2.121800 3.316500
-2.097900 3.257300
-2.073900 3.161400
-2.050000 3.170000
-2.026000 3.171700
-2.002100 3.209200
-1.978100 3.475500
-1.954200 3.643200
-1.930200 3.686700
-1.906300 3.813300
-1.882400 3.911900
-1.858400 3.949900
-1.834500 3.930300
-1.810500 3.584600
-1.786600 3.239200
-1.762600 2.826700
-1.738700 2.530800
-1.714700 2.378300
-1.690800 2.219900
-1.666900 2.066600
-1.642900 1.913400
-1.619000 1.772200
-1.595000 1.652500
-1.571100 1.566500
-1.547100 1.504100
-1.523200 1.442600
-1.499200 1.374700
-1.475300 1.306600
-1.451400 1.238400
-1.427400 1.170600
-1.403500 1.071200
-1.379500 1.002300
-1.355600 0.943800
-1.331600 0.895900
-1.307700 0.874800
-1.283700 0.797500
-1.259800 0.683400
-1.235900 0.642300
-1.211900 0.606100
-1.188000 0.578400
-1.164000 0.545300
-1.140100 0.508100
-1.116100 0.470000
-1.092200 0.433200
-1.068200 0.397700
-1.044300 0.362400
-1.020400 0.325500
-0.996400 0.292500
-0.972500 0.265400
-0.948500 0.242100
-0.924600 0.217200
-0.900600 0.129900
-0.876700 0.017600
-0.852700 0.030600
-0.828800 0.058500
-0.804900 0.075500
-0.780900 0.094500
-0.757000 0.115500
-0.733000 0.143400
-0.709100 0.182600
-0.685100 0.233000
-0.661200 0.294800
-0.637200 0.365700
-0.613300 0.437100
-0.589400 0.512800
-0.565400 0.594400
-0.541500 0.688000
-0.517500 0.813900
-0.493600 1.023700
-0.469600 1.307800
-0.445700 1.647000
-0.421700 1.885600
-0.397800 2.028700
-0.373800 2.134400
-0.349900 2.402800
-0.326000 2.423800
-0.302000 2.524600
-0.278100 2.574500
-0.254100 2.685700
-0.230200 2.680900
-0.206200 2.559300
-0.182300 2.470300
-0.158300 2.431100
-0.134400 2.441000
-0.110500 2.451800
-0.086500 2.506900
-0.062600 2.590600
-0.038600 2.700700
-0.014700 2.915400
0.009300 2.963600
0.033200 3.039000
0.057200 3.139000
0.081100 3.265900
0.105000 3.410800
0.129000 3.485700
0.152900 3.449400
0.176900 3.462100
0.200800 3.384700
0.224800 3.325000
0.248700 3.327800
0.272700 3.352900
0.296600 3.390000
0.320500 3.474100
0.344500 3.585400
0.368400 3.777500
0.392400 3.729000
0.416300 3.535200
0.440300 3.516400
0.464200 3.565200
0.488200 3.619700
0.512100 3.636600
0.536000 3.620200
0.560000 3.617700
0.583900 3.583900
0.607900 3.472100
0.631800 3.513600
0.655800 3.525200
0.679700 3.508500
0.703700 3.519900
0.727600 3.481200
0.751500 3.487800
0.775500 3.576100
0.799400 3.683300
0.823400 3.758500
0.847300 3.804400
0.871300 3.790400
0.895200 3.757600
0.919200 3.762700
0.943100 3.844800
0.967000 3.871800
0.991000 3.926400
1.014900 3.957900
1.038900 3.940200
1.062800 4.159000
1.086800 3.855700
1.110700 3.781300
1.134700 3.742500
1.158600 3.705900
1.182600 3.588000
1.206500 3.537900
