set title 'mp-1184266 - Density of States'
set xlabel 'Energy (eV)'
set ylabel 'DOS (states/eV)'
set grid
set xrange [-10:10]
set yrange [0:112.039]
set xzeroaxis lt -1
set terminal png size 800,600
set output 'mp-1184266_dos_gnuplot.png'
plot '-' using 1:2 with lines title 'DOS'
-17.508400 0.000000
-17.479800 0.000000
-17.451100 0.000000
-17.422500 0.000000
-17.393900 0.000000
-17.365200 0.000000
-17.336600 0.000000
-17.307900 0.000000
-17.279300 0.000000
-17.250600 0.000000
-17.222000 0.000000
-17.193300 0.000000
-17.164700 0.000000
-17.136100 0.000000
-17.107400 0.000000
-17.078800 0.000000
-17.050100 0.000000
-17.021500 0.000000
-16.992800 0.000000
-16.964200 0.000000
-16.935500 0.000000
-16.906900 0.000000
-16.878300 0.000000
-16.849600 0.000000
-16.821000 0.000000
-16.792300 0.000000
-16.763700 0.000000
-16.735000 0.000000
-16.706400 0.000000
-16.677700 0.000000
-16.649100 0.000000
-16.620500 0.000000
-16.591800 0.000000
-16.563200 0.000000
-16.534500 0.000000
-16.505900 0.000000
-16.477200 0.000000
-16.448600 0.000000
-16.419900 0.000000
-16.391300 0.000000
-16.362600 0.000000
-16.334000 0.000000
-16.305400 0.000000
-16.276700 0.000000
-16.248100 0.000000
-16.219400 0.000000
-16.190800 0.000000
-16.162100 0.000000
-16.133500 0.000000
-16.104800 0.000000
-16.076200 0.000000
-16.047600 0.000000
-16.018900 0.000000
-15.990300 0.000000
-15.961600 0.000000
-15.933000 0.000000
-15.904300 0.000000
-15.875700 0.000000
-15.847000 0.000000
-15.818400 0.000000
-15.789800 0.000000
-15.761100 0.000000
-15.732500 0.000000
-15.703800 0.000000
-15.675200 0.000000
-15.646500 0.000000
-15.617900 0.000000
-15.589200 0.000000
-15.560600 0.000000
-15.532000 0.000000
-15.503300 0.000000
-15.474700 0.000000
-15.446000 0.000000
-15.417400 0.000000
-15.388700 0.000000
-15.360100 0.000000
-15.331400 0.000000
-15.302800 0.000000
-15.274200 0.000000
-15.245500 0.000000
-15.216900 0.000000
-15.188200 0.000000
-15.159600 0.000000
-15.130900 0.000000
-15.102300 0.000000
-15.073600 0.000000
-15.045000 0.000100
-15.016400 0.002600
-14.987700 0.046400
-14.959100 0.502800
-14.930400 3.426500
-14.901800 15.118400
-14.873100 44.151600
-14.844500 87.725200
-14.815800 124.989500
-14.787200 141.401000
-14.758600 146.983400
-14.729900 150.451100
-14.701300 139.302300
-14.672600 103.524200
-14.644000 57.385000
-14.615300 23.327500
-14.586700 7.094400
-14.558000 1.607000
-14.529400 0.253500
-14.500800 0.025400
-14.472100 0.001500
-14.443500 0.000100
-14.414800 0.000000
-14.386200 0.000000
-14.357500 0.000000
-14.328900 0.000000
-14.300200 0.000000
-14.271600 0.000000
-14.243000 0.000000
-14.214300 0.000000
-14.185700 0.000000
-14.157000 0.000000
-14.128400 0.000000
-14.099700 0.000000
-14.071100 0.000000
-14.042400 0.000000
-14.013800 0.000000
-13.985200 0.000000
-13.956500 0.000000
-13.927900 0.000000
-13.899200 0.000000
-13.870600 0.000000
-13.841900 0.000000
-13.813300 0.000000
-13.784600 0.000000
-13.756000 0.000000
-13.727400 0.000000
-13.698700 0.000000
-13.670100 0.000000
-13.641400 0.000000
-13.612800 0.000000
-13.584100 0.000000
-13.555500 0.000000
-13.526800 0.000000
-13.498200 0.000000
-13.469600 0.000000
-13.440900 0.000000
-13.412300 0.000000
-13.383600 0.000000
-13.355000 0.000000
-13.326300 0.000000
-13.297700 0.000000
-13.269000 0.000000
-13.240400 0.000000
-13.211700 0.000000
-13.183100 0.000000
-13.154500 0.000000
-13.125800 0.000000
-13.097200 0.000000
-13.068500 0.000000
-13.039900 0.000000
-13.011200 0.000000
-12.982600 0.000000
-12.953900 0.000000
-12.925300 0.000000
-12.896700 0.000000
-12.868000 0.000000
-12.839400 0.000000
-12.810700 0.000000
-12.782100 0.000000
-12.753400 0.000000
-12.724800 0.000000
-12.696100 0.000000
-12.667500 0.000000
-12.638900 0.000000
-12.610200 0.000000
-12.581600 0.000000
-12.552900 0.000000
-12.524300 0.000000
-12.495600 0.000000
-12.467000 0.000000
-12.438300 0.000000
-12.409700 0.000000
-12.381100 0.000000
-12.352400 0.000000
-12.323800 0.000000
-12.295100 0.000000
-12.266500 0.000000
-12.237800 0.000000
-12.209200 0.000000
-12.180500 0.000000
-12.151900 0.000000
-12.123300 0.000000
-12.094600 0.000000
-12.066000 0.000000
-12.037300 0.000000
-12.008700 0.000000
-11.980000 0.000000
-11.951400 0.000000
-11.922700 0.000000
-11.894100 0.000000
-11.865500 0.000000
-11.836800 0.000000
-11.808200 0.000000
-11.779500 0.000000
-11.750900 0.000000
-11.722200 0.000000
-11.693600 0.000000
-11.664900 0.000000
-11.636300 0.000000
-11.607700 0.000000
-11.579000 0.000000
-11.550400 0.000000
-11.521700 0.000000
-11.493100 0.000000
-11.464400 0.000000
-11.435800 0.000000
-11.407100 0.000000
-11.378500 0.000000
-11.349900 0.000000
-11.321200 0.000000
-11.292600 0.000000
-11.263900 0.000000
-11.235300 0.000000
-11.206600 0.000000
-11.178000 0.000000
-11.149300 0.000000
-11.120700 0.000000
-11.092100 0.000000
-11.063400 0.000000
-11.034800 0.000000
-11.006100 0.000000
-10.977500 0.000000
-10.948800 0.000000
-10.920200 0.000000
-10.891500 0.000000
-10.862900 0.000000
-10.834300 0.000000
-10.805600 0.000000
-10.777000 0.000000
-10.748300 0.000000
-10.719700 0.000000
-10.691000 0.000000
-10.662400 0.000000
-10.633700 0.000000
-10.605100 0.000000
-10.576500 0.000000
-10.547800 0.000000
-10.519200 0.000000
-10.490500 0.000000
-10.461900 0.000000
-10.433200 0.000000
-10.404600 0.000000
-10.375900 0.000000
-10.347300 0.000000
-10.318600 0.000000
-10.290000 0.000000
-10.261400 0.000000
-10.232700 0.000000
-10.204100 0.000000
-10.175400 0.000000
-10.146800 0.000000
-10.118100 0.000000
-10.089500 0.000000
-10.060800 0.000000
-10.032200 0.000000
-10.003600 0.000000
-9.974900 0.000000
-9.946300 0.000000
-9.917600 0.000000
-9.889000 0.000000
-9.860300 0.000000
-9.831700 0.000000
-9.803000 0.000000
-9.774400 0.000000
-9.745800 0.000000
-9.717100 0.000000
-9.688500 0.000000
-9.659800 0.000000
-9.631200 0.000000
-9.602500 0.000000
-9.573900 0.000000
-9.545200 0.000000
-9.516600 0.000000
-9.488000 0.000000
-9.459300 0.000000
-9.430700 0.000000
-9.402000 0.000000
-9.373400 0.000000
-9.344700 0.000000
-9.316100 0.000000
-9.287400 0.000000
-9.258800 0.000000
-9.230200 0.000000
-9.201500 0.000000
-9.172900 0.000000
-9.144200 0.000000
-9.115600 0.000000
-9.086900 0.000000
-9.058300 0.000000
-9.029600 0.000000
-9.001000 0.000000
-8.972400 0.000000
-8.943700 0.000000
-8.915100 0.000000
-8.886400 0.000000
-8.857800 0.000000
-8.829100 0.000000
-8.800500 0.000000
-8.771800 0.000000
-8.743200 0.000000
-8.714600 0.000000
-8.685900 0.000000
-8.657300 0.000000
-8.628600 0.000000
-8.600000 0.000000
-8.571300 0.000000
-8.542700 0.000000
-8.514000 0.000000
-8.485400 0.000000
-8.456800 0.000000
-8.428100 0.000000
-8.399500 0.000000
-8.370800 0.000000
-8.342200 0.000000
-8.313500 0.000000
-8.284900 0.000000
-8.256200 0.000000
-8.227600 0.000200
-8.199000 0.008800
-8.170300 0.198200
-8.141700 2.384500
-8.113000 15.390800
-8.084400 53.488500
-8.055700 100.366800
-8.027100 101.853700
-7.998400 55.922200
-7.969800 16.596200
-7.941200 2.656900
-7.912500 0.228800
-7.883900 0.010600
-7.855200 0.000300
-7.826600 0.000000
-7.797900 0.000000
-7.769300 0.000000
-7.740600 0.000000
-7.712000 0.000000
-7.683400 0.000000
-7.654700 0.000000
-7.626100 0.000000
-7.597400 0.000000
-7.568800 0.000000
-7.540100 0.000000
-7.511500 0.000000
-7.482800 0.000000
-7.454200 0.000000
-7.425500 0.000000
-7.396900 0.000000
-7.368300 0.000000
-7.339600 0.000000
-7.311000 0.000000
-7.282300 0.000000
-7.253700 0.000000
-7.225000 0.000000
-7.196400 0.000000
-7.167700 0.000000
-7.139100 0.000000
-7.110500 0.000000
-7.081800 0.000000
-7.053200 0.000000
-7.024500 0.000000
-6.995900 0.000000
-6.967200 0.000000
-6.938600 0.000000
-6.909900 0.000000
-6.881300 0.000000
-6.852700 0.000000
-6.824000 0.000000
-6.795400 0.000000
-6.766700 0.000000
-6.738100 0.000000
-6.709400 0.000000
-6.680800 0.000000
-6.652100 0.000000
-6.623500 0.000000
-6.594900 0.000000
-6.566200 0.000000
-6.537600 0.000000
-6.508900 0.000000
-6.480300 0.000000
-6.451600 0.000000
-6.423000 0.000000
-6.394300 0.000000
-6.365700 0.000000
-6.337100 0.000000
-6.308400 0.000000
-6.279800 0.000000
-6.251100 0.000000
-6.222500 0.000000
-6.193800 0.000000
-6.165200 0.000000
-6.136500 0.000000
-6.107900 0.000000
-6.079300 0.000000
-6.050600 0.000000
-6.022000 0.000000
-5.993300 0.000000
-5.964700 0.000000
-5.936000 0.000000
-5.907400 0.000000
-5.878700 0.000000
-5.850100 0.000000
-5.821500 0.000000
-5.792800 0.000000
-5.764200 0.000000
-5.735500 0.000000
-5.706900 0.000000
-5.678200 0.000000
-5.649600 0.000000
-5.620900 0.000000
-5.592300 0.000000
-5.563700 0.000000
-5.535000 0.000000
-5.506400 0.000000
-5.477700 0.000000
-5.449100 0.000000
-5.420400 0.000000
-5.391800 0.000000
-5.363100 0.000000
-5.334500 0.000000
-5.305900 0.000000
-5.277200 0.000000
-5.248600 0.000000
-5.219900 0.000000
-5.191300 0.000000
-5.162600 0.000000
-5.134000 0.000000
-5.105300 0.000000
-5.076700 0.000000
-5.048100 0.000000
-5.019400 0.000000
-4.990800 0.000000
-4.962100 0.000000
-4.933500 0.000000
-4.904800 0.000000
-4.876200 0.000000
-4.847500 0.000000
-4.818900 0.000000
-4.790300 0.000000
-4.761600 0.000000
-4.733000 0.000000
-4.704300 0.000000
-4.675700 0.000000
-4.647000 0.000000
-4.618400 0.000000
-4.589700 0.000000
-4.561100 0.000000
-4.532400 0.000000
-4.503800 0.000000
-4.475200 0.000000
-4.446500 0.000000
-4.417900 0.000000
-4.389200 0.000000
-4.360600 0.000000
-4.331900 0.000000
-4.303300 0.000000
-4.274600 0.000000
-4.246000 0.000000
-4.217400 0.000000
-4.188700 0.000000
-4.160100 0.000000
-4.131400 0.000100
-4.102800 0.000900
-4.074100 0.006100
-4.045500 0.023100
-4.016800 0.053300
-3.988200 0.088800
-3.959600 0.129400
-3.930900 0.196800
-3.902300 0.313200
-3.873600 0.388100
-3.845000 0.302400
-3.816300 0.151400
-3.787700 0.119100
-3.759000 0.261300
-3.730400 0.468400
-3.701800 0.560200
-3.673100 0.519800
-3.644500 0.507900
-3.615800 0.590700
-3.587200 0.571200
-3.558500 0.355900
-3.529900 0.185400
-3.501200 0.205500
-3.472600 0.339700
-3.444000 0.533800
-3.415300 0.718400
-3.386700 0.761300
-3.358000 0.733500
-3.329400 0.800000
-3.300700 0.829800
-3.272100 0.617700
-3.243400 0.320200
-3.214800 0.220000
-3.186200 0.371300
-3.157500 0.637800
-3.128900 0.894500
-3.100200 1.029200
-3.071600 0.952600
-3.042900 0.778900
-3.014300 0.621500
-2.985600 0.545300
-2.957000 0.575500
-2.928400 0.617500
-2.899700 0.634300
-2.871100 0.705200
-2.842400 0.826100
-2.813800 0.839700
-2.785100 0.776300
-2.756500 0.811900
-2.727800 0.880300
-2.699200 0.902800
-2.670600 0.873300
-2.641900 0.782100
-2.613300 0.879400
-2.584600 1.246400
-2.556000 1.516300
-2.527300 1.419300
-2.498700 1.071500
-2.470000 0.741100
-2.441400 0.512100
-2.412800 0.374200
-2.384100 0.344500
-2.355500 0.378000
-2.326800 0.445000
-2.298200 0.606200
-2.269500 0.916800
-2.240900 1.258000
-2.212200 1.453700
-2.183600 1.424500
-2.155000 1.242900
-2.126300 1.184100
-2.097700 1.290000
-2.069000 1.231200
-2.040400 1.019500
-2.011700 0.981500
-1.983100 1.042000
-1.954400 0.958400
-1.925800 0.838300
-1.897200 0.858100
-1.868500 0.929000
-1.839900 0.902700
-1.811200 0.896400
-1.782600 0.973500
-1.753900 1.037100
-1.725300 1.020100
-1.696600 0.863100
-1.668000 0.667900
-1.639400 0.634300
-1.610700 0.737600
-1.582100 0.917100
-1.553400 1.198300
-1.524800 1.317300
-1.496100 1.176900
-1.467500 1.088400
-1.438800 1.063500
-1.410200 0.922400
-1.381500 0.832500
-1.352900 1.176600
-1.324300 1.870200
-1.295600 2.160600
-1.267000 1.664700
-1.238300 0.947300
-1.209700 0.647600
-1.181000 0.723800
-1.152400 0.902300
-1.123700 1.153500
-1.095100 1.313700
-1.066500 1.185600
-1.037800 1.129300
-1.009200 1.391400
-0.980500 1.621600
-0.951900 1.551700
-0.923200 1.195700
-0.894600 0.748300
-0.865900 0.629300
-0.837300 1.005400
-0.808700 1.514700
-0.780000 1.740100
-0.751400 1.624900
-0.722700 1.421800
-0.694100 1.299700
-0.665400 1.114200
-0.636800 0.835700
-0.608100 0.670800
-0.579500 0.736300
-0.550900 0.932300
-0.522200 1.109000
-0.493600 1.229500
-0.464900 1.408600
-0.436300 1.646700
-0.407600 1.721800
-0.379000 1.562900
-0.350300 1.435600
-0.321700 1.590700
-0.293100 1.916500
-0.264400 1.973600
-0.235800 1.612100
-0.207100 1.219600
-0.178500 1.112100
-0.149800 1.239100
-0.121200 1.482700
-0.092500 1.853200
-0.063900 2.228400
-0.035300 2.305200
-0.006600 2.013100
0.022000 1.637400
0.050700 1.368500
0.079300 1.205000
0.108000 1.222400
0.136600 1.358100
0.165300 1.392100
0.193900 1.569800
0.222500 2.056600
0.251200 2.127100
0.279800 1.530600
0.308500 1.163800
0.337100 1.357800
0.365800 1.493500
0.394400 1.358000
0.423100 1.225500
0.451700 1.117300
0.480300 1.007900
0.509000 0.973400
0.537600 1.043000
0.566300 1.204700
0.594900 1.374900
0.623600 1.516500
0.652200 1.712800
0.680900 2.072600
0.709500 2.508600
0.738100 2.769800
0.766800 2.793900
0.795400 2.574800
0.824100 2.211500
0.852700 1.927300
0.881400 1.732300
0.910000 1.463700
0.938700 1.072700
0.967300 0.804500
0.995900 0.898600
1.024600 1.381500
1.053200 1.922400
1.081900 1.948200
1.110500 1.556500
1.139200 1.496500
1.167800 1.871000
1.196500 2.056700
1.225100 1.854400
1.253700 1.671100
1.282400 1.730700
1.311000 1.827200
1.339700 1.598700
1.368300 1.070700
1.397000 0.696400
1.425600 0.804500
1.454300 1.170800
1.482900 1.303600
1.511600 1.231900
1.540200 1.243500
1.568800 1.340000
1.597500 1.483000
1.626100 1.663100
1.654800 1.888400
1.683400 2.102100
1.712100 2.053400
1.740700 1.722600
1.769400 1.329600
1.798000 1.056300
1.826600 1.041100
1.855300 1.184700
1.883900 1.234700
1.912600 1.233300
1.941200 1.249400
1.969900 1.208200
1.998500 1.121500
2.027200 1.109800
2.055800 1.424600
2.084400 1.961000
2.113100 2.092400
2.141700 1.649600
2.170400 1.336400
2.199000 1.556900
2.227700 1.938600
2.256300 2.042000
2.285000 1.727900
2.313600 1.225100
2.342200 0.953300
2.370900 1.164700
2.399500 1.653400
2.428200 1.850500
2.456800 1.639300
2.485500 1.385400
2.514100 1.124900
2.542800 0.877600
2.571400 0.915300
2.600000 1.110900
2.628700 1.060100
2.657300 0.747300
2.686000 0.468700
2.714600 0.358300
2.743300 0.376200
2.771900 0.462000
2.800600 0.667700
2.829200 1.035700
2.857800 1.386700
2.886500 1.554600
2.915100 1.467100
2.943800 1.186500
2.972400 1.089300
3.001100 1.244300
3.029700 1.268700
3.058400 1.091400
3.087000 0.923100
3.115600 0.836800
3.144300 0.727700
3.172900 0.557400
3.201600 0.488200
3.230200 0.620100
3.258900 0.823900
3.287500 0.965600
3.316200 1.009400
3.344800 0.890600
3.373400 0.715500
3.402100 0.773600
3.430700 1.044400
3.459400 1.265400
3.488000 1.252700
3.516700 1.021200
3.545300 0.848500
3.574000 0.827800
3.602600 0.806700
3.631200 0.816900
3.659900 1.021500
3.688500 1.388700
3.717200 1.676600
3.745800 1.752200
3.774500 1.717700
3.803100 1.665500
3.831800 1.521800
3.860400 1.244800
3.889000 1.054700
3.917700 1.147300
3.946300 1.273200
3.975000 1.153200
4.003600 1.083100
4.032300 1.436600
4.060900 2.003600
4.089600 2.308200
4.118200 2.241200
4.146800 2.201800
4.175500 2.247900
4.204100 1.976000
4.232800 1.528500
4.261400 1.246500
4.290100 1.263400
4.318700 1.674300
4.347400 2.143900
4.376000 2.203500
4.404700 2.088800
4.433300 2.249700
4.461900 2.597000
4.490600 2.647900
4.519200 2.277000
4.547900 2.080500
4.576500 2.322900
4.605200 2.484900
4.633800 2.241400
4.662500 1.927100
4.691100 1.972200
4.719700 2.348800
4.748400 2.594500
4.777000 2.502800
4.805700 2.439700
4.834300 2.689200
4.863000 2.836300
4.891600 2.544800
4.920300 2.377200
4.948900 2.728600
4.977500 3.281200
5.006200 3.729600
5.034800 3.882400
5.063500 3.420000
5.092100 2.429500
5.120800 1.642500
5.149400 1.312800
5.178100 1.098800
5.206700 1.067700
5.235300 1.289000
5.264000 1.472000
5.292600 1.612900
5.321300 1.848800
5.349900 2.093600
5.378600 2.222500
5.407200 2.142100
5.435900 2.022000
5.464500 2.040700
5.493100 1.953300
5.521800 1.595900
5.550400 1.178300
5.579100 0.942900
5.607700 1.010000
5.636400 1.337300
5.665000 1.917100
5.693700 2.707200
5.722300 3.134800
5.750900 2.779400
5.779600 2.193000
5.808200 2.117100
5.836900 2.294400
5.865500 2.126800
5.894200 1.835100
5.922800 1.664000
5.951500 1.380600
5.980100 1.044200
6.008700 1.070500
6.037400 1.582100
6.066000 2.217800
6.094700 2.584700
6.123300 2.496200
6.152000 2.083800
6.180600 1.811200
6.209300 1.870700
6.237900 1.998000
6.266500 2.133700
6.295200 2.429700
6.323800 2.717700
6.352500 2.662800
6.381100 2.358900
6.409800 2.264600
6.438400 2.443200
6.467100 2.521100
6.495700 2.421200
6.524300 2.365600
6.553000 2.497100
6.581600 2.733700
6.610300 2.728600
6.638900 2.357800
6.667600 2.008700
6.696200 1.911200
6.724900 1.924800
6.753500 1.850100
6.782100 1.622000
6.810800 1.443500
6.839400 1.447200
6.868100 1.486800
6.896700 1.479700
6.925400 1.517600
6.954000 1.698300
6.982700 1.868800
7.011300 1.894500
7.039900 1.998100
7.068600 2.222700
7.097200 2.231600
7.125900 1.993000
7.154500 1.793900
7.183200 1.644200
7.211800 1.426200
7.240500 1.199400
7.269100 1.081200
7.297800 1.202000
7.326400 1.516200
7.355000 1.816100
7.383700 2.052600
7.412300 2.422000
7.441000 3.025300
7.469600 3.385500
7.498300 3.071500
7.526900 2.439300
7.555600 2.079700
7.584200 2.238100
7.612800 2.724600
7.641500 3.078200
7.670100 3.059800
7.698800 2.859400
7.727400 2.734600
7.756100 2.930900
7.784700 3.216800
7.813400 3.076500
7.842000 2.775300
7.870600 2.676200
7.899300 2.424100
7.927900 2.046500
7.956600 2.027700
7.985200 2.240500
8.013900 2.114600
8.042500 1.596200
8.071200 1.296900
8.099800 1.443200
8.128400 1.708600
8.157100 1.857800
8.185700 1.904600
8.214400 1.902900
8.243000 1.845800
8.271700 1.862000
8.300300 2.024300
8.329000 2.200800
8.357600 2.463300
8.386200 2.679200
8.414900 2.554300
8.443500 2.327700
8.472200 2.112700
8.500800 1.718000
8.529500 1.266800
8.558100 1.295400
8.586800 2.279300
8.615400 3.814900
8.644000 4.768900
8.672700 4.681900
8.701300 4.022400
8.730000 3.429300
8.758600 2.919100
8.787300 2.171300
8.815900 1.582300
8.844600 1.679500
8.873200 2.458300
8.901800 3.356700
8.930500 3.493200
8.959100 2.932400
8.987800 2.444600
9.016400 2.208900
9.045100 2.297900
9.073700 2.965600
9.102400 3.770800
9.131000 4.095100
9.159600 3.827500
9.188300 3.185200
9.216900 2.759000
9.245600 2.780400
9.274200 2.894200
9.302900 2.971100
9.331500 2.828300
9.360200 2.280900
9.388800 1.874300
9.417400 1.866700
9.446100 1.901800
9.474700 1.976800
9.503400 2.180100
9.532000 2.349700
9.560700 2.337500
9.589300 2.107600
9.618000 1.912800
9.646600 2.093300
9.675200 2.524800
9.703900 2.828000
9.732500 2.935400
9.761200 2.924500
9.789800 2.858000
9.818500 2.822300
9.847100 2.828000
9.875800 2.859800
9.904400 2.929000
9.933000 3.074200
9.961700 3.309600
9.990300 3.658000
10.019000 3.984800
10.047600 3.885700
10.076300 3.357200
10.104900 2.814500
10.133600 2.520500
10.162200 2.555000
10.190900 2.826400
10.219500 3.258600
10.248100 3.564900
10.276800 3.501200
10.305400 3.256900
10.334100 2.892300
10.362700 2.406200
10.391400 2.144200
10.420000 2.205100
10.448700 2.458800
10.477300 2.745900
10.505900 2.894600
10.534600 2.968800
10.563200 2.884200
10.591900 2.552200
10.620500 2.381000
10.649200 2.735600
10.677800 3.129100
10.706500 2.864400
10.735100 2.173300
10.763700 1.816900
10.792400 2.136800
10.821000 2.717100
10.849700 2.797900
10.878300 2.314900
10.907000 1.990300
10.935600 2.281300
10.964300 2.892500
10.992900 3.045800
11.021500 2.582800
11.050200 2.330300
11.078800 2.606700
11.107500 2.824800
11.136100 2.524900
11.164800 1.923300
11.193400 1.469300
11.222100 1.315500
11.250700 1.531600
11.279300 2.132400
11.308000 2.818500
11.336600 3.173900
11.365300 3.285900
11.393900 3.427800
11.422600 3.425300
11.451200 3.101200
11.479900 2.582800
11.508500 2.138000
11.537100 1.884900
11.565800 1.765900
11.594400 1.795600
11.623100 1.942900
11.651700 2.059600
11.680400 2.135300
11.709000 2.202100
11.737700 2.201100
11.766300 2.411100
11.794900 3.006300
11.823600 3.332100
11.852200 3.001300
11.880900 2.666200
11.909500 2.564000
11.938200 2.345100
11.966800 1.928600
11.995500 1.497100
12.024100 1.357300
12.052700 1.449500
12.081400 1.621900
12.110000 1.904000
12.138700 2.118300
12.167300 2.144300
12.196000 2.083900
12.224600 2.008200
12.253300 1.776600
12.281900 1.403300
