set title 'mp-998912 - Density of States'
set xlabel 'Energy (eV)'
set ylabel 'DOS (states/eV)'
set grid
set xrange [-10:10]
set yrange [0:100.197]
set xzeroaxis lt -1
set terminal png size 800,600
set output 'mp-998912_dos_gnuplot.png'
plot '-' using 1:2 with lines title 'DOS'
-10.163800 0.000000
-10.144000 0.000000
-10.124200 0.000000
-10.104400 0.000000
-10.084500 0.000000
-10.064700 0.000000
-10.044900 0.000000
-10.025100 0.000000
-10.005300 0.000000
-9.985400 0.000000
-9.965600 0.000000
-9.945800 0.000000
-9.926000 0.000000
-9.906200 0.000000
-9.886300 0.000000
-9.866500 0.000000
-9.846700 0.000000
-9.826900 0.000000
-9.807100 0.000000
-9.787200 0.000000
-9.767400 0.000000
-9.747600 0.000000
-9.727800 0.000000
-9.708000 0.000000
-9.688200 0.000000
-9.668300 0.000000
-9.648500 0.000000
-9.628700 0.000000
-9.608900 0.000000
-9.589100 0.000000
-9.569200 0.000000
-9.549400 0.000000
-9.529600 0.000000
-9.509800 0.000000
-9.490000 0.000000
-9.470100 0.000000
-9.450300 0.000000
-9.430500 0.000000
-9.410700 0.000000
-9.390900 0.000000
-9.371000 0.000000
-9.351200 0.000000
-9.331400 0.000000
-9.311600 0.000000
-9.291800 0.000000
-9.271900 0.000000
-9.252100 0.000000
-9.232300 0.000000
-9.212500 0.000000
-9.192700 0.000000
-9.172800 0.000000
-9.153000 0.000000
-9.133200 0.000000
-9.113400 0.000000
-9.093600 0.000000
-9.073700 0.000000
-9.053900 0.000000
-9.034100 0.000000
-9.014300 0.000000
-8.994500 0.000000
-8.974600 0.000000
-8.954800 0.000000
-8.935000 0.000000
-8.915200 0.000000
-8.895400 0.000000
-8.875500 0.000000
-8.855700 0.000000
-8.835900 0.000000
-8.816100 0.000000
-8.796300 0.000000
-8.776400 0.000000
-8.756600 0.000000
-8.736800 0.000000
-8.717000 0.000000
-8.697200 0.000000
-8.677300 0.000000
-8.657500 0.000000
-8.637700 0.000000
-8.617900 0.000000
-8.598100 0.000000
-8.578200 0.000000
-8.558400 0.000000
-8.538600 0.000000
-8.518800 0.000000
-8.499000 0.000000
-8.479100 0.000000
-8.459300 0.000000
-8.439500 0.000000
-8.419700 0.000000
-8.399900 0.000000
-8.380000 0.000000
-8.360200 0.004900
-8.340400 0.116300
-8.320600 0.303300
-8.300800 0.550000
-8.280900 0.651100
-8.261100 0.774500
-8.241300 0.974900
-8.221500 1.145300
-8.201700 1.227700
-8.181800 1.155700
-8.162000 1.221600
-8.142200 1.280000
-8.122400 1.328000
-8.102600 1.370800
-8.082700 1.428500
-8.062900 1.510600
-8.043100 1.617600
-8.023300 3.223700
-8.003500 5.802200
-7.983700 7.725600
-7.963800 10.080100
-7.944000 12.293800
-7.924200 13.843000
-7.904400 7.493400
-7.884600 7.917900
-7.864700 8.812500
-7.844900 5.543000
-7.825100 2.280700
-7.805300 0.000000
-7.785500 0.000000
-7.765600 0.000000
-7.745800 2.270800
-7.726000 4.395400
-7.706200 6.440600
-7.686400 9.186600
-7.666500 11.428800
-7.646700 11.352000
-7.626900 8.203300
-7.607100 6.391600
-7.587300 5.569900
-7.567400 5.070900
-7.547600 4.797100
-7.527800 4.455700
-7.508000 4.317800
-7.488200 3.897200
-7.468300 3.324100
-7.448500 2.690000
-7.428700 2.147300
-7.408900 1.828000
-7.389100 1.329900
-7.369200 0.904900
-7.349400 0.564000
-7.329600 0.293700
-7.309800 0.099500
-7.290000 0.000400
-7.270100 0.000000
-7.250300 0.000000
-7.230500 0.000000
-7.210700 0.000000
-7.190900 0.000000
-7.171000 0.000000
-7.151200 0.000000
-7.131400 0.000000
-7.111600 0.000000
-7.091800 0.000000
-7.071900 0.000000
-7.052100 0.000000
-7.032300 0.000000
-7.012500 0.000000
-6.992700 0.000000
-6.972800 0.000000
-6.953000 0.000000
-6.933200 0.000000
-6.913400 0.000000
-6.893600 0.000000
-6.873700 0.000000
-6.853900 0.000000
-6.834100 0.000000
-6.814300 0.000000
-6.794500 0.000000
-6.774600 0.000000
-6.754800 0.000000
-6.735000 0.000000
-6.715200 0.000000
-6.695400 0.000000
-6.675500 0.000000
-6.655700 0.000000
-6.635900 0.000000
-6.616100 0.000000
-6.596300 0.000000
-6.576400 0.000000
-6.556600 0.000000
-6.536800 8.786100
-6.517000 9.506500
-6.497200 11.712800
-6.477300 19.358900
-6.457500 18.829100
-6.437700 43.051900
-6.417900 74.170900
-6.398100 26.774100
-6.378200 24.485100
-6.358400 43.984300
-6.338600 63.852400
-6.318800 14.126000
-6.299000 16.379200
-6.279200 33.263900
-6.259300 9.183200
-6.239500 6.515300
-6.219700 5.918400
-6.199900 6.631900
-6.180100 12.205900
-6.160200 12.207700
-6.140400 12.525400
-6.120600 15.491800
-6.100800 24.761700
-6.081000 39.560500
-6.061100 37.601800
-6.041300 38.349200
-6.021500 29.068100
-6.001700 51.273000
-5.981900 91.088400
-5.962000 70.574200
-5.942200 20.880000
-5.922400 12.539600
-5.902600 9.681700
-5.882800 7.483400
-5.862900 6.363700
-5.843100 5.517300
-5.823300 4.171500
-5.803500 3.702100
-5.783700 3.430500
-5.763800 3.199700
-5.744000 3.029500
-5.724200 2.989500
-5.704400 3.069000
-5.684600 2.609000
-5.664700 1.777300
-5.644900 1.697300
-5.625100 1.801400
-5.605300 1.991200
-5.585500 2.102800
-5.565600 2.217800
-5.545800 2.346100
-5.526000 2.503800
-5.506200 2.888000
-5.486400 3.984000
-5.466500 5.523900
-5.446700 7.751700
-5.426900 5.244300
-5.407100 4.892400
-5.387300 4.552500
-5.367400 4.164900
-5.347600 3.537100
-5.327800 2.892100
-5.308000 2.347000
-5.288200 1.967300
-5.268300 1.617500
-5.248500 1.356800
-5.228700 0.737800
-5.208900 0.245700
-5.189100 0.000000
-5.169200 0.000000
-5.149400 0.000000
-5.129600 0.000000
-5.109800 0.000000
-5.090000 0.000000
-5.070100 0.000000
-5.050300 0.000000
-5.030500 0.000000
-5.010700 0.000000
-4.990900 0.000000
-4.971000 0.000000
-4.951200 0.000000
-4.931400 0.000000
-4.911600 0.000000
-4.891800 0.000000
-4.871900 0.000000
-4.852100 0.000000
-4.832300 0.000000
-4.812500 0.000000
-4.792700 0.000000
-4.772800 0.000000
-4.753000 0.000000
-4.733200 0.000000
-4.713400 0.000000
-4.693600 0.000000
-4.673700 0.000000
-4.653900 0.000000
-4.634100 0.000000
-4.614300 0.000000
-4.594500 0.000000
-4.574700 0.000000
-4.554800 0.000000
-4.535000 0.000000
-4.515200 0.000000
-4.495400 0.000000
-4.475600 0.000000
-4.455700 0.000000
-4.435900 0.000000
-4.416100 0.000000
-4.396300 0.000000
-4.376500 0.000000
-4.356600 0.000000
-4.336800 0.000000
-4.317000 0.000000
-4.297200 0.000000
-4.277400 0.000000
-4.257500 0.000000
-4.237700 0.000000
-4.217900 0.000000
-4.198100 0.000000
-4.178300 0.000000
-4.158400 0.000000
-4.138600 0.000000
-4.118800 0.000000
-4.099000 0.000000
-4.079200 0.000000
-4.059300 0.000000
-4.039500 0.000000
-4.019700 0.000000
-3.999900 0.000000
-3.980100 0.000000
-3.960200 0.000000
-3.940400 0.000000
-3.920600 0.000000
-3.900800 0.000000
-3.881000 0.000000
-3.861100 0.000000
-3.841300 0.000000
-3.821500 0.000000
-3.801700 0.000000
-3.781900 0.000000
-3.762000 0.000000
-3.742200 0.000000
-3.722400 0.000000
-3.702600 0.000000
-3.682800 0.000000
-3.662900 0.000000
-3.643100 0.000000
-3.623300 0.000000
-3.603500 0.000000
-3.583700 0.000000
-3.563800 0.000000
-3.544000 0.000000
-3.524200 0.000000
-3.504400 0.000000
-3.484600 0.000000
-3.464700 0.000000
-3.444900 0.000000
-3.425100 0.000000
-3.405300 0.000000
-3.385500 0.000000
-3.365600 0.000000
-3.345800 0.000000
-3.326000 0.000000
-3.306200 0.000000
-3.286400 0.000000
-3.266500 0.000000
-3.246700 0.000000
-3.226900 0.000000
-3.207100 0.000000
-3.187300 0.000000
-3.167400 0.000000
-3.147600 0.000000
-3.127800 0.000000
-3.108000 0.000000
-3.088200 0.000000
-3.068300 0.000000
-3.048500 0.000000
-3.028700 0.000000
-3.008900 0.000000
-2.989100 0.000000
-2.969300 0.000000
-2.949400 0.000000
-2.929600 0.000000
-2.909800 0.000000
-2.890000 0.000000
-2.870200 0.000000
-2.850300 0.000000
-2.830500 0.000000
-2.810700 0.000000
-2.790900 0.000000
-2.771100 0.000000
-2.751200 0.000000
-2.731400 0.000000
-2.711600 0.000000
-2.691800 0.000000
-2.672000 0.000000
-2.652100 0.000000
-2.632300 0.000000
-2.612500 0.000000
-2.592700 0.000000
-2.572900 0.000000
-2.553000 0.000000
-2.533200 0.000000
-2.513400 0.000000
-2.493600 0.000000
-2.473800 0.000000
-2.453900 0.000000
-2.434100 0.000000
-2.414300 0.000000
-2.394500 0.000000
-2.374700 0.000000
-2.354800 0.000000
-2.335000 0.000000
-2.315200 0.000000
-2.295400 0.000000
-2.275600 0.000000
-2.255700 0.000000
-2.235900 0.000000
-2.216100 0.000000
-2.196300 0.000000
-2.176500 0.000000
-2.156600 0.000000
-2.136800 0.000000
-2.117000 0.000000
-2.097200 0.000000
-2.077400 0.000000
-2.057500 0.000000
-2.037700 0.000000
-2.017900 0.019900
-1.998100 0.057100
-1.978300 0.100900
-1.958400 0.151500
-1.938600 0.202500
-1.918800 0.210500
-1.899000 0.217000
-1.879200 0.228800
-1.859300 0.246600
-1.839500 0.327000
-1.819700 0.485400
-1.799900 0.697800
-1.780100 0.943000
-1.760200 1.347500
-1.740400 1.616300
-1.720600 1.715200
-1.700800 1.929000
-1.681000 2.234500
-1.661100 2.642100
-1.641300 3.388300
-1.621500 5.210600
-1.601700 4.326600
-1.581900 4.087600
-1.562000 4.545300
-1.542200 4.065100
-1.522400 3.355600
-1.502600 3.074200
-1.482800 2.834900
-1.462900 2.616400
-1.443100 2.531600
-1.423300 2.527500
-1.403500 2.547300
-1.383700 2.580900
-1.363800 2.665100
-1.344000 2.857400
-1.324200 3.266900
-1.304400 3.726700
-1.284600 3.529600
-1.264800 3.183000
-1.244900 2.715000
-1.225100 2.314300
-1.205300 1.917700
-1.185500 1.396400
-1.165700 1.324300
-1.145800 1.243400
-1.126000 1.140400
-1.106200 1.033700
-1.086400 0.926800
-1.066600 0.853000
-1.046700 0.793900
-1.026900 0.715100
-1.007100 0.805600
-0.987300 0.548700
-0.967500 0.332700
-0.947600 0.157700
-0.927800 0.037500
-0.908000 0.000000
-0.888200 0.000000
-0.868400 0.000000
-0.848500 0.014600
-0.828700 0.051600
-0.808900 0.141900
-0.789100 0.289500
-0.769300 0.491700
-0.749400 0.731200
-0.729600 1.039700
-0.709800 1.294400
-0.690000 1.539800
-0.670200 1.891000
-0.650300 2.431400
-0.630500 2.974600
-0.610700 3.342100
-0.590900 3.492600
-0.571100 4.447300
-0.551200 4.679800
-0.531400 4.644200
-0.511600 4.421900
-0.491800 4.279700
-0.472000 4.227200
-0.452100 4.238000
-0.432300 4.188100
-0.412500 4.018400
-0.392700 3.857400
-0.372900 3.593900
-0.353000 3.282800
-0.333200 3.080300
-0.313400 3.099600
-0.293600 1.946800
-0.273800 1.608500
-0.253900 1.453300
-0.234100 1.326000
-0.214300 1.230100
-0.194500 1.156200
-0.174700 1.093800
-0.154800 1.032900
-0.135000 0.973600
-0.115200 0.917100
-0.095400 0.863600
-0.075600 0.811600
-0.055700 0.761400
-0.035900 0.711800
-0.016100 0.659000
0.003700 0.602800
0.023500 0.548500
0.043400 0.496000
0.063200 0.450000
0.083000 0.416300
0.102800 0.388300
0.122600 0.361900
0.142500 0.337000
0.162300 0.313400
0.182100 0.291400
0.201900 0.271000
0.221700 0.251900
0.241600 0.234100
0.261400 0.217500
0.281200 0.202000
0.301000 0.187500
0.320800 0.173800
0.340700 0.164000
0.360500 0.156600
0.380300 0.150000
0.400100 0.144000
0.419900 0.138800
0.439700 0.134200
0.459600 0.129600
0.479400 0.125100
0.499200 0.120700
0.519000 0.116400
0.538800 0.112300
0.558700 0.126400
0.578500 0.160300
0.598300 0.245600
0.618100 0.333500
0.637900 0.424100
0.657800 0.517700
0.677600 0.604000
0.697400 0.663300
0.717200 0.721000
0.737000 0.787900
0.756900 0.760900
0.776700 0.712700
0.796500 0.739000
0.816300 0.769400
0.836100 0.804000
0.856000 0.843700
0.875800 0.892000
0.895600 0.949300
0.915400 1.016900
0.935200 1.092500
0.955100 1.199900
0.974900 1.310300
0.994700 1.399500
1.014500 1.472900
1.034300 1.530700
1.054200 1.571300
1.074000 1.747100
1.093800 1.841600
1.113600 1.954500
1.133400 2.340200
1.153300 1.911600
1.173100 1.842300
1.192900 1.790900
1.212700 1.757100
1.232500 1.741000
1.252400 1.882700
1.272200 1.735800
1.292000 1.720500
1.311800 1.706300
1.331600 1.694900
1.351500 1.763200
1.371300 1.718600
1.391100 1.777200
1.410900 1.832800
1.430700 1.823900
1.450600 1.820800
1.470400 1.817200
1.490200 1.795200
1.510000 1.793900
1.529800 1.956000
1.549700 1.946300
1.569500 1.943400
1.589300 1.949600
1.609100 1.987800
1.628900 2.060800
1.648800 2.085200
1.668600 2.059700
1.688400 2.049400
1.708200 2.053600
1.728000 2.074500
1.747900 2.109200
1.767700 2.159600
1.787500 2.262000
1.807300 2.371600
1.827100 2.417500
1.847000 2.467600
1.866800 2.537800
1.886600 2.650000
1.906400 2.766700
1.926200 2.866400
1.946100 2.969000
1.965900 3.068700
1.985700 3.187000
2.005500 3.332500
2.025300 3.471400
2.045200 3.562900
2.065000 3.607700
2.084800 3.636500
2.104600 3.666700
2.124400 3.308200
2.144200 3.153500
2.164100 3.146500
2.183900 3.184800
2.203700 3.222600
2.223500 3.253900
2.243300 3.216300
2.263200 3.154200
2.283000 3.100400
2.302800 3.114000
2.322600 3.149900
2.342400 2.956900
2.362300 2.944800
2.382100 2.959700
2.401900 3.011700
2.421700 3.098200
2.441500 3.404600
2.461400 3.463100
2.481200 3.505100
2.501000 3.572600
2.520800 3.637100
2.540600 3.639600
2.560500 3.640300
2.580300 3.526500
2.600100 3.522600
2.619900 3.496700
2.639700 3.357200
2.659600 3.240700
2.679400 3.118700
2.699200 3.041800
2.719000 3.033200
2.738800 3.093000
2.758700 3.192000
2.778500 3.180100
2.798300 3.165400
2.818100 3.283900
2.837900 3.502900
2.857800 4.251400
2.877600 5.380000
2.897400 3.643000
2.917200 3.624800
2.937000 3.648600
2.956900 3.696600
2.976700 3.746100
2.996500 3.760700
3.016300 3.735200
3.036100 3.686300
3.056000 3.656900
3.075800 3.630800
3.095600 3.634500
3.115400 3.623900
3.135200 3.596300
3.155100 3.620900
3.174900 3.593500
3.194700 3.527400
3.214500 3.435200
3.234300 3.334500
3.254200 3.408600
3.274000 3.971800
3.293800 4.017900
3.313600 3.540100
3.333400 3.561500
3.353300 3.832800
3.373100 4.171100
3.392900 4.495000
3.412700 4.094600
3.432500 4.440600
3.452400 4.613700
3.472200 4.731300
3.492000 4.813200
3.511800 4.863100
3.531600 4.807400
3.551500 4.668700
3.571300 4.378400
3.591100 3.990800
3.610900 3.732800
3.630700 3.550200
3.650600 3.557700
3.670400 3.505600
3.690200 3.384400
3.710000 3.439400
3.729800 3.728600
3.749600 3.523500
3.769500 2.682100
3.789300 1.829600
3.809100 1.588900
3.828900 1.596600
3.848700 1.612200
3.868600 1.626900
3.888400 1.639600
3.908200 1.650400
3.928000 1.658900
3.947800 1.669000
3.967700 1.683900
3.987500 1.701900
4.007300 1.719000
4.027100 1.737100
4.046900 1.756200
4.066800 1.776800
4.086600 1.808000
4.106400 1.848700
4.126200 1.892200
4.146000 1.931700
4.165900 1.961600
4.185700 1.989500
4.205500 2.004700
4.225300 2.006600
4.245100 2.006000
4.265000 1.997500
4.284800 1.904900
4.304600 1.794800
4.324400 1.729100
4.344200 1.670300
4.364100 1.620100
4.383900 1.531900
4.403700 1.376000
4.423500 0.995100
4.443300 0.725000
4.463200 0.584900
4.483000 0.469300
4.502800 0.378400
4.522600 0.372000
4.542400 0.373700
4.562300 0.337000
4.582100 0.311000
4.601900 0.331200
4.621700 0.322000
4.641500 0.261400
4.661400 0.255700
4.681200 0.246900
4.701000 0.234900
4.720800 0.219900
4.740600 0.201700
4.760500 0.180300
4.780300 0.155700
4.800100 0.127500
4.819900 0.129800
4.839700 0.141800
4.859600 0.153800
4.879400 0.165800
4.899200 0.177700
4.919000 0.189900
4.938800 0.202400
4.958700 0.215100
4.978500 0.228500
4.998300 0.244800
5.018100 0.263900
5.037900 0.283400
5.057800 0.303900
5.077600 0.326100
5.097400 0.349600
5.117200 0.374700
5.137000 0.401400
5.156900 0.635400
5.176700 0.805500
5.196500 0.963500
5.216300 1.064200
5.236100 1.127700
5.256000 1.215500
5.275800 1.359500
5.295600 1.528200
5.315400 1.722300
5.335200 1.951100
5.355100 2.177100
5.374900 2.478200
5.394700 2.758000
5.414500 2.943500
5.434300 3.075300
5.454100 3.184100
5.474000 3.670700
5.493800 3.467500
5.513600 3.347700
5.533400 3.595900
5.553200 3.846700
5.573100 3.766900
5.592900 3.810700
5.612700 3.876300
5.632500 3.867400
5.652300 3.770100
5.672200 3.600000
5.692000 3.361500
5.711800 3.064900
5.731600 2.785900
5.751400 2.446400
5.771300 2.139600
5.791100 1.912800
5.810900 1.687600
5.830700 1.425200
5.850500 1.163700
5.870400 0.974800
5.890200 0.813700
5.910000 0.684100
5.929800 0.576700
5.949600 0.496000
5.969500 0.434600
5.989300 0.377800
6.009100 0.325700
6.028900 0.279800
6.048700 0.240400
6.068600 0.207300
6.088400 0.179700
6.108200 0.153500
6.128000 0.128800
6.147800 0.107000
6.167700 0.087000
6.187500 0.072100
6.207300 0.062300
6.227100 0.054300
6.246900 0.046800
6.266800 0.039800
6.286600 0.037400
6.306400 0.039100
6.326200 0.044000
6.346000 0.052100
6.365900 0.063300
6.385700 0.077800
6.405500 0.095300
6.425300 0.115300
6.445100 0.137700
6.465000 0.162700
6.484800 0.186400
6.504600 0.208300
6.524400 0.228600
6.544200 0.247200
6.564100 0.264100
6.583900 0.279800
6.603700 0.294800
6.623500 0.311700
6.643300 0.329300
6.663200 0.346800
6.683000 0.364400
6.702800 0.382000
6.722600 0.399600
6.742400 0.417300
6.762300 0.435700
6.782100 0.455300
6.801900 0.476000
6.821700 0.496000
6.841500 0.514600
6.861400 0.532100
6.881200 0.549300
6.901000 0.570300
6.920800 0.601300
6.940600 0.637800
6.960500 0.675100
6.980300 0.712900
7.000100 0.750500
7.019900 0.786300
7.039700 0.823500
7.059600 0.872600
7.079400 0.918700
7.099200 0.962000
7.119000 1.003100
7.138800 1.042500
7.158600 1.081500
7.178500 1.119100
7.198300 1.155400
7.218100 1.167900
7.237900 1.182900
7.257700 1.214800
7.277600 1.254000
7.297400 1.289900
7.317200 1.322500
7.337000 1.355000
7.356800 1.398500
7.376700 1.475400
7.396500 1.605700
7.416300 1.789900
7.436100 2.030700
7.455900 2.362800
7.475800 2.037900
7.495600 2.014200
7.515400 1.966800
7.535200 1.893100
7.555000 1.922000
7.574900 1.751900
7.594700 1.622000
7.614500 1.468900
7.634300 1.381700
7.654100 1.368500
7.674000 1.347700
7.693800 1.282600
7.713600 1.236900
7.733400 1.214400
7.753200 1.190800
7.773100 1.178600
7.792900 1.154800
7.812700 1.136200
7.832500 1.132500
7.852300 1.138800
7.872200 1.154000
7.892000 1.170900
7.911800 1.189000
7.931600 1.201700
7.951400 1.206800
7.971300 1.206400
7.991100 1.210900
8.010900 1.218400
8.030700 1.239000
8.050500 1.292300
8.070400 1.515400
8.090200 1.656300
8.110000 1.514800
8.129800 1.612900
8.149600 1.693300
8.169500 1.871300
8.189300 1.731000
8.209100 1.571200
8.228900 1.410400
8.248700 1.270800
8.268600 1.184800
8.288400 1.161200
8.308200 1.169400
8.328000 0.893000
8.347800 0.895400
8.367700 0.964800
8.387500 1.035700
8.407300 1.107600
8.427100 1.177400
8.446900 1.244800
8.466800 1.313200
8.486600 1.386500
8.506400 1.476600
8.526200 2.062400
8.546000 2.108600
8.565900 2.285400
8.585700 2.666300
8.605500 2.825200
8.625300 2.976200
8.645100 3.067600
8.665000 3.193300
8.684800 3.602700
8.704600 3.667300
8.724400 3.405800
8.744200 3.243200
8.764000 3.116900
8.783900 3.013200
8.803700 3.065500
8.823500 3.196600
8.843300 3.248900
8.863100 3.337600
8.883000 3.415500
8.902800 3.459700
8.922600 3.484200
8.942400 3.398900
8.962200 3.342000
8.982100 3.204900
9.001900 2.878600
9.021700 2.688100
9.041500 2.520400
9.061300 2.404800
9.081200 2.335500
9.101000 2.310400
9.120800 2.332200
9.140600 2.403400
9.160400 2.433900
9.180300 2.511200
9.200100 2.598400
9.219900 2.722000
9.239700 2.859300
9.259500 2.864600
9.279400 2.953400
9.299200 3.097400
9.319000 3.381900
9.338800 3.733600
9.358600 4.037500
9.378500 4.329100
9.398300 4.223500
9.418100 4.321500
9.437900 4.331800
9.457700 4.199500
9.477600 4.106400
9.497400 3.668900
9.517200 3.358500
9.537000 3.061100
9.556800 2.686100
9.576700 2.446900
9.596500 2.234200
9.616300 2.220600
9.636100 2.004900
9.655900 1.741000
9.675800 1.537300
9.695600 1.430500
9.715400 1.307200
9.735200 1.202800
9.755000 1.187400
9.774900 1.221400
9.794700 1.268400
9.814500 1.311900
9.834300 1.321900
9.854100 1.396300
9.874000 1.533700
9.893800 1.694400
9.913600 1.896500
9.933400 2.036800
9.953200 2.138400
9.973100 2.408900
9.992900 2.728400
10.012700 2.951200
10.032500 3.200100
10.052300 3.427000
10.072200 3.752900
10.092000 3.820500
10.111800 3.816100
10.131600 3.326200
10.151400 3.001400
10.171300 2.784000
10.191100 2.685200
10.210900 2.529000
10.230700 2.409400
10.250500 2.332200
10.270400 2.227000
10.290200 2.126900
10.310000 2.082400
10.329800 2.063300
10.349600 2.047300
10.369500 2.027600
10.389300 2.002300
10.409100 1.971700
10.428900 1.941100
10.448700 1.915600
10.468500 1.896300
10.488400 1.884200
10.508200 1.872300
10.528000 1.896800
10.547800 1.967200
10.567600 2.067900
10.587500 2.186000
10.607300 2.320800
10.627100 2.477500
10.646900 2.593200
10.666700 2.566200
10.686600 2.211600
10.706400 2.131700
10.726200 2.373600
10.746000 2.750300
10.765800 3.505500
10.785700 3.231200
10.805500 3.638000
10.825300 4.427300
10.845100 4.563800
10.864900 4.897900
