set title 'mp-2 - Density of States'
set xlabel 'Energy (eV)'
set ylabel 'DOS (states/eV)'
set grid
set xrange [-10:10]
set yrange [0:2.410]
set xzeroaxis lt -1
set terminal png size 800,600
set output 'mp-2_dos_gnuplot.png'
plot '-' using 1:2 with lines title 'DOS'
-4.667400 0.000000
-4.642300 0.000000
-4.617300 0.000000
-4.592300 0.000000
-4.567300 0.000000
-4.542200 0.000000
-4.517200 0.000000
-4.492200 0.000000
-4.467100 0.000000
-4.442100 0.000000
-4.417100 0.000000
-4.392000 0.000000
-4.367000 0.000000
-4.342000 0.000000
-4.316900 0.000000
-4.291900 0.000000
-4.266900 0.000000
-4.241800 0.000000
-4.216800 0.000000
-4.191800 0.000000
-4.166800 0.000000
-4.141700 0.000000
-4.116700 0.000000
-4.091700 0.000000
-4.066600 0.000000
-4.041600 0.000000
-4.016600 0.000000
-3.991500 0.000000
-3.966500 0.000000
-3.941500 0.000000
-3.916400 0.000000
-3.891400 0.000000
-3.866400 0.000000
-3.841400 0.000000
-3.816300 0.000000
-3.791300 0.000000
-3.766300 0.000000
-3.741200 0.000000
-3.716200 0.000000
-3.691200 0.000000
-3.666100 0.000000
-3.641100 0.000000
-3.616100 0.000000
-3.591000 0.000000
-3.566000 0.000000
-3.541000 0.000000
-3.515900 0.000000
-3.490900 0.000000
-3.465900 0.000000
-3.440900 0.000000
-3.415800 0.000000
-3.390800 0.000000
-3.365800 0.000000
-3.340700 0.000000
-3.315700 0.000000
-3.290700 0.000000
-3.265600 0.000000
-3.240600 0.000000
-3.215600 0.000000
-3.190500 0.000000
-3.165500 0.000000
-3.140500 0.000000
-3.115500 0.000000
-3.090400 0.000000
-3.065400 0.000000
-3.040400 0.000000
-3.015300 0.000000
-2.990300 0.000000
-2.965300 0.000000
-2.940200 0.000000
-2.915200 0.000000
-2.890200 0.000000
-2.865100 0.000000
-2.840100 0.000000
-2.815100 0.000000
-2.790000 0.000000
-2.765000 0.000000
-2.740000 0.000000
-2.715000 0.000000
-2.689900 0.000000
-2.664900 0.000000
-2.639900 0.000000
-2.614800 0.000000
-2.589800 0.000000
-2.564800 0.000000
-2.539700 0.000000
-2.514700 0.000000
-2.489700 0.000000
-2.464600 0.000000
-2.439600 0.000000
-2.414600 0.000000
-2.389500 0.000000
-2.364500 0.002400
-2.339500 0.009000
-2.314500 0.009200
-2.289400 0.011000
-2.264400 0.013000
-2.239400 0.015200
-2.214300 0.016700
-2.189300 0.017400
-2.164300 0.018300
-2.139200 0.019500
-2.114200 0.020800
-2.089200 0.022100
-2.064100 0.023500
-2.039100 0.024600
-2.014100 0.025300
-1.989100 0.026200
-1.964000 0.027100
-1.939000 0.028000
-1.914000 0.028900
-1.888900 0.029900
-1.863900 0.031000
-1.838900 0.032100
-1.813800 0.033200
-1.788800 0.034200
-1.763800 0.034900
-1.738700 0.035700
-1.713700 0.036600
-1.688700 0.037500
-1.663600 0.038400
-1.638600 0.039400
-1.613600 0.040400
-1.588600 0.041400
-1.563500 0.042400
-1.538500 0.043500
-1.513500 0.044600
-1.488400 0.045500
-1.463400 0.046500
-1.438400 0.047400
-1.413300 0.048400
-1.388300 0.049500
-1.363300 0.050600
-1.338200 0.051700
-1.313200 0.052900
-1.288200 0.054000
-1.263200 0.055200
-1.238100 0.056500
-1.213100 0.057800
-1.188100 0.059100
-1.163000 0.060400
-1.138000 0.061700
-1.113000 0.063100
-1.087900 0.064600
-1.062900 0.066100
-1.037900 0.067600
-1.012800 0.069300
-0.987800 0.071100
-0.962800 0.072900
-0.937700 0.074900
-0.912700 0.076900
-0.887700 0.078900
-0.862700 0.081200
-0.837600 0.083500
-0.812600 0.085900
-0.787600 0.088400
-0.762500 0.091200
-0.737500 0.094400
-0.712500 0.098000
-0.687400 0.102100
-0.662400 0.107000
-0.637400 0.153900
-0.612300 0.180400
-0.587300 0.239200
-0.562300 0.320700
-0.537300 0.375400
-0.512200 0.452200
-0.487200 0.534200
-0.462200 0.523700
-0.437100 0.548600
-0.412100 0.580100
-0.387100 0.639700
-0.362000 0.670900
-0.337000 0.711300
-0.312000 0.748800
-0.286900 0.781500
-0.261900 0.812900
-0.236900 0.845700
-0.211800 0.886500
-0.186800 0.928300
-0.161800 0.977100
-0.136800 1.032400
-0.111700 1.075800
-0.086700 1.120000
-0.061700 1.168100
-0.036600 1.210900
-0.011600 1.260700
0.013400 1.341100
0.038500 1.578600
0.063500 1.382300
0.088500 1.273500
0.113600 1.250900
0.138600 1.213900
0.163600 1.168700
0.188600 1.118100
0.213700 1.105000
0.238700 1.089400
0.263700 1.083700
0.288800 1.079600
0.313800 1.084500
0.338800 1.085100
0.363900 1.038900
0.388900 1.007900
0.413900 0.984000
0.439000 0.963000
0.464000 0.935400
0.489000 0.921600
0.514100 0.892500
0.539100 0.858600
0.564100 0.826800
0.589100 0.832000
0.614200 0.728000
0.639200 0.700400
0.664200 0.699700
0.689300 0.674900
0.714300 0.655800
0.739300 0.689700
0.764400 0.788800
0.789400 0.864400
0.814400 0.882400
0.839500 0.881600
0.864500 0.848400
0.889500 0.855800
0.914600 0.866100
0.939600 0.876800
0.964600 0.880200
0.989600 0.898400
1.014700 0.893000
1.039700 0.940100
1.064700 0.874400
1.089800 0.859900
1.114800 0.886400
1.139800 0.882000
1.164900 0.903300
1.189900 0.923000
1.214900 0.853000
1.240000 0.825300
1.265000 0.819800
1.290000 0.842100
1.315000 0.897000
1.340100 0.919900
1.365100 0.949300
1.390100 0.957500
1.415200 0.992300
1.440200 0.996200
1.465200 0.970800
1.490300 0.969700
1.515300 0.973000
1.540300 0.980400
1.565400 0.984100
1.590400 0.984900
1.615400 0.999000
1.640500 0.970200
1.665500 1.012300
1.690500 1.084500
1.715500 1.147400
1.740600 1.272400
1.765600 1.284700
1.790600 1.306800
1.815700 1.348700
1.840700 1.405700
1.865700 1.467500
1.890800 1.583600
1.915800 1.813300
1.940800 1.935000
1.965900 2.190500
1.990900 1.971000
2.015900 1.646000
2.040900 1.519400
2.066000 1.366100
2.091000 1.254300
2.116000 1.190400
2.141100 1.148500
2.166100 1.084100
2.191100 0.977400
2.216200 0.843400
2.241200 0.713500
2.266200 0.691700
2.291300 0.697500
2.316300 0.724900
2.341300 0.850300
2.366400 0.996500
2.391400 1.014100
2.416400 1.042400
2.441400 1.215200
2.466500 0.959700
2.491500 0.909900
2.516500 0.900900
2.541600 0.847700
2.566600 0.840000
2.591600 0.810900
2.616700 0.791600
2.641700 0.809000
2.666700 0.844000
2.691800 0.852400
2.716800 0.898400
2.741800 0.959600
2.766800 1.017800
2.791900 1.105200
2.816900 1.085500
2.841900 1.050200
2.867000 1.063400
2.892000 1.103800
2.917000 1.099500
2.942100 1.096700
2.967100 1.092600
2.992100 1.076000
3.017200 1.105200
3.042200 1.097800
3.067200 1.102100
3.092300 1.265700
3.117300 1.081300
3.142300 1.094500
3.167300 1.105800
3.192400 1.059600
3.217400 1.015700
3.242400 0.990600
3.267500 0.972500
3.292500 0.938400
3.317500 0.923200
3.342600 0.909300
3.367600 0.900800
3.392600 0.898300
3.417700 0.889600
3.442700 0.873800
3.467700 0.869900
3.492700 0.882400
3.517800 0.872700
3.542800 0.866400
3.567800 0.863900
3.592900 0.864600
3.617900 0.868200
3.642900 0.870100
3.668000 0.858000
3.693000 0.862600
3.718000 0.874600
3.743100 0.901700
3.768100 0.919400
3.793100 0.932100
3.818200 0.943700
3.843200 0.960900
3.868200 0.966100
3.893200 0.965500
3.918300 0.979700
3.943300 1.005400
3.968300 1.038600
3.993400 1.074100
4.018400 1.124700
4.043400 1.179500
4.068500 1.275900
4.093500 1.369300
4.118500 1.599200
4.143600 1.691900
4.168600 1.740900
4.193600 1.726800
4.218700 1.701600
4.243700 1.515800
4.268700 1.300600
4.293700 1.169300
4.318800 1.065100
4.343800 0.940200
4.368800 0.803800
4.393900 0.721900
4.418900 0.661000
4.443900 0.628100
4.469000 0.613200
4.494000 0.524600
4.519000 0.283500
4.544100 0.118000
4.569100 0.118300
4.594100 0.118700
4.619100 0.119000
4.644200 0.119200
4.669200 0.119500
4.694200 0.119700
4.719300 0.119800
4.744300 0.119900
4.769300 0.119900
4.794400 0.119900
4.819400 0.119700
4.844400 0.119300
4.869500 0.118700
4.894500 0.117300
4.919500 0.114700
4.944600 0.114400
4.969600 0.114700
4.994600 0.115000
5.019600 0.115400
5.044700 0.115800
5.069700 0.116300
5.094700 0.116800
5.119800 0.117200
5.144800 0.117700
5.169800 0.118200
5.194900 0.118600
5.219900 0.119100
5.244900 0.119500
5.270000 0.120000
5.295000 0.120300
5.320000 0.120700
5.345000 0.121000
5.370100 0.121300
5.395100 0.121500
5.420100 0.121700
5.445200 0.121700
5.470200 0.122000
5.495200 0.121900
5.520300 0.122000
5.545300 0.122400
5.570300 0.123000
5.595400 0.123500
5.620400 0.124100
5.645400 0.124600
5.670500 0.125100
5.695500 0.125500
5.720500 0.125700
5.745500 0.125800
5.770600 0.125900
5.795600 0.125800
5.820600 0.125700
5.845700 0.126000
5.870700 0.126300
5.895700 0.126600
5.920800 0.126900
5.945800 0.127200
5.970800 0.127400
5.995900 0.127600
6.020900 0.127800
6.045900 0.128000
6.070900 0.128100
6.096000 0.128200
6.121000 0.128200
6.146000 0.128000
6.171100 0.127500
6.196100 0.127200
6.221100 0.127000
6.246200 0.126900
6.271200 0.126800
6.296200 0.126700
6.321300 0.126700
6.346300 0.126800
6.371300 0.126900
6.396400 0.127000
6.421400 0.127100
6.446400 0.127200
6.471400 0.127400
6.496500 0.127500
6.521500 0.127700
6.546500 0.127900
6.571600 0.128000
6.596600 0.128100
6.621600 0.128200
6.646700 0.128300
6.671700 0.128400
6.696700 0.128500
6.721800 0.128600
6.746800 0.128700
6.771800 0.128700
6.796900 0.128800
6.821900 0.128700
6.846900 0.128700
6.871900 0.128600
6.897000 0.128400
6.922000 0.128000
6.947000 0.127800
6.972100 0.127600
6.997100 0.127600
7.022100 0.127500
7.047200 0.127500
7.072200 0.127400
7.097200 0.127500
7.122300 0.127500
7.147300 0.127500
7.172300 0.127600
7.197300 0.127700
7.222400 0.127700
7.247400 0.127800
7.272400 0.127900
7.297500 0.128000
7.322500 0.128000
7.347500 0.128100
7.372600 0.128200
7.397600 0.128400
7.422600 0.128400
7.447700 0.128400
7.472700 0.128500
7.497700 0.128500
7.522800 0.128600
7.547800 0.128800
7.572800 0.129000
7.597800 0.129200
7.622900 0.129400
7.647900 0.129700
7.672900 0.129900
7.698000 0.130300
7.723000 0.130600
7.748000 0.130500
7.773100 0.130600
7.798100 0.130700
7.823100 0.130600
7.848200 0.130600
7.873200 0.130500
7.898200 0.130300
7.923200 0.131800
7.948300 0.131200
7.973300 0.128600
7.998300 0.128800
8.023400 0.129100
8.048400 0.129300
8.073400 0.129400
8.098500 0.129400
8.123500 0.129300
8.148500 0.129100
8.173600 0.128900
8.198600 0.128600
8.223600 0.128000
8.248700 0.127300
8.273700 0.126600
8.298700 0.126100
8.323700 0.125600
8.348800 0.125200
8.373800 0.124800
8.398800 0.124400
8.423900 0.124100
8.448900 0.123900
8.473900 0.123700
8.499000 0.123400
8.524000 0.123100
8.549000 0.122800
8.574100 0.122500
8.599100 0.122000
8.624100 0.121300
8.649100 0.120700
8.674200 0.120300
8.699200 0.120000
8.724200 0.119600
8.749300 0.119300
8.774300 0.119100
8.799300 0.118800
8.824400 0.118600
8.849400 0.118100
8.874400 0.116800
8.899500 0.116200
8.924500 0.115700
8.949500 0.115200
8.974600 0.114700
8.999600 0.114300
9.024600 0.113800
9.049600 0.113400
9.074700 0.112900
9.099700 0.112500
9.124700 0.112100
9.149800 0.111700
9.174800 0.111300
9.199800 0.110900
9.224900 0.110400
9.249900 0.110000
9.274900 0.109600
9.300000 0.109100
9.325000 0.108600
9.350000 0.108100
9.375000 0.107600
9.400100 0.107000
9.425100 0.106500
9.450100 0.105800
9.475200 0.105100
9.500200 0.104400
9.525200 0.103800
9.550300 0.103000
9.575300 0.102300
9.600300 0.101300
9.625400 0.100800
9.650400 0.100400
9.675400 0.099900
9.700500 0.099400
9.725500 0.098800
9.750500 0.098300
9.775500 0.097700
9.800600 0.097200
9.825600 0.096600
9.850600 0.096100
9.875700 0.095500
9.900700 0.094900
9.925700 0.094300
9.950800 0.093800
9.975800 0.093100
10.000800 0.092500
10.025900 0.091900
10.050900 0.091200
10.075900 0.090600
10.101000 0.089900
10.126000 0.089200
10.151000 0.088400
10.176000 0.087600
10.201100 0.086800
10.226100 0.085800
10.251100 0.085000
10.276200 0.084300
10.301200 0.083600
10.326200 0.083000
10.351300 0.082400
10.376300 0.081800
10.401300 0.081200
10.426400 0.080600
10.451400 0.080000
10.476400 0.079300
10.501400 0.078500
10.526500 0.077600
10.551500 0.077300
10.576500 0.076800
10.601600 0.076400
10.626600 0.075900
10.651600 0.075200
10.676700 0.074300
10.701700 0.073500
10.726700 0.072700
10.751800 0.071800
10.776800 0.070900
10.801800 0.069900
10.826900 0.068900
10.851900 0.067800
10.876900 0.066600
10.901900 0.065500
10.927000 0.064400
10.952000 0.063400
10.977000 0.062400
11.002100 0.061500
11.027100 0.060600
11.052100 0.059700
11.077200 0.058900
11.102200 0.058100
11.127200 0.057500
11.152300 0.056800
11.177300 0.056000
11.202300 0.055300
11.227300 0.054600
11.252400 0.053700
11.277400 0.056300
11.302400 0.118800
11.327500 0.178400
11.352500 0.208400
11.377500 0.202300
11.402600 0.189500
11.427600 0.202500
11.452600 0.208100
11.477700 0.187100
11.502700 0.180300
11.527700 0.199100
11.552800 0.178400
11.577800 0.180500
11.602800 0.181800
11.627800 0.182000
11.652900 0.180900
11.677900 0.182800
11.702900 0.182400
11.728000 0.174300
11.753000 0.167200
11.778000 0.166800
11.803100 0.168000
11.828100 0.172500
11.853100 0.178600
11.878200 0.183200
11.903200 0.187100
11.928200 0.197600
11.953200 0.181400
11.978300 0.176600
12.003300 0.173100
12.028300 0.170800
12.053400 0.169700
12.078400 0.169800
12.103400 0.170500
12.128500 0.170200
12.153500 0.170200
12.178500 0.170400
12.203600 0.170700
12.228600 0.169900
12.253600 0.166400
12.278700 0.161200
12.303700 0.159500
12.328700 0.159400
12.353700 0.159600
12.378800 0.160200
12.403800 0.161000
12.428800 0.162400
12.453900 0.162000
12.478900 0.159000
12.503900 0.153400
12.529000 0.149400
12.554000 0.149600
12.579000 0.149900
12.604100 0.149900
12.629100 0.150400
12.654100 0.147400
12.679100 0.146400
12.704200 0.145600
12.729200 0.144900
12.754200 0.144300
12.779300 0.143800
12.804300 0.143400
12.829300 0.143000
12.854400 0.142600
12.879400 0.142300
12.904400 0.142000
12.929500 0.141700
12.954500 0.141400
12.979500 0.141200
13.004600 0.140500
13.029600 0.139800
13.054600 0.139500
13.079600 0.139300
13.104700 0.139100
13.129700 0.138900
13.154700 0.138700
13.179800 0.138400
13.204800 0.138200
13.229800 0.138000
13.254900 0.137800
13.279900 0.137500
13.304900 0.137200
13.330000 0.142600
13.355000 0.140300
13.380000 0.138200
13.405100 0.136400
13.430100 0.134900
13.455100 0.134100
13.480100 0.134000
13.505200 0.133900
13.530200 0.133900
13.555200 0.133600
13.580300 0.130900
13.605300 0.130600
13.630300 0.130400
13.655400 0.130400
13.680400 0.130300
13.705400 0.130300
13.730500 0.130300
13.755500 0.130300
13.780500 0.130300
13.805500 0.130400
13.830600 0.130400
13.855600 0.130600
13.880600 0.130700
13.905700 0.130700
13.930700 0.130200
13.955700 0.129900
13.980800 0.129600
14.005800 0.129400
14.030800 0.129300
14.055900 0.129300
14.080900 0.129400
14.105900 0.129500
14.131000 0.129500
14.156000 0.129500
14.181000 0.129600
14.206000 0.129500
14.231100 0.130500
14.256100 0.131400
14.281100 0.131900
14.306200 0.131900
14.331200 0.131500
14.356200 0.130600
14.381300 0.133100
14.406300 0.135500
14.431300 0.137300
14.456400 0.138900
14.481400 0.139100
14.506400 0.145300
14.531400 0.159600
14.556500 0.152800
14.581500 0.165000
14.606500 0.186200
14.631600 0.256000
14.656600 0.206300
14.681600 0.190800
14.706700 0.177300
14.731700 0.171200
14.756700 0.169700
14.781800 0.182800
14.806800 0.200400
14.831800 0.218200
14.856900 0.234600
14.881900 0.244900
14.906900 0.248300
14.931900 0.244200
14.957000 0.237200
14.982000 0.240600
15.007000 0.244300
15.032100 0.243800
15.057100 0.235800
15.082100 0.230000
15.107200 0.228500
15.132200 0.229600
15.157200 0.231400
15.182300 0.234000
15.207300 0.236600
15.232300 0.231300
15.257300 0.226400
15.282400 0.224500
15.307400 0.223000
15.332400 0.226300
15.357500 0.219700
15.382500 0.219300
15.407500 0.219300
15.432600 0.219700
15.457600 0.220300
15.482600 0.221300
15.507700 0.225500
15.532700 0.223100
15.557700 0.220700
15.582800 0.214900
15.607800 0.211600
15.632800 0.211700
15.657800 0.211600
15.682900 0.210600
15.707900 0.208700
15.732900 0.208200
15.758000 0.213500
15.783000 0.215000
15.808000 0.218100
15.833100 0.223300
15.858100 0.224900
15.883100 0.222000
15.908200 0.221600
15.933200 0.220800
15.958200 0.220300
15.983300 0.219000
16.008300 0.220000
16.033300 0.221200
16.058300 0.222300
16.083400 0.225300
16.108400 0.225900
16.133400 0.227100
16.158500 0.227100
16.183500 0.225900
16.208500 0.227200
16.233600 0.225800
16.258600 0.225300
16.283600 0.225100
16.308700 0.225100
16.333700 0.225200
16.358700 0.225600
16.383700 0.226200
16.408800 0.228100
16.433800 0.229800
16.458800 0.230100
16.483900 0.228100
16.508900 0.228500
16.533900 0.230000
16.559000 0.231700
16.584000 0.231000
16.609000 0.231600
16.634100 0.232200
16.659100 0.232900
16.684100 0.233900
16.709200 0.235400
16.734200 0.236100
16.759200 0.235900
16.784200 0.236500
16.809300 0.236000
16.834300 0.234500
16.859300 0.233800
16.884400 0.234600
16.909400 0.236900
16.934400 0.236700
16.959500 0.235300
16.984500 0.234500
17.009500 0.234600
17.034600 0.235100
17.059600 0.235800
17.084600 0.236700
17.109600 0.237700
17.134700 0.238700
17.159700 0.239600
17.184700 0.240700
17.209800 0.241400
17.234800 0.242600
17.259800 0.244800
17.284900 0.247000
17.309900 0.247400
17.334900 0.247900
17.360000 0.249100
17.385000 0.250100
17.410000 0.250300
17.435100 0.250300
17.460100 0.256600
17.485100 0.259500
17.510100 0.258900
17.535200 0.258900
17.560200 0.259500
17.585200 0.261000
17.610300 0.263700
17.635300 0.270500
17.660300 0.265800
17.685400 0.268100
17.710400 0.270800
17.735400 0.265300
17.760500 0.264700
17.785500 0.266800
17.810500 0.266300
17.835500 0.265200
17.860600 0.264900
17.885600 0.265300
17.910600 0.263000
17.935700 0.263400
17.960700 0.264000
17.985700 0.264700
18.010800 0.265700
18.035800 0.266500
18.060800 0.267000
18.085900 0.266900
18.110900 0.266900
18.135900 0.266900
18.161000 0.265500
18.186000 0.263700
18.211000 0.262400
18.236000 0.262500
18.261100 0.261900
18.286100 0.260900
18.311100 0.260200
18.336200 0.259700
18.361200 0.259400
18.386200 0.259200
18.411300 0.259100
18.436300 0.259200
18.461300 0.259000
18.486400 0.258800
18.511400 0.258400
18.536400 0.257700
18.561400 0.257600
18.586500 0.257400
18.611500 0.256900
18.636500 0.256700
18.661600 0.256600
18.686600 0.256600
18.711600 0.256900
18.736700 0.256700
18.761700 0.256900
18.786700 0.257700
18.811800 0.258300
18.836800 0.258600
18.861800 0.258800
18.886900 0.258800
18.911900 0.258900
18.936900 0.258900
18.961900 0.258900
18.987000 0.258500
19.012000 0.258100
19.037000 0.257700
19.062100 0.257200
19.087100 0.256600
19.112100 0.256100
19.137200 0.255600
19.162200 0.255200
19.187200 0.254800
19.212300 0.254600
19.237300 0.254300
19.262300 0.254000
19.287400 0.253700
19.312400 0.253400
19.337400 0.253200
19.362400 0.253100
19.387500 0.252900
19.412500 0.252700
19.437500 0.252600
19.462600 0.252400
19.487600 0.252400
19.512600 0.252500
19.537700 0.252600
19.562700 0.252900
19.587700 0.253100
19.612800 0.253100
19.637800 0.252900
19.662800 0.252700
19.687800 0.252700
19.712900 0.252700
19.737900 0.252500
19.762900 0.252500
19.788000 0.252500
19.813000 0.252300
19.838000 0.252100
19.863100 0.251900
19.888100 0.251800
19.913100 0.251400
19.938200 0.251000
19.963200 0.250700
19.988200 0.250500
20.013300 0.250300
20.038300 0.250100
20.063300 0.249900
20.088300 0.249600
20.113400 0.249300
20.138400 0.249000
20.163400 0.248600
20.188500 0.248400
20.213500 0.248200
20.238500 0.248200
20.263600 0.248200
20.288600 0.248200
20.313600 0.248100
20.338700 0.248000
20.363700 0.248000
20.388700 0.248200
20.413700 0.248500
20.438800 0.248800
20.463800 0.249100
20.488800 0.249500
20.513900 0.249900
20.538900 0.250000
20.563900 0.250000
20.589000 0.250200
20.614000 0.250300
20.639000 0.250500
20.664100 0.250600
20.689100 0.250600
20.714100 0.250700
20.739200 0.250800
20.764200 0.251000
20.789200 0.251000
20.814200 0.251200
20.839300 0.251400
20.864300 0.251700
20.889300 0.251800
20.914400 0.251900
20.939400 0.252000
20.964400 0.252100
20.989500 0.252200
21.014500 0.252200
21.039500 0.252400
21.064600 0.252700
21.089600 0.253100
21.114600 0.253600
21.139600 0.254200
21.164700 0.254700
21.189700 0.255400
21.214700 0.256100
21.239800 0.257100
21.264800 0.258300
21.289800 0.259700
21.314900 0.262300
21.339900 0.262900
21.364900 0.264300
21.390000 0.265800
21.415000 0.267400
21.440000 0.269200
21.465100 0.270800
21.490100 0.272500
21.515100 0.274200
21.540100 0.275900
21.565200 0.281700
21.590200 0.291700
21.615200 0.299100
21.640300 0.303900
21.665300 0.308500
21.690300 0.347500
21.715400 0.391500
21.740400 0.347500
21.765400 0.325800
21.790500 0.301500
21.815500 0.292800
