set title 'mp-1018275 - Density of States'
set xlabel 'Energy (eV)'
set ylabel 'DOS (states/eV)'
set grid
set xrange [-10:10]
set yrange [0:5.936]
set xzeroaxis lt -1
set terminal png size 800,600
set output 'mp-1018275_dos_gnuplot.png'
plot '-' using 1:2 with lines title 'DOS'
-13.892500 0.000000
-13.861400 0.000000
-13.830300 0.000000
-13.799300 0.000000
-13.768200 0.000000
-13.737100 0.000000
-13.706100 0.000000
-13.675000 0.000000
-13.643900 0.000000
-13.612900 0.000000
-13.581800 0.000000
-13.550700 0.000000
-13.519700 0.000000
-13.488600 0.000000
-13.457500 0.000000
-13.426500 0.000000
-13.395400 0.000000
-13.364300 0.000000
-13.333300 0.000000
-13.302200 0.000000
-13.271100 0.000000
-13.240100 0.000000
-13.209000 0.000000
-13.177900 0.000000
-13.146900 0.000000
-13.115800 0.000000
-13.084700 0.000000
-13.053700 0.000000
-13.022600 0.000000
-12.991500 0.000000
-12.960500 0.000000
-12.929400 0.000000
-12.898300 0.000000
-12.867300 0.000000
-12.836200 0.000000
-12.805100 0.000000
-12.774100 0.000000
-12.743000 0.000000
-12.712000 0.000000
-12.680900 0.000000
-12.649800 0.000000
-12.618800 0.000000
-12.587700 0.000000
-12.556600 0.000000
-12.525600 0.000000
-12.494500 0.000000
-12.463400 0.000000
-12.432400 0.000000
-12.401300 0.000000
-12.370200 0.000000
-12.339200 0.000000
-12.308100 0.000000
-12.277000 0.000000
-12.246000 0.000000
-12.214900 0.000000
-12.183800 0.000000
-12.152800 0.000000
-12.121700 0.000000
-12.090600 0.000000
-12.059600 0.000000
-12.028500 0.000000
-11.997400 0.000000
-11.966400 0.000000
-11.935300 0.000000
-11.904200 0.000000
-11.873200 0.000000
-11.842100 0.000000
-11.811000 0.000000
-11.780000 0.000000
-11.748900 0.000000
-11.717800 0.000000
-11.686800 0.000000
-11.655700 0.000000
-11.624600 0.000000
-11.593600 0.000000
-11.562500 0.000000
-11.531500 0.000000
-11.500400 0.000000
-11.469300 0.000000
-11.438300 0.000000
-11.407200 0.000000
-11.376100 0.000000
-11.345100 0.000000
-11.314000 0.000000
-11.282900 0.000000
-11.251900 0.000000
-11.220800 0.000000
-11.189700 0.000000
-11.158700 0.000000
-11.127600 0.000000
-11.096500 0.000000
-11.065500 20.731300
-11.034400 30.628500
-11.003300 19.690000
-10.972300 68.774900
-10.941200 8.654600
-10.910100 63.935200
-10.879100 139.800300
-10.848000 51.289900
-10.816900 0.000000
-10.785900 77.870200
-10.754800 5.131700
-10.723700 10.574100
-10.692700 26.853500
-10.661600 0.000000
-10.630500 0.000000
-10.599500 0.000000
-10.568400 0.000000
-10.537300 0.000000
-10.506300 0.000000
-10.475200 0.000000
-10.444100 0.000000
-10.413100 0.000000
-10.382000 0.000000
-10.351000 0.000000
-10.319900 0.000000
-10.288800 0.000000
-10.257800 0.000000
-10.226700 0.000000
-10.195600 0.000000
-10.164600 0.000000
-10.133500 0.000000
-10.102400 0.000000
-10.071400 0.000000
-10.040300 0.000000
-10.009200 0.000000
-9.978200 0.000000
-9.947100 0.000000
-9.916000 0.000000
-9.885000 0.000000
-9.853900 0.000000
-9.822800 0.000000
-9.791800 0.000000
-9.760700 0.000000
-9.729600 0.000000
-9.698600 0.000000
-9.667500 0.000000
-9.636400 0.000000
-9.605400 0.000000
-9.574300 0.000000
-9.543200 0.000000
-9.512200 0.000000
-9.481100 0.000000
-9.450000 0.000000
-9.419000 0.000000
-9.387900 0.002300
-9.356800 0.039300
-9.325800 0.093600
-9.294700 0.165300
-9.263600 0.252000
-9.232600 0.352500
-9.201500 0.467000
-9.170500 0.610200
-9.139400 0.761000
-9.108300 0.779300
-9.077300 0.823500
-9.046200 0.872200
-9.015100 0.910500
-8.984100 0.929000
-8.953000 0.897100
-8.921900 0.836000
-8.890900 0.859100
-8.859800 0.882200
-8.828700 0.905200
-8.797700 0.928300
-8.766600 0.951400
-8.735500 0.974500
-8.704500 0.997600
-8.673400 1.020700
-8.642300 1.048000
-8.611300 1.079800
-8.580200 1.115400
-8.549100 1.155200
-8.518100 1.200100
-8.487000 1.251500
-8.455900 1.305900
-8.424900 1.363900
-8.393800 1.424800
-8.362700 1.489500
-8.331700 1.559900
-8.300600 1.631200
-8.269500 1.702600
-8.238500 1.774200
-8.207400 1.845900
-8.176300 1.917800
-8.145300 1.989900
-8.114200 2.062100
-8.083200 2.134600
-8.052100 4.999400
-8.021000 5.396200
-7.990000 2.515300
-7.958900 2.064300
-7.927800 1.611500
-7.896800 1.156800
-7.865700 0.700200
-7.834600 0.241700
-7.803600 0.000000
-7.772500 0.000000
-7.741400 0.000000
-7.710400 0.000000
-7.679300 0.000000
-7.648200 0.000000
-7.617200 0.000000
-7.586100 0.000000
-7.555000 0.000000
-7.524000 0.000000
-7.492900 0.000000
-7.461800 0.000000
-7.430800 0.000000
-7.399700 0.000000
-7.368600 0.003000
-7.337600 0.029000
-7.306500 0.057700
-7.275400 0.089100
-7.244400 0.123200
-7.213300 0.159900
-7.182200 0.199400
-7.151200 0.241500
-7.120100 0.286400
-7.089000 0.313100
-7.058000 0.325300
-7.026900 0.338600
-6.995800 0.352900
-6.964800 0.369100
-6.933700 0.388000
-6.902700 0.409600
-6.871600 0.432800
-6.840500 0.456500
-6.809500 0.480700
-6.778400 0.505400
-6.747300 0.535700
-6.716300 0.579400
-6.685200 0.625600
-6.654100 0.673000
-6.623100 0.713600
-6.592000 0.746200
-6.560900 0.770500
-6.529900 0.783500
-6.498800 0.783500
-6.467700 0.769500
-6.436700 0.741600
-6.405600 0.745800
-6.374500 0.757200
-6.343500 0.768200
-6.312400 0.778900
-6.281300 0.789400
-6.250300 0.799500
-6.219200 0.809900
-6.188100 0.821400
-6.157100 0.833800
-6.126000 0.846700
-6.094900 0.860200
-6.063900 0.874200
-6.032800 0.888800
-6.001700 0.904000
-5.970700 0.919800
-5.939600 0.935800
-5.908500 0.952600
-5.877500 0.970700
-5.846400 0.990100
-5.815300 1.010800
-5.784300 1.033000
-5.753200 1.058900
-5.722200 1.089200
-5.691100 1.122100
-5.660000 1.155400
-5.629000 1.189300
-5.597900 1.223700
-5.566800 1.258500
-5.535800 1.297100
-5.504700 1.406500
-5.473600 1.584000
-5.442600 1.990200
-5.411500 2.423700
-5.380400 2.762000
-5.349400 3.030400
-5.318300 1.991900
-5.287200 1.411000
-5.256200 1.185700
-5.225100 1.053100
-5.194000 0.958500
-5.163000 0.849800
-5.131900 0.739700
-5.100800 0.628100
-5.069800 0.515100
-5.038700 0.400700
-5.007600 0.284800
-4.976600 0.167500
-4.945500 0.048700
-4.914400 0.000000
-4.883400 0.000000
-4.852300 0.000000
-4.821200 0.000000
-4.790200 0.000000
-4.759100 0.000000
-4.728000 0.000000
-4.697000 0.000000
-4.665900 0.000000
-4.634800 0.000000
-4.603800 0.000000
-4.572700 0.000000
-4.541700 0.000000
-4.510600 0.000000
-4.479500 0.000000
-4.448500 0.000000
-4.417400 0.000000
-4.386300 0.000000
-4.355300 0.000000
-4.324200 0.000000
-4.293100 0.000000
-4.262100 0.000000
-4.231000 0.000000
-4.199900 0.000000
-4.168900 0.000000
-4.137800 0.000000
-4.106700 0.000000
-4.075700 0.000000
-4.044600 0.000000
-4.013500 0.000000
-3.982500 0.000000
-3.951400 0.000000
-3.920300 0.000000
-3.889300 0.000000
-3.858200 0.000000
-3.827100 0.000000
-3.796100 0.000000
-3.765000 0.000000
-3.733900 0.000000
-3.702900 0.000000
-3.671800 0.000000
-3.640700 0.000000
-3.609700 0.000000
-3.578600 0.000000
-3.547500 0.000000
-3.516500 0.339600
-3.485400 1.409500
-3.454300 2.594800
-3.423300 3.198900
-3.392200 2.817300
-3.361200 2.651300
-3.330100 2.520000
-3.299000 2.881900
-3.268000 3.058600
-3.236900 3.009700
-3.205800 2.627500
-3.174800 2.196600
-3.143700 2.072100
-3.112600 1.941600
-3.081600 1.805300
-3.050500 1.663000
-3.019400 1.519000
-2.988400 1.376600
-2.957300 1.232900
-2.926200 1.128600
-2.895200 1.073400
-2.864100 1.020600
-2.833000 1.004500
-2.802000 0.991600
-2.770900 0.978000
-2.739800 0.963500
-2.708800 0.948300
-2.677700 0.938200
-2.646600 0.949300
-2.615600 0.960000
-2.584500 1.019300
-2.553400 1.115000
-2.522400 1.216600
-2.491300 1.323900
-2.460200 1.437100
-2.429200 1.556200
-2.398100 1.643800
-2.367000 1.555400
-2.336000 1.484900
-2.304900 1.429600
-2.273800 1.389000
-2.242800 1.362700
-2.211700 1.350200
-2.180700 1.342300
-2.149600 1.332800
-2.118500 1.321600
-2.087500 1.308800
-2.056400 1.294300
-2.025300 1.278100
-1.994300 1.260200
-1.963200 1.244600
-1.932100 1.230500
-1.901100 1.215300
-1.870000 1.279900
-1.838900 1.340300
-1.807900 1.347300
-1.776800 1.302800
-1.745700 1.242200
-1.714700 1.171500
-1.683600 1.090600
-1.652500 0.999600
-1.621500 0.914500
-1.590400 0.912500
-1.559300 0.898100
-1.528300 0.858500
-1.497200 0.793700
-1.466100 0.703900
-1.435100 0.641500
-1.404000 0.632200
-1.372900 0.622800
-1.341900 0.613400
-1.310800 0.604100
-1.279700 0.594700
-1.248700 0.585200
-1.217600 0.575800
-1.186500 0.566300
-1.155500 0.556900
-1.124400 0.547300
-1.093300 0.537700
-1.062300 0.529400
-1.031200 0.521200
-1.000200 0.513100
-0.969100 0.505200
-0.938000 0.497400
-0.907000 0.489700
-0.875900 0.482200
-0.844800 0.474900
-0.813800 0.467800
-0.782700 0.460900
-0.751600 0.454300
-0.720600 0.448100
-0.689500 2.370100
-0.658400 2.054000
-0.627400 2.156500
-0.596300 2.376900
-0.565200 2.629700
-0.534200 3.272700
-0.503100 2.440300
-0.472000 2.473200
-0.441000 2.503900
-0.409900 2.535900
-0.378800 2.550900
-0.347800 2.580800
-0.316700 2.633700
-0.285600 2.709400
-0.254600 2.704900
-0.223500 2.591000
-0.192400 2.720300
-0.161400 3.179800
-0.130300 3.936500
-0.099200 3.231500
-0.068200 2.248400
-0.037100 1.703000
-0.006000 1.837200
0.025000 1.968800
0.056100 2.097600
0.087200 2.200500
0.118200 2.177000
0.149300 2.011300
0.180300 2.025500
0.211400 2.043800
0.242500 2.066200
0.273500 2.092700
0.304600 2.123200
0.335700 2.159000
0.366700 2.213900
0.397800 2.266300
0.428900 2.320300
0.459900 2.374300
0.491000 2.413800
0.522100 2.445500
0.553100 2.496900
0.584200 2.547600
0.615300 2.591400
0.646300 2.616500
0.677400 2.609100
0.708500 2.582700
0.739500 2.537400
0.770600 2.493700
0.801700 2.441900
0.832700 2.385500
0.863800 2.324400
0.894900 2.266700
0.925900 2.254600
0.957000 2.230100
0.988100 2.177900
1.019100 2.125500
1.050200 2.072900
1.081300 2.027100
1.112300 1.992400
1.143400 1.966100
1.174500 1.944800
1.205500 1.921900
1.236600 1.893800
1.267700 1.864500
1.298700 1.833900
1.329800 1.803600
1.360800 1.774500
1.391900 1.745500
1.423000 1.716700
1.454000 1.688100
1.485100 1.659700
1.516200 1.634700
1.547200 1.627900
1.578300 1.705300
1.609400 1.723000
1.640400 1.675100
1.671500 1.615900
1.702600 1.534900
1.733600 1.456900
1.764700 1.382100
1.795800 1.310600
1.826800 1.242500
1.857900 1.177500
1.889000 1.115100
1.920000 1.055400
1.951100 1.012600
1.982200 0.989000
2.013200 0.990900
2.044300 1.123100
2.075400 1.355400
2.106400 1.663400
2.137500 1.964300
2.168600 2.258100
2.199600 2.382800
2.230700 2.473900
2.261800 2.556100
2.292800 2.655600
2.323900 2.775400
2.355000 2.734900
2.386000 2.823800
2.417100 2.903800
2.448200 2.995900
2.479200 3.099300
2.510300 3.226800
2.541300 3.508500
2.572400 3.287700
2.603500 3.291000
2.634500 3.127200
2.665600 2.953700
2.696700 2.825700
2.727700 2.746400
2.758800 2.716100
2.789900 2.609500
2.820900 2.353300
2.852000 2.055400
2.883100 1.775300
2.914100 1.517900
2.945200 1.283300
2.976300 1.071500
3.007300 0.929300
3.038400 0.988000
3.069500 1.039500
3.100500 1.058300
3.131600 1.064800
3.162700 1.043200
3.193700 0.970300
3.224800 0.865900
3.255900 0.808700
3.286900 0.742800
3.318000 0.668900
3.349100 0.590300
3.380100 0.509600
3.411200 0.430000
3.442300 0.351800
3.473300 0.274800
3.504400 0.211300
3.535500 0.158900
3.566500 0.114100
3.597600 0.076800
3.628700 0.046100
3.659700 0.021400
3.690800 0.002800
3.721800 0.000000
3.752900 0.000000
3.784000 0.000000
3.815000 0.000000
3.846100 0.000000
3.877200 0.000000
3.908200 0.000000
3.939300 0.000000
3.970400 0.000000
4.001400 0.000000
4.032500 0.000000
4.063600 0.000000
4.094600 0.000000
4.125700 0.000000
4.156800 0.000000
4.187800 0.000000
4.218900 0.000000
4.250000 0.000000
4.281000 0.000000
4.312100 0.000000
4.343200 0.000000
4.374200 0.000000
4.405300 0.000000
4.436400 0.000000
4.467400 0.000000
4.498500 0.000000
4.529600 0.000000
4.560600 0.000000
4.591700 0.000000
4.622800 0.000000
4.653800 0.009800
4.684900 0.033500
4.716000 0.061200
4.747000 0.093000
4.778100 0.128700
4.809200 0.168500
4.840200 0.217000
4.871300 0.274800
4.902300 0.336900
4.933400 0.403100
4.964500 0.473200
4.995500 0.551300
5.026600 0.785300
5.057700 0.951100
5.088700 0.839900
5.119800 0.795100
5.150900 1.036400
5.181900 1.113300
5.213000 1.198200
5.244100 1.290900
5.275100 1.388500
5.306200 1.484500
5.337300 1.592000
5.368300 1.694300
5.399400 1.791300
5.430500 1.882900
5.461500 1.969200
5.492600 2.050100
5.523700 2.126400
5.554700 2.202700
5.585800 2.270700
5.616900 2.336600
5.647900 2.420600
5.679000 2.511400
5.710100 2.600400
5.741100 2.687800
5.772200 2.794300
5.803300 2.894100
5.834300 3.257900
5.865400 3.829300
5.896500 3.311000
5.927500 2.673900
5.958600 2.432700
5.989600 2.257800
6.020700 2.209900
6.051800 2.175900
6.082800 2.262200
6.113900 2.492300
6.145000 2.821900
6.176000 2.797300
6.207100 2.751000
6.238200 2.742800
6.269200 2.737400
6.300300 2.730800
6.331400 2.736900
6.362400 2.743600
6.393500 2.734200
6.424600 2.708400
6.455600 2.667100
6.486700 2.604800
6.517800 2.540900
6.548800 2.474500
6.579900 2.412300
6.611000 2.357900
6.642000 2.365400
6.673100 2.451100
6.704200 2.538100
6.735200 2.623500
6.766300 2.707300
6.797400 2.795900
6.828400 2.261900
6.859500 1.938400
6.890600 1.776400
6.921600 2.048800
6.952700 1.356300
6.983800 1.466600
7.014800 1.582500
7.045900 1.707900
7.077000 1.844000
7.108000 1.990700
7.139100 2.147900
7.170100 2.275100
7.201200 2.391100
7.232300 2.478000
7.263300 2.502500
7.294400 2.451600
7.325500 2.322200
7.356500 2.176100
7.387600 2.008800
7.418700 1.927900
7.449700 1.863300
7.480800 1.820500
7.511900 1.790700
7.542900 1.762200
7.574000 1.752100
7.605100 1.733500
7.636100 1.687900
7.667200 1.628400
7.698300 1.580600
7.729300 2.499500
7.760400 2.692900
7.791500 3.074700
7.822500 3.443200
7.853600 3.733200
7.884700 3.921200
7.915700 4.110500
7.946800 4.548200
7.977900 4.737200
8.008900 4.075000
8.040000 4.074500
8.071100 3.592000
8.102100 3.100700
8.133200 2.889000
8.164300 2.922500
8.195300 2.995000
8.226400 3.046000
8.257500 3.076500
8.288500 3.086300
8.319600 3.088100
8.350600 3.097400
8.381700 3.110200
8.412800 3.105500
8.443800 3.095900
8.474900 3.116500
8.506000 3.176300
8.537000 3.239800
8.568100 2.812400
8.599200 2.688500
8.630200 2.659500
8.661300 2.674000
8.692400 2.729100
8.723400 2.924100
8.754500 3.105200
8.785600 3.227200
8.816600 3.284100
8.847700 3.592200
8.878800 3.534800
8.909800 3.402400
8.940900 3.150500
8.972000 2.734300
9.003000 2.515900
9.034100 2.343200
9.065200 2.207300
9.096200 2.108600
9.127300 2.030200
9.158400 1.968000
9.189400 1.922000
9.220500 1.892000
9.251600 1.881600
9.282600 1.884300
9.313700 1.882800
9.344800 1.877800
9.375800 1.853600
9.406900 1.813600
9.438000 1.758900
9.469000 1.720400
9.500100 1.707200
9.531100 1.679500
9.562200 1.651200
9.593300 1.662600
9.624300 1.861800
9.655400 1.871600
9.686500 1.661800
9.717500 1.423200
9.748600 1.426400
9.779700 1.441200
9.810700 1.467500
9.841800 1.505200
9.872900 1.554500
9.903900 1.583300
9.935000 1.658300
9.966100 1.932100
9.997100 2.031100
10.028200 1.955000
10.059300 1.914100
10.090300 1.891400
10.121400 1.896400
10.152500 1.929200
10.183500 1.978800
10.214600 2.019300
10.245700 2.049800
10.276700 2.070300
10.307800 2.081000
10.338900 2.081800
10.369900 2.322900
10.401000 2.371100
10.432100 2.334600
10.463100 2.258300
10.494200 2.177800
10.525300 2.105600
10.556300 2.035800
10.587400 1.958400
10.618500 1.979800
10.649500 2.030400
10.680600 2.074800
10.711600 2.114200
10.742700 2.170300
10.773800 2.258700
10.804800 2.365900
10.835900 2.486300
10.867000 2.617000
10.898000 2.767000
10.929100 2.932200
10.960200 3.104100
10.991200 3.141600
11.022300 3.252300
11.053400 3.051900
11.084400 2.987900
11.115500 2.909300
11.146600 2.815900
11.177600 2.712900
11.208700 2.604300
11.239800 2.522400
11.270800 2.444700
11.301900 2.363100
11.333000 2.302100
11.364000 2.254000
11.395100 2.210800
11.426200 2.150600
11.457200 2.339300
11.488300 2.300500
11.519400 2.021100
11.550400 1.949100
11.581500 1.911700
11.612600 1.892500
11.643600 1.888100
11.674700 2.077200
11.705800 2.110400
11.736800 1.988900
11.767900 2.029500
11.799000 2.097400
11.830000 2.167600
11.861100 2.242900
11.892100 2.307200
11.923200 2.358600
11.954300 2.395700
11.985300 2.421800
12.016400 2.448400
12.047500 2.474700
12.078500 2.530800
12.109600 2.591400
12.140700 2.380800
12.171700 2.402700
12.202800 2.432900
12.233900 2.471400
12.264900 2.967000
12.296000 2.814100
12.327100 2.394100
12.358100 2.403900
12.389200 2.355800
12.420300 2.207400
12.451300 2.055500
12.482400 1.927300
12.513500 1.822100
12.544500 1.811500
12.575600 1.826700
12.606700 1.853200
12.637700 1.888800
12.668800 1.930400
12.699900 1.976700
12.730900 2.025600
12.762000 2.064300
12.793100 2.090600
12.824100 2.116500
12.855200 2.143500
12.886300 2.168200
12.917300 2.188100
12.948400 2.185000
12.979500 2.146000
13.010500 2.153800
13.041600 2.184200
13.072600 2.228900
13.103700 2.277300
13.134800 2.326200
13.165800 2.377000
13.196900 2.433600
13.228000 2.517600
13.259000 2.587600
13.290100 2.658700
13.321200 2.721600
13.352200 2.772700
13.383300 2.811800
13.414400 2.842100
13.445400 2.861600
13.476500 2.871600
13.507600 2.871400
13.538600 2.858900
13.569700 2.833900
13.600800 2.796800
13.631800 2.981100
13.662900 2.960100
13.694000 2.706700
13.725000 2.548800
13.756100 2.488700
13.787200 2.512700
13.818200 2.619100
13.849300 2.645900
13.880400 2.637000
13.911400 2.645400
13.942500 2.666600
13.973600 2.690500
14.004600 2.712500
14.035700 2.733900
14.066800 2.752200
14.097800 2.764800
14.128900 2.758500
14.160000 2.717800
14.191000 2.672300
14.222100 2.630200
14.253100 2.589300
14.284200 2.550400
14.315300 2.513700
14.346300 2.479100
14.377400 2.446700
14.408500 2.420700
14.439500 2.430700
14.470600 2.433900
14.501700 2.393000
14.532700 2.318600
14.563800 2.239900
14.594900 2.210600
14.625900 2.172300
14.657000 2.157500
14.688100 2.164900
14.719100 2.197700
14.750200 2.260700
14.781300 2.351600
14.812300 2.472800
14.843400 2.655400
14.874500 2.943400
14.905500 3.780900
14.936600 3.839900
14.967700 3.876600
14.998700 3.894800
15.029800 3.427900
15.060900 3.435900
15.091900 3.366600
15.123000 3.325800
15.154100 3.212300
15.185100 3.042700
15.216200 2.820900
15.247300 2.600700
15.278300 2.525400
15.309400 2.515100
15.340500 2.569900
15.371500 2.836700
15.402600 3.094100
15.433600 3.416600
15.464700 3.715800
15.495800 3.737900
15.526800 3.028700
15.557900 2.735000
15.589000 2.602200
15.620000 2.511500
15.651100 2.419600
15.682200 2.497300
15.713200 2.486300
15.744300 2.650800
15.775400 2.483100
15.806400 2.393400
15.837500 2.380800
15.868600 2.443900
15.899600 2.504500
15.930700 2.416800
15.961800 2.283900
15.992800 2.444900
16.023900 2.435300
16.055000 2.423300
16.086000 2.412800
16.117100 2.411100
16.148200 2.409400
16.179200 2.407000
16.210300 2.420500
16.241400 2.428900
16.272400 2.428500
16.303500 2.429500
16.334600 2.434600
16.365600 2.446100
16.396700 2.850000
16.427800 3.122600
16.458800 3.217900
16.489900 3.136400
16.521000 3.217800
16.552000 3.228400
16.583100 3.181000
16.614100 3.110300
16.645200 3.098700
16.676300 3.023800
16.707300 2.895700
16.738400 2.725700
16.769500 2.662100
16.800500 2.734700
16.831600 2.791000
16.862700 2.797000
16.893700 2.757900
16.924800 2.725200
16.955900 2.864000
16.986900 2.968300
17.018000 3.114100
17.049100 3.212500
17.080100 3.219100
17.111200 3.128800
17.142300 3.019600
17.173300 2.928700
17.204400 2.858000
17.235500 2.806300
17.266500 2.763700
17.297600 2.922000
17.328700 3.092700
17.359700 3.197100
17.390800 3.255200
17.421900 3.274900
17.452900 3.261000
17.484000 3.291300
17.515100 3.340500
17.546100 3.356500
17.577200 3.339000
17.608300 3.299900
17.639300 3.242300
17.670400 3.248900
17.701500 3.274300
17.732500 3.086000
17.763600 2.968800
17.794600 2.879900
17.825700 2.814500
17.856800 2.756700
17.887800 2.705200
17.918900 2.659200
17.950000 2.613500
17.981000 2.576200
18.012100 2.417100
18.043200 2.395800
18.074200 2.387200
18.105300 2.393600
18.136400 2.413100
18.167400 2.431000
18.198500 2.607100
18.229600 2.920500
18.260600 3.040800
18.291700 3.111000
18.322800 3.131100
18.353800 3.101100
18.384900 3.025100
18.416000 2.874300
18.447000 2.632000
18.478100 2.353200
18.509200 2.186100
18.540200 2.094000
18.571300 2.058200
18.602400 2.046700
