set title 'mp-124 - Density of States'
set xlabel 'Energy (eV)'
set ylabel 'DOS (states/eV)'
set grid
set xrange [-10:10]
set yrange [0:7.434]
set xzeroaxis lt -1
set terminal png size 800,600
set output 'mp-124_dos_gnuplot.png'
plot '-' using 1:2 with lines title 'DOS'
-6.660800 0.000000
-6.635100 0.000000
-6.609500 0.000000
-6.583800 0.000000
-6.558200 0.000000
-6.532500 0.000000
-6.506900 0.000000
-6.481200 0.000000
-6.455600 0.000000
-6.429900 0.000000
-6.404200 0.000000
-6.378600 0.000000
-6.352900 0.000000
-6.327300 0.000000
-6.301600 0.000000
-6.276000 0.000000
-6.250300 0.000000
-6.224600 0.000000
-6.199000 0.000000
-6.173300 0.000000
-6.147700 0.000000
-6.122000 0.000000
-6.096400 0.000000
-6.070700 0.000000
-6.045100 0.000000
-6.019400 0.000000
-5.993700 0.000000
-5.968100 0.000000
-5.942400 0.000000
-5.916800 0.000000
-5.891100 0.000000
-5.865500 0.000000
-5.839800 0.000000
-5.814100 0.000000
-5.788500 0.000000
-5.762800 0.000000
-5.737200 0.000000
-5.711500 0.000000
-5.685900 0.000000
-5.660200 0.000000
-5.634600 0.000000
-5.608900 0.000000
-5.583200 0.000000
-5.557600 0.000000
-5.531900 0.000000
-5.506300 0.000000
-5.480600 0.000000
-5.455000 0.000000
-5.429300 0.000000
-5.403600 0.000000
-5.378000 0.000000
-5.352300 0.000000
-5.326700 0.000000
-5.301000 0.000000
-5.275400 0.000000
-5.249700 0.000000
-5.224100 0.000000
-5.198400 0.000000
-5.172700 0.000000
-5.147100 0.000000
-5.121400 0.000000
-5.095800 0.000000
-5.070100 0.000000
-5.044500 0.000000
-5.018800 0.000000
-4.993100 0.000000
-4.967500 0.000000
-4.941800 0.000000
-4.916200 0.000000
-4.890500 0.000000
-4.864900 0.000000
-4.839200 0.000000
-4.813600 0.000000
-4.787900 0.000000
-4.762200 0.000000
-4.736600 0.000000
-4.710900 0.000000
-4.685300 0.000000
-4.659600 0.000000
-4.634000 0.000000
-4.608300 0.000000
-4.582600 0.000000
-4.557000 0.000000
-4.531300 0.000000
-4.505700 0.000000
-4.480000 0.000000
-4.454400 0.000000
-4.428700 0.000000
-4.403100 0.000000
-4.377400 0.000000
-4.351700 0.000000
-4.326100 0.000000
-4.300400 0.006300
-4.274800 0.023100
-4.249100 0.023300
-4.223500 0.028100
-4.197800 0.033300
-4.172100 0.038800
-4.146500 0.042700
-4.120800 0.044200
-4.095200 0.046900
-4.069500 0.050100
-4.043900 0.053500
-4.018200 0.056900
-3.992600 0.060500
-3.966900 0.063000
-3.941200 0.065300
-3.915600 0.067800
-3.889900 0.070200
-3.864300 0.072700
-3.838600 0.075400
-3.813000 0.078300
-3.787300 0.081300
-3.761700 0.084400
-3.736000 0.087400
-3.710300 0.089900
-3.684700 0.092200
-3.659000 0.094900
-3.633400 0.097700
-3.607700 0.100700
-3.582100 0.103600
-3.556400 0.106700
-3.530700 0.110000
-3.505100 0.113400
-3.479400 0.116900
-3.453800 0.120400
-3.428100 0.123900
-3.402500 0.127600
-3.376800 0.131400
-3.351200 0.135500
-3.325500 0.140000
-3.299800 0.144800
-3.274200 0.149800
-3.248500 0.155000
-3.222900 0.160600
-3.197200 0.166600
-3.171600 0.173000
-3.145900 0.179700
-3.120200 0.186800
-3.094600 0.195100
-3.068900 0.240300
-3.043300 0.377400
-3.017600 0.594600
-2.992000 0.816200
-2.966300 1.015600
-2.940700 1.285500
-2.915000 1.621700
-2.889300 1.911200
-2.863700 1.999500
-2.838000 2.132500
-2.812400 2.251500
-2.786700 2.374000
-2.761100 2.529100
-2.735400 2.668400
-2.709700 2.829200
-2.684100 3.001400
-2.658400 3.218600
-2.632800 3.550900
-2.607100 4.051700
-2.581500 4.720300
-2.555800 4.447300
-2.530200 4.257900
-2.504500 3.807900
-2.478800 3.541100
-2.453200 3.413700
-2.427500 3.323000
-2.401900 3.259600
-2.376200 3.266700
-2.350600 3.151500
-2.324900 2.994300
-2.299200 2.821800
-2.273600 2.704000
-2.247900 2.621900
-2.222300 2.414300
-2.196600 2.185300
-2.171000 2.058500
-2.145300 2.018200
-2.119700 2.000600
-2.094000 2.290500
-2.068300 2.561900
-2.042700 2.458400
-2.017000 2.612500
-1.991400 2.750300
-1.965700 3.015400
-1.940100 3.032800
-1.914400 3.028300
-1.888700 3.028200
-1.863100 3.060200
-1.837400 3.005300
-1.811800 2.695600
-1.786100 2.524200
-1.760500 2.456400
-1.734800 3.195100
-1.709200 2.894000
-1.683500 2.885800
-1.657800 2.814800
-1.632200 2.768000
-1.606500 2.614900
-1.580900 2.775900
-1.555200 3.057300
-1.529600 3.333300
-1.503900 3.521100
-1.478200 3.663600
-1.452600 4.035000
-1.426900 4.326700
-1.401300 5.138100
-1.375600 6.013600
-1.350000 6.757900
-1.324300 4.609400
-1.298700 4.002100
-1.273000 3.751800
-1.247300 3.518900
-1.221700 3.412400
-1.196000 3.234000
-1.170400 2.822800
-1.144700 2.394500
-1.119100 2.031500
-1.093400 2.024500
-1.067700 2.312400
-1.042100 2.844600
-1.016400 3.748600
-0.990800 3.629900
-0.965100 3.030100
-0.939500 2.957100
-0.913800 2.925900
-0.888200 3.007800
-0.862500 3.228000
-0.836800 3.455200
-0.811200 3.610900
-0.785500 3.601100
-0.759900 3.585100
-0.734200 3.396800
-0.708600 3.444100
-0.682900 3.308900
-0.657200 3.733600
-0.631600 4.175200
-0.605900 3.617100
-0.580300 3.377700
-0.554600 3.234100
-0.529000 3.143800
-0.503300 3.022500
-0.477700 2.958600
-0.452000 2.944100
-0.426300 2.897000
-0.400700 2.884500
-0.375000 2.862500
-0.349400 2.746200
-0.323700 2.741900
-0.298100 2.777900
-0.272400 2.874300
-0.246800 2.930800
-0.221100 3.014900
-0.195400 3.001000
-0.169800 3.072200
-0.144100 3.149500
-0.118500 3.303800
-0.092800 3.341900
-0.067200 3.569500
-0.041500 3.955800
-0.015800 4.435300
0.009800 5.590900
0.035500 5.390000
0.061100 6.194500
0.086800 4.019100
0.112400 3.370600
0.138100 2.684600
0.163700 2.271800
0.189400 2.014300
0.215100 1.918000
0.240700 1.463200
0.266400 0.233700
0.292000 0.222100
0.317700 0.220000
0.343300 0.219000
0.369000 0.219000
0.394700 0.219400
0.420300 0.220000
0.446000 0.220900
0.471600 0.221800
0.497300 0.222800
0.522900 0.223800
0.548600 0.224800
0.574200 0.225900
0.599900 0.227000
0.625600 0.228100
0.651200 0.229200
0.676900 0.230300
0.702500 0.229800
0.728200 0.228000
0.753800 0.224300
0.779500 0.220000
0.805200 0.218300
0.830800 0.217500
0.856500 0.217100
0.882100 0.217100
0.907800 0.217300
0.933400 0.217600
0.959100 0.218100
0.984700 0.218700
1.010400 0.219400
1.036100 0.220000
1.061700 0.220800
1.087400 0.221500
1.113000 0.222300
1.138700 0.223100
1.164300 0.224000
1.190000 0.224800
1.215700 0.225700
1.241300 0.226600
1.267000 0.227500
1.292600 0.228400
1.318300 0.229300
1.343900 0.230300
1.369600 0.227500
1.395200 0.226000
1.420900 0.225400
1.446600 0.225100
1.472200 0.225100
1.497900 0.225300
1.523500 0.225600
1.549200 0.226000
1.574800 0.226400
1.600500 0.227000
1.626200 0.227600
1.651800 0.228200
1.677500 0.228900
1.703100 0.229700
1.728800 0.230400
1.754400 0.231200
1.780100 0.232000
1.805700 0.232900
1.831400 0.233800
1.857100 0.234600
1.882700 0.235500
1.908400 0.236400
1.934000 0.237400
1.959700 0.238300
1.985300 0.239200
2.011000 0.240200
2.036700 0.241200
2.062300 0.242200
2.088000 0.241900
2.113600 0.241700
2.139300 0.241700
2.164900 0.241900
2.190600 0.242200
2.216200 0.242700
2.241900 0.243300
2.267600 0.243900
2.293200 0.244700
2.318900 0.245500
2.344500 0.246400
2.370200 0.247300
2.395800 0.248300
2.421500 0.249400
2.447200 0.250600
2.472800 0.251800
2.498500 0.253200
2.524100 0.254600
2.549800 0.256000
2.575400 0.257600
2.601100 0.259200
2.626700 0.260800
2.652400 0.262600
2.678100 0.264900
2.703700 0.268900
2.729400 0.272300
2.755000 0.275000
2.780700 0.277100
2.806300 0.278600
2.832000 0.279500
2.857700 0.279700
2.883300 0.279100
2.909000 0.277400
2.934600 0.276100
2.960300 0.277400
2.985900 0.278600
3.011600 0.279700
3.037200 0.280800
3.062900 0.281500
3.088600 0.281400
3.114200 0.280400
3.139900 0.279300
3.165500 0.278500
3.191200 0.277800
3.216800 0.277300
3.242500 0.277000
3.268100 0.276800
3.293800 0.276800
3.319500 0.277000
3.345100 0.277100
3.370800 0.277000
3.396400 0.276800
3.422100 0.276700
3.447700 0.276500
3.473400 0.276400
3.499100 0.276200
3.524700 0.276100
3.550400 0.276000
3.576000 0.275800
3.601700 0.275600
3.627300 0.275500
3.653000 0.275300
3.678600 0.275200
3.704300 0.275200
3.730000 0.274800
3.755600 0.274000
3.781300 0.273900
3.806900 0.273900
3.832600 0.273900
3.858200 0.273900
3.883900 0.273700
3.909600 0.273500
3.935200 0.273200
3.960900 0.272900
3.986500 0.272500
4.012200 0.272100
4.037800 0.271600
4.063500 0.270900
4.089100 0.270200
4.114800 0.269500
4.140500 0.269000
4.166100 0.268500
4.191800 0.268200
4.217400 0.267900
4.243100 0.267700
4.268700 0.267500
4.294400 0.267500
4.320100 0.267400
4.345700 0.267400
4.371400 0.267400
4.397000 0.267500
4.422700 0.267700
4.448300 0.267900
4.474000 0.268100
4.499600 0.268500
4.525300 0.268800
4.551000 0.269300
4.576600 0.269900
4.602300 0.271100
4.627900 0.272100
4.653600 0.272900
4.679200 0.273600
4.704900 0.274200
4.730600 0.274400
4.756200 0.274400
4.781900 0.284200
4.807500 0.274700
4.833200 0.269200
4.858800 0.269500
4.884500 0.269700
4.910100 0.269700
4.935800 0.269500
4.961500 0.267600
4.987100 0.265000
5.012800 0.262600
5.038400 0.260400
5.064100 0.258300
5.089700 0.256500
5.115400 0.254800
5.141100 0.253300
5.166700 0.252000
5.192400 0.252000
5.218000 0.252400
5.243700 0.251000
5.269300 0.248000
5.295000 0.246700
5.320600 0.246300
5.346300 0.245700
5.372000 0.245000
5.397600 0.244200
5.423300 0.243200
5.448900 0.240700
5.474600 0.237100
5.500200 0.234400
5.525900 0.232700
5.551600 0.231500
5.577200 0.230300
5.602900 0.229200
5.628500 0.228200
5.654200 0.227200
5.679800 0.226300
5.705500 0.225000
5.731100 0.222600
5.756800 0.221200
5.782500 0.220100
5.808100 0.218600
5.833800 0.217300
5.859400 0.216100
5.885100 0.214500
5.910700 0.212000
5.936400 0.209100
5.962100 0.205900
5.987700 0.203200
6.013400 0.201300
6.039000 0.200000
6.064700 0.198800
6.090300 0.197800
6.116000 0.197000
6.141600 0.192300
6.167300 0.191000
6.193000 0.189600
6.218600 0.188200
6.244300 0.186700
6.269900 0.185100
6.295600 0.183500
6.321200 0.181800
6.346900 0.179900
6.372600 0.178000
6.398200 0.178100
6.423900 0.199900
6.449500 0.225700
6.475200 0.257900
6.500800 0.299400
6.526500 0.307700
6.552100 0.286100
6.577800 0.303100
6.603500 0.329000
6.629100 0.358400
6.654800 0.327000
6.680400 0.355700
6.706100 0.333500
6.731700 0.323400
6.757400 0.327200
6.783000 0.335300
6.808700 0.344500
6.834400 0.353200
6.860000 0.364500
6.885700 0.389800
6.911300 0.386700
6.937000 0.349500
6.962600 0.348300
6.988300 0.347100
7.014000 0.347200
7.039600 0.347700
7.065300 0.348500
7.090900 0.336500
7.116600 0.334600
7.142200 0.332900
7.167900 0.330500
7.193500 0.329100
7.219200 0.329100
7.244900 0.331100
7.270500 0.335000
7.296200 0.336400
7.321800 0.332400
7.347500 0.319200
7.373100 0.313400
7.398800 0.312500
7.424500 0.331400
7.450100 0.321400
7.475800 0.296700
7.501400 0.297100
7.527100 0.297400
7.552700 0.297600
7.578400 0.297600
7.604000 0.298200
7.629700 0.298300
7.655400 0.297900
7.681000 0.297500
7.706700 0.297500
7.732300 0.297600
7.758000 0.298100
7.783600 0.304800
7.809300 0.307300
7.835000 0.303200
7.860600 0.295100
7.886300 0.291700
7.911900 0.360600
7.937600 0.350400
7.963200 0.339800
7.988900 0.328500
8.014500 0.316800
8.040200 0.308300
8.065900 0.304700
8.091500 0.303600
8.117200 0.304400
8.142800 0.306800
8.168500 0.310200
8.194100 0.314500
8.219800 0.336000
8.245500 0.320000
8.271100 0.306900
8.296800 0.300100
8.322400 0.298000
8.348100 0.296100
8.373700 0.294400
8.399400 0.293100
8.425000 0.292100
8.450700 0.291300
8.476400 0.290900
8.502000 0.290900
8.527700 0.291700
8.553300 0.292600
8.579000 0.293800
8.604600 0.292700
8.630300 0.294300
8.656000 0.296100
8.681600 0.298100
8.707300 0.308500
8.732900 0.312400
8.758600 0.310500
8.784200 0.303000
8.809900 0.282900
8.835500 0.279400
8.861200 0.278500
8.886900 0.277700
8.912500 0.277000
8.938200 0.276600
8.963800 0.277000
8.989500 0.278400
9.015100 0.280600
9.040800 0.282700
9.066500 0.284000
9.092100 0.284900
9.117800 0.285200
9.143400 0.284600
9.169100 0.284400
9.194700 0.284500
9.220400 0.285000
9.246000 0.285700
9.271700 0.286500
9.297400 0.287200
9.323000 0.288100
9.348700 0.289600
9.374300 0.290200
9.400000 0.293500
9.425600 0.310400
9.451300 0.342500
9.477000 0.388100
9.502600 0.429300
9.528300 0.452300
9.553900 0.457700
9.579600 0.447400
9.605200 0.427600
9.630900 0.402200
9.656500 0.391000
9.682200 0.383400
9.707900 0.368500
9.733500 0.353400
9.759200 0.341500
9.784800 0.331000
9.810500 0.322100
9.836100 0.315700
9.861800 0.313800
9.887500 0.317600
9.913100 0.329400
9.938800 0.340800
9.964400 0.422500
9.990100 0.385200
10.015700 0.399900
10.041400 0.409000
10.067000 0.419900
10.092700 0.429900
10.118400 0.435600
10.144000 0.435500
10.169700 0.434200
10.195300 0.430800
10.221000 0.430500
10.246600 0.435100
10.272300 0.438100
10.297900 0.438200
10.323600 0.435600
10.349300 0.440200
10.374900 0.445900
10.400600 0.443300
10.426200 0.438900
10.451900 0.442200
10.477500 0.445900
10.503200 0.443500
10.528900 0.434900
10.554500 0.434700
10.580200 0.434900
10.605800 0.425600
10.631500 0.426100
10.657100 0.428100
10.682800 0.436400
10.708400 0.437700
10.734100 0.439900
10.759800 0.436100
10.785400 0.437900
10.811100 0.428400
10.836700 0.428700
10.862400 0.429200
10.888000 0.477500
10.913700 0.423300
10.939400 0.423500
10.965000 0.421600
10.990700 0.414200
11.016300 0.413900
11.042000 0.414000
11.067600 0.414500
11.093300 0.414600
11.118900 0.414400
11.144600 0.434400
11.170300 0.465500
11.195900 0.429700
11.221600 0.423500
11.247200 0.424000
11.272900 0.425400
11.298500 0.427100
11.324200 0.429200
11.349900 0.430100
11.375500 0.426300
11.401200 0.430400
11.426800 0.432600
11.452500 0.434300
11.478100 0.437200
11.503800 0.442300
11.529400 0.445400
11.555100 0.442600
11.580800 0.437900
11.606400 0.437800
11.632100 0.443100
11.657700 0.446700
11.683400 0.448600
11.709000 0.448500
11.734700 0.460200
11.760400 0.460800
11.786000 0.458100
11.811700 0.457800
11.837300 0.457800
11.863000 0.450500
11.888600 0.450200
11.914300 0.450300
11.939900 0.450900
11.965600 0.455200
11.991300 0.458300
12.016900 0.461500
12.042600 0.463700
12.068200 0.459900
12.093900 0.462500
12.119500 0.464800
12.145200 0.466700
12.170900 0.468200
12.196500 0.468600
12.222200 0.467700
12.247800 0.468300
12.273500 0.470600
12.299100 0.473700
12.324800 0.471900
12.350400 0.466300
12.376100 0.465800
12.401800 0.462100
12.427400 0.462700
12.453100 0.463800
12.478700 0.459200
12.504400 0.461600
12.530000 0.466500
12.555700 0.470900
12.581400 0.474800
12.607000 0.476900
12.632700 0.482400
12.658300 0.479900
12.684000 0.479800
12.709600 0.480400
12.735300 0.481600
12.760900 0.484800
12.786600 0.486500
12.812300 0.488300
12.837900 0.490200
12.863600 0.491500
12.889200 0.491900
12.914900 0.492000
12.940500 0.494000
12.966200 0.499800
12.991900 0.501100
13.017500 0.499900
13.043200 0.496800
13.068800 0.496300
13.094500 0.496400
13.120100 0.496800
13.145800 0.497700
13.171400 0.499000
13.197100 0.500600
13.222800 0.502700
13.248400 0.504500
13.274100 0.508800
13.299700 0.518200
13.325400 0.522700
13.351000 0.523000
13.376700 0.528500
13.402300 0.537600
13.428000 0.538400
13.453700 0.540500
13.479300 0.543100
13.505000 0.545700
13.530600 0.550800
13.556300 0.556100
13.581900 0.562400
13.607600 0.569200
13.633300 0.565000
13.658900 0.579100
13.684600 0.563500
13.710200 0.565600
13.735900 0.568600
13.761500 0.572500
13.787200 0.572200
13.812800 0.568000
13.838500 0.561200
13.864200 0.556800
13.889800 0.554800
13.915500 0.555000
13.941100 0.555600
13.966800 0.556700
13.992400 0.557000
14.018100 0.554900
14.043800 0.553500
14.069400 0.552600
14.095100 0.552600
14.120700 0.551700
14.146400 0.550600
14.172000 0.551000
14.197700 0.550000
14.223300 0.548400
14.249000 0.547500
14.274700 0.546100
14.300300 0.545200
14.326000 0.544600
14.351600 0.543500
14.377300 0.540000
14.402900 0.538800
14.428600 0.538600
14.454300 0.538400
14.479900 0.537600
14.505600 0.536400
14.531200 0.536200
14.556900 0.540600
14.582500 0.538100
14.608200 0.535700
14.633800 0.533600
14.659500 0.532100
14.685200 0.530400
14.710800 0.529100
14.736500 0.528200
14.762100 0.527600
14.787800 0.529400
14.813400 0.529500
14.839100 0.528800
14.864800 0.528200
14.890400 0.527900
14.916100 0.527600
14.941700 0.527200
14.967400 0.526500
14.993000 0.525900
15.018700 0.525200
15.044300 0.524700
15.070000 0.524100
15.095700 0.523100
15.121300 0.522400
15.147000 0.521700
15.172600 0.520500
15.198300 0.519400
15.223900 0.518300
15.249600 0.517000
15.275300 0.514600
15.300900 0.512400
15.326600 0.510500
15.352200 0.508800
15.377900 0.507300
15.403500 0.506100
15.429200 0.505000
15.454800 0.504200
15.480500 0.503300
15.506200 0.502500
15.531800 0.501800
15.557500 0.501300
15.583100 0.500400
15.608800 0.499500
15.634400 0.498700
15.660100 0.498000
15.685800 0.497400
15.711400 0.496800
15.737100 0.496400
15.762700 0.496000
15.788400 0.495700
15.814000 0.495300
15.839700 0.494500
15.865300 0.493800
15.891000 0.493100
15.916700 0.492300
15.942300 0.491400
15.968000 0.490300
15.993600 0.487900
16.019300 0.485300
16.044900 0.484300
16.070600 0.483400
16.096300 0.482500
16.121900 0.481300
16.147600 0.480100
16.173200 0.478600
16.198900 0.476900
16.224500 0.475400
16.250200 0.474000
16.275800 0.472700
16.301500 0.471500
16.327200 0.470400
16.352800 0.469400
16.378500 0.468600
16.404100 0.467800
16.429800 0.467200
16.455400 0.466600
16.481100 0.466100
16.506800 0.465800
16.532400 0.465300
16.558100 0.464800
16.583700 0.465700
16.609400 0.464800
16.635000 0.464100
16.660700 0.463500
16.686300 0.462800
16.712000 0.462100
16.737700 0.461000
16.763300 0.459700
16.789000 0.458800
16.814600 0.457800
16.840300 0.457000
16.865900 0.456200
16.891600 0.455700
16.917200 0.454900
16.942900 0.454200
16.968600 0.452700
16.994200 0.450700
17.019900 0.448700
17.045500 0.447100
17.071200 0.445800
17.096800 0.444600
17.122500 0.443000
17.148200 0.441400
17.173800 0.439900
17.199500 0.438500
17.225100 0.437100
17.250800 0.435900
17.276400 0.434800
17.302100 0.433800
17.327700 0.432900
17.353400 0.432100
17.379100 0.431300
17.404700 0.430700
17.430400 0.430100
17.456000 0.429600
17.481700 0.429200
17.507300 0.428800
17.533000 0.428500
17.558700 0.428200
17.584300 0.428000
17.610000 0.428100
17.635600 0.428400
17.661300 0.428700
17.686900 0.428300
17.712600 0.427800
17.738200 0.427300
17.763900 0.426900
17.789600 0.426500
17.815200 0.426100
17.840900 0.425800
17.866500 0.425600
17.892200 0.425100
17.917800 0.424100
17.943500 0.422600
17.969200 0.421100
17.994800 0.420200
18.020500 0.419400
18.046100 0.418600
18.071800 0.417500
18.097400 0.416300
18.123100 0.415300
18.148700 0.414400
18.174400 0.413700
18.200100 0.413100
18.225700 0.412700
18.251400 0.412500
18.277000 0.412400
18.302700 0.412500
18.328300 0.412700
18.354000 0.413100
18.379700 0.413600
18.405300 0.414400
18.431000 0.416700
18.456600 0.420700
18.482300 0.421300
18.507900 0.422300
18.533600 0.423700
18.559200 0.424400
18.584900 0.425000
18.610600 0.425800
18.636200 0.426700
18.661900 0.427000
18.687500 0.427100
18.713200 0.452900
18.738800 0.464100
18.764500 0.443400
18.790200 0.426200
18.815800 0.418000
18.841500 0.412400
18.867100 0.403200
18.892800 0.392300
18.918400 0.389300
18.944100 0.386400
18.969700 0.383500
18.995400 0.380900
19.021100 0.378600
19.046700 0.375500
19.072400 0.371600
19.098000 0.367800
19.123700 0.367100
19.149300 0.366500
19.175000 0.366100
19.200700 0.365800
19.226300 0.365600
19.252000 0.365400
19.277600 0.365000
19.303300 0.364400
19.328900 0.363700
19.354600 0.363000
19.380200 0.363700
19.405900 0.395700
19.431600 0.455300
19.457200 0.538100
19.482900 0.641700
19.508500 0.744900
19.534200 0.966000
19.559800 1.011900
19.585500 1.043000
19.611200 1.063300
19.636800 1.090500
19.662500 1.105200
19.688100 1.103000
19.713800 1.142500
19.739400 1.070200
19.765100 1.077200
19.790700 1.084600
19.816400 1.092200
19.842100 1.106000
19.867700 1.116500
19.893400 1.110000
19.919000 1.044400
19.944700 1.005500
19.970300 0.979700
19.996000 0.963700
20.021700 0.947500
20.047300 0.926200
20.073000 0.904800
20.098600 0.893200
20.124300 0.883800
20.149900 0.876700
20.175600 0.871600
20.201200 0.868100
20.226900 0.867000
20.252600 0.868400
20.278200 0.889200
20.303900 0.905100
20.329500 0.904000
20.355200 0.899000
20.380800 0.889600
20.406500 0.876800
20.432100 0.875100
20.457800 0.873700
