set title 'mp-1183203 - Density of States'
set xlabel 'Energy (eV)'
set ylabel 'DOS (states/eV)'
set grid
set xrange [-10:10]
set yrange [0:2.949]
set xzeroaxis lt -1
set terminal png size 800,600
set output 'mp-1183203_dos_gnuplot.png'
plot '-' using 1:2 with lines title 'DOS'
-19.626600 0.000000
-19.600200 0.000000
-19.573700 0.000000
-19.547300 0.000000
-19.520800 0.000000
-19.494400 0.000000
-19.467900 0.000000
-19.441500 0.000000
-19.415000 0.000000
-19.388600 0.000000
-19.362100 0.000000
-19.335700 0.000000
-19.309200 0.000000
-19.282800 0.000000
-19.256300 0.000000
-19.229900 0.000000
-19.203400 0.000000
-19.177000 0.000000
-19.150500 0.000000
-19.124100 0.000000
-19.097600 0.000000
-19.071200 0.000000
-19.044700 0.000000
-19.018300 0.000000
-18.991800 0.000000
-18.965400 0.000000
-18.938900 0.000000
-18.912500 0.000000
-18.886000 0.000000
-18.859600 0.000000
-18.833100 0.000000
-18.806700 0.000000
-18.780200 0.000000
-18.753800 0.000000
-18.727300 0.000000
-18.700900 0.000000
-18.674400 0.000000
-18.648000 0.000000
-18.621500 0.000000
-18.595100 0.000000
-18.568600 0.000000
-18.542200 0.000000
-18.515700 0.000000
-18.489300 0.000000
-18.462800 0.000000
-18.436300 0.000000
-18.409900 0.000000
-18.383400 0.000000
-18.357000 0.000000
-18.330500 0.000000
-18.304100 0.000000
-18.277600 0.000000
-18.251200 0.000000
-18.224700 0.000000
-18.198300 0.000000
-18.171800 0.000000
-18.145400 0.000000
-18.118900 0.000000
-18.092500 0.000000
-18.066000 0.000000
-18.039600 0.000000
-18.013100 0.000000
-17.986700 0.000000
-17.960200 0.000000
-17.933800 0.000000
-17.907300 0.000000
-17.880900 0.000000
-17.854400 0.000000
-17.828000 0.000000
-17.801500 0.000000
-17.775100 0.000000
-17.748600 0.000000
-17.722200 0.000000
-17.695700 0.000000
-17.669300 0.000000
-17.642800 0.000000
-17.616400 0.000000
-17.589900 0.000000
-17.563500 0.000000
-17.537000 0.000000
-17.510600 0.000000
-17.484100 0.000000
-17.457700 0.000000
-17.431200 0.000000
-17.404800 0.000000
-17.378300 0.000000
-17.351900 0.000000
-17.325400 0.000000
-17.299000 0.000000
-17.272500 0.000000
-17.246100 0.000000
-17.219600 6.833100
-17.193200 21.546200
-17.166700 103.499500
-17.140300 208.503200
-17.113800 245.278100
-17.087400 212.811200
-17.060900 191.425100
-17.034500 32.262100
-17.008000 0.000000
-16.981600 0.000000
-16.955100 0.000000
-16.928700 0.000000
-16.902200 0.000000
-16.875800 0.000000
-16.849300 0.000000
-16.822900 0.000000
-16.796400 0.000000
-16.770000 0.000000
-16.743500 0.000000
-16.717100 0.000000
-16.690600 0.000000
-16.664200 0.000000
-16.637700 0.000000
-16.611300 0.000000
-16.584800 0.000000
-16.558400 0.000000
-16.531900 0.000000
-16.505500 0.000000
-16.479000 0.000000
-16.452600 0.000000
-16.426100 0.000000
-16.399700 0.000000
-16.373200 0.000000
-16.346800 0.000000
-16.320300 0.000000
-16.293900 0.000000
-16.267400 0.000000
-16.241000 0.000000
-16.214500 0.000000
-16.188100 0.000000
-16.161600 0.000000
-16.135200 0.000000
-16.108700 0.000000
-16.082300 0.000000
-16.055800 0.000000
-16.029300 0.000000
-16.002900 0.000000
-15.976400 0.000000
-15.950000 0.000000
-15.923500 0.000000
-15.897100 0.000000
-15.870600 0.000000
-15.844200 0.000000
-15.817700 0.000000
-15.791300 0.000000
-15.764800 0.000000
-15.738400 0.000000
-15.711900 0.000000
-15.685500 0.000000
-15.659000 0.000000
-15.632600 0.000000
-15.606100 0.000000
-15.579700 0.000000
-15.553200 0.000000
-15.526800 0.000000
-15.500300 0.000000
-15.473900 0.000000
-15.447400 0.000000
-15.421000 0.000000
-15.394500 0.000000
-15.368100 0.000000
-15.341600 0.000000
-15.315200 0.000000
-15.288700 0.000000
-15.262300 0.000000
-15.235800 0.000000
-15.209400 0.000000
-15.182900 0.000000
-15.156500 0.000000
-15.130000 0.000000
-15.103600 0.000000
-15.077100 0.000000
-15.050700 0.000000
-15.024200 0.000000
-14.997800 0.000000
-14.971300 0.000000
-14.944900 0.000000
-14.918400 0.000000
-14.892000 0.000000
-14.865500 0.000000
-14.839100 0.000000
-14.812600 0.000000
-14.786200 0.000000
-14.759700 0.000000
-14.733300 0.000000
-14.706800 0.000000
-14.680400 0.000000
-14.653900 0.000000
-14.627500 0.000000
-14.601000 0.000000
-14.574600 0.000000
-14.548100 0.000000
-14.521700 0.000000
-14.495200 0.000000
-14.468800 0.000000
-14.442300 0.000000
-14.415900 0.000000
-14.389400 0.000000
-14.363000 0.000000
-14.336500 0.000000
-14.310100 0.000000
-14.283600 0.000000
-14.257200 0.000000
-14.230700 0.000000
-14.204300 0.000000
-14.177800 0.000000
-14.151400 0.000000
-14.124900 0.000000
-14.098500 0.000000
-14.072000 0.000000
-14.045600 0.000000
-14.019100 0.000000
-13.992700 0.000000
-13.966200 0.000000
-13.939800 0.000000
-13.913300 0.000000
-13.886900 0.000000
-13.860400 0.000000
-13.834000 0.000000
-13.807500 0.000000
-13.781100 0.000000
-13.754600 0.000000
-13.728200 0.000000
-13.701700 0.000000
-13.675300 0.000000
-13.648800 0.000000
-13.622300 0.000000
-13.595900 0.000000
-13.569400 0.000000
-13.543000 0.000000
-13.516500 0.000000
-13.490100 0.000000
-13.463600 0.000000
-13.437200 0.000000
-13.410700 0.000000
-13.384300 0.000000
-13.357800 0.000000
-13.331400 0.000000
-13.304900 0.000000
-13.278500 0.000000
-13.252000 0.000000
-13.225600 0.000000
-13.199100 0.000000
-13.172700 0.000000
-13.146200 0.000000
-13.119800 0.000000
-13.093300 0.000000
-13.066900 0.000000
-13.040400 0.000000
-13.014000 0.000000
-12.987500 0.000000
-12.961100 0.000000
-12.934600 0.000000
-12.908200 0.000000
-12.881700 0.000000
-12.855300 0.000000
-12.828800 0.000000
-12.802400 0.000000
-12.775900 0.000000
-12.749500 0.000000
-12.723000 0.000000
-12.696600 0.000000
-12.670100 0.000000
-12.643700 0.000000
-12.617200 0.000000
-12.590800 0.000000
-12.564300 0.000000
-12.537900 0.000000
-12.511400 0.000000
-12.485000 0.000000
-12.458500 0.000000
-12.432100 0.000000
-12.405600 0.000000
-12.379200 0.000000
-12.352700 0.000000
-12.326300 0.000000
-12.299800 0.000000
-12.273400 0.000000
-12.246900 0.000000
-12.220500 0.000000
-12.194000 0.000000
-12.167600 0.000000
-12.141100 0.000000
-12.114700 0.000000
-12.088200 0.000000
-12.061800 0.000000
-12.035300 0.000000
-12.008900 0.000000
-11.982400 0.000000
-11.956000 0.000000
-11.929500 0.000000
-11.903100 0.000000
-11.876600 0.000000
-11.850200 0.000000
-11.823700 0.000000
-11.797300 0.000000
-11.770800 0.000000
-11.744400 0.000000
-11.717900 0.000000
-11.691500 0.000000
-11.665000 0.000000
-11.638600 0.000000
-11.612100 0.000000
-11.585700 0.000000
-11.559200 0.000000
-11.532800 0.000000
-11.506300 0.000000
-11.479900 0.000000
-11.453400 0.000000
-11.427000 0.000000
-11.400500 0.000000
-11.374100 0.000000
-11.347600 0.000000
-11.321200 0.000000
-11.294700 0.000000
-11.268300 0.000000
-11.241800 0.000000
-11.215300 0.000000
-11.188900 0.000000
-11.162400 0.000000
-11.136000 0.000000
-11.109500 0.000000
-11.083100 0.000000
-11.056600 0.000000
-11.030200 0.000000
-11.003700 0.000000
-10.977300 0.000000
-10.950800 0.000000
-10.924400 0.000000
-10.897900 0.000000
-10.871500 0.000000
-10.845000 0.000000
-10.818600 0.000000
-10.792100 0.000000
-10.765700 0.000000
-10.739200 0.000000
-10.712800 0.000000
-10.686300 0.000000
-10.659900 0.000000
-10.633400 0.000000
-10.607000 0.000000
-10.580500 0.000000
-10.554100 0.000000
-10.527600 0.000000
-10.501200 0.000000
-10.474700 0.000000
-10.448300 0.000000
-10.421800 0.000000
-10.395400 0.000000
-10.368900 0.000000
-10.342500 0.000000
-10.316000 0.000000
-10.289600 0.000000
-10.263100 0.000000
-10.236700 0.000000
-10.210200 0.000000
-10.183800 0.000000
-10.157300 0.000000
-10.130900 0.000000
-10.104400 0.000000
-10.078000 0.000000
-10.051500 0.000000
-10.025100 0.000000
-9.998600 0.000000
-9.972200 0.000000
-9.945700 0.000000
-9.919300 0.000000
-9.892800 0.000000
-9.866400 0.000000
-9.839900 0.000000
-9.813500 0.000000
-9.787000 0.000000
-9.760600 0.000000
-9.734100 0.000000
-9.707700 0.000000
-9.681200 0.000000
-9.654800 0.000000
-9.628300 0.000000
-9.601900 0.000000
-9.575400 0.000000
-9.549000 0.000000
-9.522500 0.000000
-9.496100 0.000000
-9.469600 0.000000
-9.443200 0.000000
-9.416700 0.000000
-9.390300 0.000000
-9.363800 0.000000
-9.337400 0.000000
-9.310900 0.000000
-9.284500 0.000000
-9.258000 0.000000
-9.231600 0.000000
-9.205100 0.000000
-9.178700 0.000000
-9.152200 0.000000
-9.125800 0.000000
-9.099300 0.000000
-9.072900 0.000000
-9.046400 0.000000
-9.020000 0.000000
-8.993500 0.000000
-8.967100 0.000000
-8.940600 0.000000
-8.914200 0.000000
-8.887700 0.000000
-8.861300 0.000000
-8.834800 0.000000
-8.808300 0.000000
-8.781900 0.000000
-8.755400 0.000000
-8.729000 0.000000
-8.702500 0.000000
-8.676100 0.000000
-8.649600 0.000000
-8.623200 0.000000
-8.596700 0.000000
-8.570300 0.000000
-8.543800 0.000000
-8.517400 0.000000
-8.490900 0.000000
-8.464500 0.000000
-8.438000 0.000000
-8.411600 0.000000
-8.385100 0.000000
-8.358700 0.000000
-8.332200 0.000000
-8.305800 0.000000
-8.279300 0.000000
-8.252900 0.000000
-8.226400 0.000000
-8.200000 0.000000
-8.173500 0.000000
-8.147100 0.000000
-8.120600 0.000000
-8.094200 0.000000
-8.067700 0.000000
-8.041300 0.000000
-8.014800 0.000000
-7.988400 0.000000
-7.961900 0.000000
-7.935500 0.000000
-7.909000 0.000000
-7.882600 0.000000
-7.856100 0.000000
-7.829700 0.000000
-7.803200 0.000000
-7.776800 0.000000
-7.750300 0.000000
-7.723900 0.000000
-7.697400 0.000000
-7.671000 0.000000
-7.644500 0.000000
-7.618100 0.000000
-7.591600 0.000000
-7.565200 0.000000
-7.538700 0.000000
-7.512300 0.000000
-7.485800 0.000000
-7.459400 0.000000
-7.432900 0.000000
-7.406500 0.000000
-7.380000 0.000000
-7.353600 0.000000
-7.327100 0.000000
-7.300700 0.000000
-7.274200 0.000000
-7.247800 0.000000
-7.221300 0.000000
-7.194900 0.000000
-7.168400 0.000000
-7.142000 0.000000
-7.115500 0.000000
-7.089100 0.000000
-7.062600 0.000000
-7.036200 0.000000
-7.009700 0.000000
-6.983300 0.000000
-6.956800 0.000000
-6.930400 0.000000
-6.903900 0.000000
-6.877500 0.000000
-6.851000 0.000000
-6.824600 0.000000
-6.798100 0.000000
-6.771700 0.000000
-6.745200 0.000000
-6.718800 0.000000
-6.692300 0.000000
-6.665900 0.000000
-6.639400 0.000000
-6.613000 0.000000
-6.586500 0.000000
-6.560100 0.000000
-6.533600 0.000000
-6.507200 0.000000
-6.480700 0.000000
-6.454300 0.000000
-6.427800 0.000000
-6.401300 0.000000
-6.374900 0.000000
-6.348400 0.000000
-6.322000 0.000000
-6.295500 0.000000
-6.269100 0.000000
-6.242600 0.000000
-6.216200 0.000000
-6.189700 0.000000
-6.163300 0.000000
-6.136800 0.000000
-6.110400 0.000000
-6.083900 0.000000
-6.057500 0.000000
-6.031000 0.000000
-6.004600 0.000000
-5.978100 0.000000
-5.951700 0.000000
-5.925200 0.000000
-5.898800 0.000000
-5.872300 0.000000
-5.845900 0.015800
-5.819400 0.063100
-5.793000 0.120300
-5.766500 0.159300
-5.740100 0.174700
-5.713600 0.191400
-5.687200 0.211100
-5.660700 0.221300
-5.634300 0.241000
-5.607800 0.262200
-5.581400 0.284100
-5.554900 0.303000
-5.528500 0.314000
-5.502000 0.320600
-5.475600 0.332400
-5.449100 0.342000
-5.422700 0.352000
-5.396200 0.361900
-5.369800 0.371800
-5.343300 0.383300
-5.316900 0.395300
-5.290400 0.407500
-5.264000 0.420200
-5.237500 0.433800
-5.211100 0.447900
-5.184600 0.458300
-5.158200 0.465500
-5.131700 0.471500
-5.105300 0.477800
-5.078800 0.485400
-5.052400 0.494200
-5.025900 0.503000
-4.999500 0.511800
-4.973000 0.520500
-4.946600 0.529200
-4.920100 0.537900
-4.893700 0.547900
-4.867200 0.558200
-4.840800 0.568400
-4.814300 0.578200
-4.787900 0.588600
-4.761400 0.599400
-4.735000 0.610300
-4.708500 0.623200
-4.682100 0.635700
-4.655600 0.646400
-4.629200 0.656700
-4.602700 0.674000
-4.576300 0.690900
-4.549800 0.703500
-4.523400 0.712100
-4.496900 0.716800
-4.470500 0.778800
-4.444000 0.722700
-4.417600 0.728400
-4.391100 0.731700
-4.364700 0.733500
-4.338200 0.733800
-4.311800 0.732400
-4.285300 0.731100
-4.258900 0.730700
-4.232400 0.731100
-4.206000 0.732200
-4.179500 0.734100
-4.153100 0.738300
-4.126600 0.743100
-4.100200 0.747500
-4.073700 0.751400
-4.047300 0.754600
-4.020800 0.757100
-3.994300 0.759600
-3.967900 0.762400
-3.941400 0.767700
-3.915000 0.774400
-3.888500 0.779600
-3.862100 0.786900
-3.835600 0.797000
-3.809200 0.808500
-3.782700 0.846900
-3.756300 0.871400
-3.729800 0.890500
-3.703400 0.906100
-3.676900 0.918200
-3.650500 0.925800
-3.624000 0.928300
-3.597600 0.925700
-3.571100 0.894600
-3.544700 0.887500
-3.518200 0.922200
-3.491800 0.934500
-3.465300 0.946300
-3.438900 0.969600
-3.412400 0.987800
-3.386000 0.993400
-3.359500 0.935500
-3.333100 0.889600
-3.306600 0.848400
-3.280200 0.804700
-3.253700 0.781100
-3.227300 0.758900
-3.200800 0.742600
-3.174400 0.724400
-3.147900 0.706000
-3.121500 0.688100
-3.095000 0.672300
-3.068600 0.662200
-3.042100 0.655000
-3.015700 0.652400
-2.989200 0.652000
-2.962800 0.656900
-2.936300 0.663100
-2.909900 0.666800
-2.883400 0.675900
-2.857000 0.701600
-2.830500 0.705100
-2.804100 0.821000
-2.777600 0.931200
-2.751200 0.998500
-2.724700 1.054100
-2.698300 1.089200
-2.671800 1.114800
-2.645400 1.138000
-2.618900 1.140600
-2.592500 1.145000
-2.566000 1.143900
-2.539600 1.136400
-2.513100 1.145600
-2.486700 1.122900
-2.460200 1.111000
-2.433800 1.109200
-2.407300 1.107300
-2.380900 1.096600
-2.354400 1.085200
-2.328000 1.093300
-2.301500 1.103500
-2.275100 1.065900
-2.248600 1.052400
-2.222200 1.047800
-2.195700 1.043300
-2.169300 1.041400
-2.142800 1.038800
-2.116400 1.032600
-2.089900 1.024200
-2.063500 1.014400
-2.037000 1.003800
-2.010600 0.993000
-1.984100 0.949300
-1.957700 0.937900
-1.931200 0.927700
-1.904800 0.918700
-1.878300 0.911000
-1.851900 0.905100
-1.825400 0.912000
-1.799000 0.988100
-1.772500 1.009500
-1.746100 1.010600
-1.719600 1.002700
-1.693200 0.986600
-1.666700 0.958300
-1.640300 0.939800
-1.613800 0.950200
-1.587300 0.984100
-1.560900 1.000600
-1.534400 1.021700
-1.508000 1.047600
-1.481500 1.099500
-1.455100 1.106900
-1.428600 1.123800
-1.402200 1.149600
-1.375700 1.188200
-1.349300 1.209300
-1.322800 1.234500
-1.296400 1.263900
-1.269900 1.294600
-1.243500 1.322400
-1.217000 1.415600
-1.190600 1.478800
-1.164100 1.657800
-1.137700 1.617100
-1.111200 1.590200
-1.084800 1.510600
-1.058300 1.448000
-1.031900 1.421200
-1.005400 1.407800
-0.979000 1.401100
-0.952500 1.405400
-0.926100 1.407000
-0.899600 1.410400
-0.873200 1.413200
-0.846700 1.419300
-0.820300 1.430600
-0.793800 1.440100
-0.767400 1.448900
-0.740900 1.440500
-0.714500 1.433400
-0.688000 1.404400
-0.661600 1.401400
-0.635100 1.402200
-0.608700 1.403000
-0.582200 1.421300
-0.555800 1.468400
-0.529300 1.449100
-0.502900 1.463400
-0.476400 1.478200
-0.450000 1.494100
-0.423500 1.511300
-0.397100 1.518900
-0.370600 1.535700
-0.344200 1.564300
-0.317700 1.608500
-0.291300 1.640600
-0.264800 1.657000
-0.238400 1.654800
-0.211900 1.619800
-0.185500 1.542600
-0.159000 1.415400
-0.132600 1.296100
-0.106100 1.185700
-0.079700 1.130300
-0.053200 1.121100
-0.026800 1.118600
-0.000300 1.101400
0.026100 1.103500
0.052600 1.051400
0.079000 0.925700
0.105500 0.874300
0.131900 0.836300
0.158400 0.800000
0.184800 0.765400
0.211300 0.771500
0.237700 0.732300
0.264200 0.692400
0.290600 0.691600
0.317100 0.601600
0.343500 0.514800
0.370000 0.439400
0.396400 0.388400
0.422900 0.365100
0.449300 0.359700
0.475800 0.361100
0.502200 0.366100
0.528700 0.372700
0.555100 0.381000
0.581600 0.390900
0.608000 0.403300
0.634500 0.422400
0.660900 0.443800
0.687400 0.467700
0.713800 0.479900
0.740300 0.482600
0.766700 0.481400
0.793200 0.482400
0.819700 0.494200
0.846100 0.505800
0.872600 0.516700
0.899000 0.605700
0.925500 0.641700
0.951900 0.672300
0.978400 0.694800
1.004800 0.702000
1.031300 0.748000
1.057700 0.754200
1.084200 0.735700
1.110600 0.717600
1.137100 0.716800
1.163500 0.721000
1.190000 0.727400
1.216400 0.736300
1.242900 0.747100
1.269300 0.761100
1.295800 0.812600
1.322200 0.849500
1.348700 0.845100
1.375100 0.876700
1.401600 0.903700
1.428000 0.930600
1.454500 0.983100
1.480900 1.114900
1.507400 1.147600
1.533800 1.178500
1.560300 1.220800
1.586700 1.288500
1.613200 1.363800
1.639600 1.475600
1.666100 1.545400
1.692500 1.544700
1.719000 1.549600
1.745400 1.541900
1.771900 1.513700
1.798300 1.521600
1.824800 1.493900
1.851200 1.474500
1.877700 1.468700
1.904100 1.460500
1.930600 1.452400
1.957000 1.446000
1.983500 1.424700
2.009900 1.432800
2.036400 1.468100
2.062800 1.431400
2.089300 1.432000
2.115700 1.444600
2.142200 1.515900
2.168600 1.559800
2.195100 1.562900
2.221500 1.605000
2.248000 1.581300
2.274400 1.568000
2.300900 1.574600
2.327300 1.644500
2.353800 1.608800
2.380200 1.665500
2.406700 1.662900
2.433100 1.619200
2.459600 1.575100
2.486000 1.539100
2.512500 1.548500
2.538900 1.526700
2.565400 1.440800
2.591800 1.294500
2.618300 1.186800
2.644700 1.171100
2.671200 1.174900
2.697600 1.135900
2.724100 1.125200
2.750500 1.120500
2.777000 1.129300
2.803400 1.149900
2.829900 1.188700
2.856300 1.207800
2.882800 1.227900
2.909200 1.253000
2.935700 1.283700
2.962100 1.309800
2.988600 1.325200
3.015000 1.334100
3.041500 1.336700
3.067900 1.340000
3.094400 1.345200
3.120800 1.349600
3.147300 1.350200
3.173700 1.349900
3.200200 1.349100
3.226700 1.350600
3.253100 1.353400
3.279600 1.351000
3.306000 1.436400
3.332500 1.372300
3.358900 1.366600
3.385400 1.399100
3.411800 1.466100
3.438300 1.350600
3.464700 1.346900
3.491200 1.325800
3.517600 1.328900
3.544100 1.345000
3.570500 1.364100
3.597000 1.381300
3.623400 1.397200
3.649900 1.414800
3.676300 1.437600
3.702800 1.463100
3.729200 1.492200
3.755700 1.513000
3.782100 1.540400
3.808600 1.568800
3.835000 1.598100
3.861500 1.627900
3.887900 1.658900
3.914400 1.691900
3.940800 1.735600
3.967300 1.783400
3.993700 1.818500
4.020200 1.850500
4.046600 1.878600
4.073100 1.901900
4.099500 1.909900
4.126000 1.922900
4.152400 1.929700
4.178900 1.931500
4.205300 1.929100
4.231800 1.923100
4.258200 1.933800
4.284700 1.943400
4.311100 1.913300
4.337600 1.900500
4.364000 1.890500
4.390500 1.864500
4.416900 1.846400
4.443400 1.838400
4.469800 1.850900
4.496300 1.859100
4.522700 1.858400
4.549200 1.861500
4.575600 1.941900
4.602100 1.912400
4.628500 1.896200
4.655000 1.883500
4.681400 1.871600
4.707900 1.863300
4.734300 1.935900
4.760800 1.682200
4.787200 1.651500
4.813700 1.638400
4.840100 1.608900
4.866600 1.591900
4.893000 1.583800
4.919500 1.583200
4.945900 1.577900
4.972400 1.576400
4.998800 1.576000
5.025300 1.574700
5.051700 1.571100
5.078200 1.573300
5.104600 1.577400
5.131100 1.583200
5.157500 1.594900
5.184000 1.615300
5.210400 1.642800
5.236900 1.643900
5.263300 1.666400
5.289800 1.687500
5.316200 1.688300
5.342700 1.714800
5.369100 1.731800
5.395600 1.740100
5.422000 1.741400
5.448500 1.764900
5.474900 1.761800
5.501400 1.766400
5.527800 1.758800
5.554300 1.741400
5.580700 1.716400
5.607200 1.705800
5.633700 1.696900
5.660100 1.693200
5.686600 1.692600
5.713000 1.692700
5.739500 1.684700
5.765900 1.734100
5.792400 1.722900
5.818800 1.669800
5.845300 1.664200
5.871700 1.669500
5.898200 1.679300
5.924600 1.692200
5.951100 1.705800
5.977500 1.723800
6.004000 1.751400
6.030400 1.680200
6.056900 1.679800
6.083300 1.679900
6.109800 1.680500
6.136200 1.682300
6.162700 1.688500
6.189100 1.707700
6.215600 1.721900
6.242000 1.748100
6.268500 1.844900
6.294900 1.886500
6.321400 1.899200
6.347800 1.896300
6.374300 1.906300
6.400700 1.933800
6.427200 1.938800
6.453600 1.951700
6.480100 1.953800
6.506500 1.950700
6.533000 1.939200
6.559400 1.932200
6.585900 1.916500
6.612300 1.892700
6.638800 2.041200
6.665200 1.809200
6.691700 1.753500
6.718100 1.738900
6.744600 1.699400
6.771000 1.680400
6.797500 1.660400
6.823900 1.592000
6.850400 1.566500
6.876800 1.544900
6.903300 1.524100
6.929700 1.506600
6.956200 1.554800
6.982600 1.469100
7.009100 1.462800
7.035500 1.469900
7.062000 1.488300
7.088400 1.513800
7.114900 1.524800
7.141300 1.522200
7.167800 1.540200
7.194200 1.565500
7.220700 1.594000
7.247100 1.626000
7.273600 1.686200
7.300000 1.793100
7.326500 1.900600
7.352900 1.994400
7.379400 2.048100
7.405800 2.055700
7.432300 2.036500
7.458700 2.010000
7.485200 2.000100
7.511600 1.995800
7.538100 1.985700
7.564500 1.969800
7.591000 1.950900
7.617400 1.946700
7.643900 1.977700
7.670300 2.039400
