set title 'mp-1183175 - Density of States'
set xlabel 'Energy (eV)'
set ylabel 'DOS (states/eV)'
set grid
set xrange [-10:10]
set yrange [0:10.603]
set xzeroaxis lt -1
set terminal png size 800,600
set output 'mp-1183175_dos_gnuplot.png'
plot '-' using 1:2 with lines title 'DOS'
-4.979400 0.000000
-4.955000 0.000000
-4.930600 0.000000
-4.906200 0.000000
-4.881800 0.000000
-4.857400 0.000000
-4.833000 0.000000
-4.808600 0.000000
-4.784200 0.000000
-4.759800 0.000000
-4.735300 0.000000
-4.710900 0.000000
-4.686500 0.000000
-4.662100 0.000000
-4.637700 0.000000
-4.613300 0.000000
-4.588900 0.000000
-4.564500 0.000000
-4.540100 0.000000
-4.515700 0.000000
-4.491300 0.000000
-4.466900 0.000000
-4.442500 0.000000
-4.418100 0.000000
-4.393700 0.000000
-4.369300 0.000000
-4.344800 0.000000
-4.320400 0.000000
-4.296000 0.000000
-4.271600 0.000000
-4.247200 0.000000
-4.222800 0.000000
-4.198400 0.000000
-4.174000 0.000000
-4.149600 0.000000
-4.125200 0.000000
-4.100800 0.000000
-4.076400 0.000000
-4.052000 0.000000
-4.027600 0.000000
-4.003200 0.000000
-3.978800 0.000000
-3.954400 0.000000
-3.929900 0.000000
-3.905500 0.000000
-3.881100 0.000000
-3.856700 0.000000
-3.832300 0.000000
-3.807900 0.000000
-3.783500 0.000000
-3.759100 0.000000
-3.734700 0.000000
-3.710300 0.000000
-3.685900 0.000000
-3.661500 0.000000
-3.637100 0.000000
-3.612700 0.000000
-3.588300 0.000000
-3.563900 0.000000
-3.539400 0.000000
-3.515000 0.000000
-3.490600 0.000000
-3.466200 0.000000
-3.441800 0.000000
-3.417400 0.000000
-3.393000 0.000000
-3.368600 0.000000
-3.344200 0.000000
-3.319800 0.000000
-3.295400 0.000000
-3.271000 0.000000
-3.246600 0.000000
-3.222200 0.000000
-3.197800 0.000000
-3.173400 0.000000
-3.148900 0.000000
-3.124500 0.000000
-3.100100 0.000000
-3.075700 0.000000
-3.051300 0.000000
-3.026900 0.000000
-3.002500 0.000000
-2.978100 0.000000
-2.953700 0.000000
-2.929300 0.000000
-2.904900 0.000000
-2.880500 0.000000
-2.856100 0.000300
-2.831700 0.001800
-2.807300 0.007200
-2.782900 0.018900
-2.758400 0.035600
-2.734000 0.053200
-2.709600 0.069600
-2.685200 0.090700
-2.660800 0.135400
-2.636400 0.200500
-2.612000 0.227000
-2.587600 0.175100
-2.563200 0.092800
-2.538800 0.053700
-2.514400 0.088400
-2.490000 0.180000
-2.465600 0.272700
-2.441200 0.318000
-2.416800 0.315500
-2.392400 0.300900
-2.367900 0.320100
-2.343500 0.350100
-2.319100 0.304900
-2.294700 0.184500
-2.270300 0.083800
-2.245900 0.066800
-2.221500 0.133400
-2.197100 0.241300
-2.172700 0.331600
-2.148300 0.373900
-2.123900 0.384000
-2.099500 0.430900
-2.075100 0.552200
-2.050700 0.618700
-2.026300 0.492400
-2.001900 0.264600
-1.977400 0.120200
-1.953000 0.121700
-1.928600 0.215600
-1.904200 0.309700
-1.879800 0.351300
-1.855400 0.367500
-1.831000 0.430500
-1.806600 0.561400
-1.782200 0.629700
-1.757800 0.502900
-1.733400 0.273600
-1.709000 0.134200
-1.684600 0.167900
-1.660200 0.339500
-1.635800 0.533700
-1.611400 0.638700
-1.587000 0.633400
-1.562500 0.574900
-1.538100 0.553000
-1.513700 0.560200
-1.489300 0.474700
-1.464900 0.289200
-1.440500 0.149000
-1.416100 0.165700
-1.391700 0.336000
-1.367300 0.551300
-1.342900 0.677600
-1.318500 0.679800
-1.294100 0.646900
-1.269700 0.710100
-1.245300 0.831200
-1.220900 0.779700
-1.196500 0.504500
-1.172000 0.232000
-1.147600 0.133800
-1.123200 0.186300
-1.098800 0.286700
-1.074400 0.367400
-1.050000 0.442500
-1.025600 0.588400
-1.001200 0.837500
-0.976800 1.014900
-0.952400 0.888200
-0.928000 0.536900
-0.903600 0.264000
-0.879200 0.238700
-0.854800 0.421000
-0.830400 0.670000
-0.806000 0.845900
-0.781500 0.884600
-0.757100 0.854100
-0.732700 0.858500
-0.708300 0.809500
-0.683900 0.583000
-0.659500 0.318700
-0.635100 0.250600
-0.610700 0.432300
-0.586300 0.704200
-0.561900 0.848300
-0.537500 0.820300
-0.513100 0.763700
-0.488700 0.802000
-0.464300 0.854600
-0.439900 0.733000
-0.415500 0.453400
-0.391000 0.234000
-0.366600 0.210600
-0.342200 0.329700
-0.317800 0.451200
-0.293400 0.520800
-0.269000 0.650900
-0.244600 0.939300
-0.220200 1.221700
-0.195800 1.189900
-0.171400 0.834000
-0.147000 0.516700
-0.122600 0.548300
-0.098200 0.886600
-0.073800 1.228600
-0.049400 1.330200
-0.025000 1.213700
-0.000500 1.054700
0.023900 0.923200
0.048300 0.751400
0.072700 0.529700
0.097100 0.358500
0.121500 0.332900
0.145900 0.456800
0.170300 0.648400
0.194700 0.806200
0.219100 0.909200
0.243500 1.022200
0.267900 1.111100
0.292300 1.021500
0.316700 0.744300
0.341100 0.459600
0.365500 0.308200
0.389900 0.333600
0.414400 0.556700
0.438800 0.918900
0.463200 1.198300
0.487600 1.175300
0.512000 0.924700
0.536400 0.737000
0.560800 0.760700
0.585200 0.887000
0.609600 0.953100
0.634000 0.992100
0.658400 1.160900
0.682800 1.433600
0.707200 1.593800
0.731600 1.518200
0.756000 1.288900
0.780400 1.027400
0.804900 0.808900
0.829300 0.708500
0.853700 0.733000
0.878100 0.811000
0.902500 0.896200
0.926900 0.960200
0.951300 0.990600
0.975700 1.014500
1.000100 1.054600
1.024500 1.100900
1.048900 1.143400
1.073300 1.184300
1.097700 1.195700
1.122100 1.192900
1.146500 1.281900
1.170900 1.439200
1.195400 1.467100
1.219800 1.317600
1.244200 1.196000
1.268600 1.218500
1.293000 1.222600
1.317400 1.069100
1.341800 0.888400
1.366200 0.876400
1.390600 1.005600
1.415000 1.088800
1.439400 1.057400
1.463800 1.002800
1.488200 1.017800
1.512600 1.168700
1.537000 1.439300
1.561400 1.604500
1.585900 1.485200
1.610300 1.231500
1.634700 1.060900
1.659100 1.028500
1.683500 1.093800
1.707900 1.130600
1.732300 1.059100
1.756700 0.997700
1.781100 1.087800
1.805500 1.333000
1.829900 1.622600
1.854300 1.762700
1.878700 1.616800
1.903100 1.215200
1.927500 0.734400
1.951900 0.434900
1.976400 0.470800
2.000800 0.771300
2.025200 1.156600
2.049600 1.489900
2.074000 1.678900
2.098400 1.630700
2.122800 1.369800
2.147200 1.111600
2.171600 1.030200
2.196000 1.103700
2.220400 1.221300
2.244800 1.292500
2.269200 1.339000
2.293600 1.511900
2.318000 1.856400
2.342400 2.157500
2.366900 2.165300
2.391300 1.926400
2.415700 1.787800
2.440100 1.901200
2.464500 1.976200
2.488900 1.810800
2.513300 1.646700
2.537700 1.741900
2.562100 1.995200
2.586500 2.146000
2.610900 2.051500
2.635300 1.777600
2.659700 1.582400
2.684100 1.669700
2.708500 1.957700
2.732900 2.182500
2.757300 2.153100
2.781800 1.906600
2.806200 1.623000
2.830600 1.449700
2.855000 1.442600
2.879400 1.557100
2.903800 1.726700
2.928200 1.937600
2.952600 2.149100
2.977000 2.250200
3.001400 2.221400
3.025800 2.207200
3.050200 2.275200
3.074600 2.338900
3.099000 2.318700
3.123400 2.161500
3.147800 1.882400
3.172300 1.610500
3.196700 1.494800
3.221100 1.620400
3.245500 1.934500
3.269900 2.190600
3.294300 2.185200
3.318700 2.009500
3.343100 1.840400
3.367500 1.696300
3.391900 1.557600
3.416300 1.531600
3.440700 1.733300
3.465100 2.097600
3.489500 2.428200
3.513900 2.562000
3.538300 2.452000
3.562800 2.228500
3.587200 2.198500
3.611600 2.530300
3.636000 2.957800
3.660400 3.098100
3.684800 2.870200
3.709200 2.422400
3.733600 2.042300
3.758000 2.006300
3.782400 2.273600
3.806800 2.591800
3.831200 2.827500
3.855600 2.993300
3.880000 3.048000
3.904400 2.893400
3.928800 2.669400
3.953300 2.664900
3.977700 2.958500
4.002100 3.482900
4.026500 4.150100
4.050900 4.701400
4.075300 4.814000
4.099700 4.565900
4.124100 4.424400
4.148500 4.672400
4.172900 5.101100
4.197300 5.348600
4.221700 5.359400
4.246100 5.301900
4.270500 5.211400
4.294900 4.968500
4.319300 4.589000
4.343800 4.495800
4.368200 5.317300
4.392600 7.013400
4.417000 8.569200
4.441400 9.183500
4.465800 9.216700
4.490200 9.397000
4.514600 9.639200
4.539000 9.209900
4.563400 7.873900
4.587800 6.337900
4.612200 5.474700
4.636600 5.307800
4.661000 5.086900
4.685400 4.473100
4.709800 3.860100
4.734300 3.440200
4.758700 2.977800
4.783100 2.470600
4.807500 2.206300
4.831900 2.259900
4.856300 2.409900
4.880700 2.501400
4.905100 2.577400
4.929500 2.651200
4.953900 2.627300
4.978300 2.437100
5.002700 2.157000
5.027100 2.002400
5.051500 2.100300
5.075900 2.318200
5.100300 2.435700
5.124700 2.376800
5.149200 2.188500
5.173600 1.974800
5.198000 1.857800
5.222400 1.838800
5.246800 1.827400
5.271200 1.786200
5.295600 1.705400
5.320000 1.592200
5.344400 1.539500
5.368800 1.677700
5.393200 2.056800
5.417600 2.524800
5.442000 2.722500
5.466400 2.443700
5.490800 2.017800
5.515200 2.047200
5.539700 2.811300
5.564100 4.010600
5.588500 4.918500
5.612900 4.933200
5.637300 4.129000
5.661700 3.111900
5.686100 2.416200
5.710500 2.221200
5.734900 2.341400
5.759300 2.384800
5.783700 2.261700
5.808100 2.302100
5.832500 2.637800
5.856900 2.914100
5.881300 2.818600
5.905700 2.510100
5.930200 2.347100
5.954600 2.431100
5.979000 2.553000
6.003400 2.525900
6.027800 2.385000
6.052200 2.219700
6.076600 2.037100
6.101000 1.843000
6.125400 1.694800
6.149800 1.617900
6.174200 1.571300
6.198600 1.513700
6.223000 1.434800
6.247400 1.382100
6.271800 1.413900
6.296200 1.487000
6.320700 1.563600
6.345100 1.727700
6.369500 1.952700
6.393900 1.999200
6.418300 1.813800
6.442700 1.647500
6.467100 1.647200
6.491500 1.780900
6.515900 1.979300
6.540300 2.046100
6.564700 1.834800
6.589100 1.533000
6.613500 1.428200
6.637900 1.560600
6.662300 1.741300
6.686700 1.796400
6.711200 1.726200
6.735600 1.618200
6.760000 1.540500
6.784400 1.503000
6.808800 1.449900
6.833200 1.316000
6.857600 1.134100
6.882000 1.061700
6.906400 1.150900
6.930800 1.213300
6.955200 1.102700
6.979600 0.933300
7.004000 0.848500
7.028400 0.865900
7.052800 0.991700
7.077200 1.152300
7.101600 1.188900
7.126100 1.126100
7.150500 1.129700
7.174900 1.193400
7.199300 1.203000
7.223700 1.160500
7.248100 1.105600
7.272500 0.991300
7.296900 0.774800
7.321300 0.521800
7.345700 0.315800
7.370100 0.191500
7.394500 0.201700
7.418900 0.392600
7.443300 0.711100
7.467700 1.046200
7.492100 1.338000
7.516600 1.498200
7.541000 1.385400
7.565400 1.077200
7.589800 0.900100
7.614200 1.025300
7.638600 1.273800
7.663000 1.371800
7.687400 1.263700
7.711800 1.124800
7.736200 1.089600
7.760600 1.099100
7.785000 1.067900
7.809400 0.989400
7.833800 0.866100
7.858200 0.741900
7.882600 0.726200
7.907100 0.863000
7.931500 1.064000
7.955900 1.219200
7.980300 1.305600
8.004700 1.387600
8.029100 1.532200
8.053500 1.712200
8.077900 1.841600
8.102300 1.869700
8.126700 1.793100
8.151100 1.659900
8.175500 1.587700
8.199900 1.676500
8.224300 1.888300
8.248700 2.050600
8.273100 2.028500
8.297600 1.885500
8.322000 1.792300
8.346400 1.783900
8.370800 1.703900
8.395200 1.471600
8.419600 1.225900
8.444000 1.139700
8.468400 1.263600
8.492800 1.489500
8.517200 1.669500
8.541600 1.822600
8.566000 2.074600
8.590400 2.370600
8.614800 2.434200
8.639200 2.127100
8.663600 1.672500
8.688100 1.415200
8.712500 1.440300
8.736900 1.512400
8.761300 1.467100
8.785700 1.478800
8.810100 1.822900
8.834500 2.522600
8.858900 3.254100
8.883300 3.595800
8.907700 3.398500
8.932100 2.891400
8.956500 2.419300
8.980900 2.114600
9.005300 1.856700
9.029700 1.583200
9.054100 1.437800
9.078600 1.453500
9.103000 1.462200
9.127400 1.396400
9.151800 1.336400
9.176200 1.323100
9.200600 1.319000
9.225000 1.318200
9.249400 1.361700
9.273800 1.409100
9.298200 1.356300
9.322600 1.238800
9.347000 1.218200
9.371400 1.355000
9.395800 1.532700
9.420200 1.577400
9.444600 1.471200
9.469000 1.397700
9.493500 1.495800
9.517900 1.698800
9.542300 1.829500
9.566700 1.801900
9.591100 1.686200
9.615500 1.590800
9.639900 1.572000
9.664300 1.591600
9.688700 1.531000
9.713100 1.381600
9.737500 1.260400
9.761900 1.158500
9.786300 1.025700
9.810700 0.986100
9.835100 1.157500
9.859500 1.414900
9.884000 1.596200
9.908400 1.741800
9.932800 1.843800
9.957200 1.759900
9.981600 1.488100
10.006000 1.157000
10.030400 0.909300
10.054800 0.887700
10.079200 1.109500
10.103600 1.387700
10.128000 1.542400
10.152400 1.591400
10.176800 1.663100
10.201200 1.831800
10.225600 2.018500
10.250000 2.064600
10.274500 1.938000
10.298900 1.798400
10.323300 1.789000
10.347700 1.809900
10.372100 1.672700
10.396500 1.402000
10.420900 1.212200
10.445300 1.271100
10.469700 1.611500
10.494100 2.177600
10.518500 2.702400
10.542900 2.804900
10.567300 2.503500
10.591700 2.210300
10.616100 2.097700
10.640500 1.941400
10.665000 1.643400
10.689400 1.460400
10.713800 1.628400
10.738200 1.995300
10.762600 2.161800
10.787000 1.990900
10.811400 1.677000
10.835800 1.384000
10.860200 1.181800
10.884600 1.155000
10.909000 1.297500
10.933400 1.408200
10.957800 1.331700
10.982200 1.187400
11.006600 1.161200
11.031000 1.324400
11.055500 1.653000
11.079900 1.957600
11.104300 2.010500
11.128700 1.829100
11.153100 1.629300
11.177500 1.605000
11.201900 1.744600
11.226300 1.860000
11.250700 1.837400
11.275100 1.680100
11.299500 1.511800
11.323900 1.561400
11.348300 1.843300
11.372700 2.099300
11.397100 2.206600
11.421500 2.206900
11.445900 2.035500
11.470400 1.685500
11.494800 1.340200
11.519200 1.129700
11.543600 1.093700
11.568000 1.298600
11.592400 1.668200
11.616800 1.898300
11.641200 1.814100
11.665600 1.628200
11.690000 1.662700
11.714400 1.898200
11.738800 1.993100
11.763200 1.789600
11.787600 1.556100
11.812000 1.585100
11.836400 1.807100
11.860900 2.012600
11.885300 2.138000
11.909700 2.193800
11.934100 2.196700
11.958500 2.143200
11.982900 2.011600
12.007300 1.902900
12.031700 2.022000
12.056100 2.308700
12.080500 2.373100
12.104900 2.042600
12.129300 1.586100
12.153700 1.323600
12.178100 1.324100
12.202500 1.453100
12.226900 1.565900
12.251400 1.600300
12.275800 1.534900
12.300200 1.381300
12.324600 1.211800
12.349000 1.109400
12.373400 1.102100
12.397800 1.169700
12.422200 1.265700
12.446600 1.345400
12.471000 1.438300
12.495400 1.628700
12.519800 1.842500
12.544200 1.855000
12.568600 1.596700
12.593000 1.257100
12.617400 1.109000
12.641900 1.261300
12.666300 1.582700
12.690700 1.863400
12.715100 1.997400
12.739500 2.029600
12.763900 2.091800
12.788300 2.307300
12.812700 2.648100
12.837100 2.844200
12.861500 2.608600
12.885900 1.984200
12.910300 1.336400
12.934700 0.994600
12.959100 0.961000
12.983500 1.002700
13.007900 0.987500
13.032400 1.013300
13.056800 1.242200
13.081200 1.701600
13.105600 2.171600
13.130000 2.361500
13.154400 2.257600
13.178800 2.053800
13.203200 1.908900
13.227600 1.876800
13.252000 1.836000
13.276400 1.663800
13.300800 1.511600
13.325200 1.602000
13.349600 1.896800
13.374000 2.188100
13.398400 2.301600
13.422900 2.207900
13.447300 2.131000
13.471700 2.292900
13.496100 2.537900
13.520500 2.565600
13.544900 2.396800
13.569300 2.263700
13.593700 2.188600
13.618100 2.080100
13.642500 2.006500
13.666900 2.060800
13.691300 2.232900
13.715700 2.445500
13.740100 2.551700
13.764500 2.456200
13.788900 2.300900
13.813300 2.350300
13.837800 2.661000
13.862200 2.969700
13.886600 2.969500
13.911000 2.592700
13.935400 2.051200
13.959800 1.719600
13.984200 1.805900
14.008600 2.132500
14.033000 2.387000
14.057400 2.449700
14.081800 2.390500
14.106200 2.263400
14.130600 2.088400
14.155000 1.962700
14.179400 1.918400
14.203800 1.862600
14.228300 1.829700
14.252700 1.918400
14.277100 2.024700
14.301500 2.052100
14.325900 2.140800
14.350300 2.355400
14.374700 2.464400
14.399100 2.255700
14.423500 1.869300
14.447900 1.676400
14.472300 1.866500
14.496700 2.205600
14.521100 2.304000
14.545500 2.149100
14.569900 2.050800
14.594300 2.035300
14.618800 1.842100
14.643200 1.526900
14.667600 1.440100
14.692000 1.666400
14.716400 1.962100
14.740800 2.106500
14.765200 2.074500
14.789600 1.993400
14.814000 1.979500
14.838400 1.935600
14.862800 1.714900
14.887200 1.503200
14.911600 1.666200
14.936000 2.222200
14.960400 2.744400
14.984800 2.825100
15.009300 2.483500
15.033700 2.072700
15.058100 1.885900
15.082500 1.954400
15.106900 2.190000
15.131300 2.509400
15.155700 2.816800
15.180100 3.009700
15.204500 3.013800
15.228900 2.816100
15.253300 2.485500
15.277700 2.124800
15.302100 1.812200
15.326500 1.588100
15.350900 1.454200
15.375300 1.426300
15.399800 1.496200
15.424200 1.570100
15.448600 1.630600
15.473000 1.756300
15.497400 1.898700
15.521800 1.912500
15.546200 1.763400
15.570600 1.557700
15.595000 1.445000
15.619400 1.502400
15.643800 1.669400
15.668200 1.826500
15.692600 1.856600
15.717000 1.692600
15.741400 1.428400
15.765800 1.226500
15.790300 1.167000
15.814700 1.260800
15.839100 1.437000
15.863500 1.535500
15.887900 1.500900
15.912300 1.487300
15.936700 1.609500
15.961100 1.756100
15.985500 1.830000
16.009900 1.966300
16.034300 2.229700
16.058700 2.339300
16.083100 2.095300
16.107500 1.805600
16.131900 1.897800
16.156300 2.342800
16.180700 2.700300
16.205200 2.645600
16.229600 2.316200
16.254000 2.076200
16.278400 2.047900
16.302800 2.061800
16.327200 2.033100
16.351600 2.147900
16.376000 2.570800
16.400400 3.067400
16.424800 3.181900
16.449200 2.888600
16.473600 2.630900
16.498000 2.653900
16.522400 2.777500
16.546800 2.730300
16.571200 2.461200
16.595700 2.200500
16.620100 2.148700
16.644500 2.206800
16.668900 2.195800
16.693300 2.075400
16.717700 1.872200
16.742100 1.653900
16.766500 1.533900
16.790900 1.578800
16.815300 1.728600
16.839700 1.888700
16.864100 2.055900
16.888500 2.201400
16.912900 2.199200
16.937300 2.066200
16.961700 1.986700
16.986200 2.077000
17.010600 2.314600
17.035000 2.519400
17.059400 2.480600
17.083800 2.343700
17.108200 2.475000
17.132600 2.794600
17.157000 2.867700
17.181400 2.554900
17.205800 2.056000
17.230200 1.605800
17.254600 1.331400
17.279000 1.232200
17.303400 1.220700
17.327800 1.244800
17.352200 1.397000
17.376700 1.723600
17.401100 1.992500
17.425500 2.003200
17.449900 1.974000
17.474300 2.171700
17.498700 2.397900
17.523100 2.292400
17.547500 1.952500
17.571900 1.775500
17.596300 1.861800
17.620700 1.999100
17.645100 2.011100
17.669500 1.899200
17.693900 1.781000
17.718300 1.785600
17.742700 1.951200
17.767200 2.129700
17.791600 2.154600
17.816000 2.067300
17.840400 1.951900
17.864800 1.787500
17.889200 1.634500
17.913600 1.693200
17.938000 2.015400
17.962400 2.367800
17.986800 2.465600
18.011200 2.226800
18.035600 1.878700
18.060000 1.778600
18.084400 1.942300
18.108800 2.039500
18.133200 1.991400
18.157600 2.023100
18.182100 2.125400
18.206500 2.059400
18.230900 1.841200
18.255300 1.730300
18.279700 1.824400
18.304100 2.059800
18.328500 2.383300
18.352900 2.659900
18.377300 2.703900
18.401700 2.537800
18.426100 2.322100
18.450500 2.066200
18.474900 1.775200
18.499300 1.608600
18.523700 1.587000
18.548100 1.564600
18.572600 1.500500
18.597000 1.420600
18.621400 1.290700
18.645800 1.116100
18.670200 1.019200
18.694600 1.077400
18.719000 1.242200
18.743400 1.470000
18.767800 1.718400
18.792200 1.858700
18.816600 1.817200
18.841000 1.711600
18.865400 1.670400
18.889800 1.694800
18.914200 1.798900
18.938600 1.982700
18.963100 2.040800
18.987500 1.825700
19.011900 1.628800
19.036300 1.853400
19.060700 2.407000
19.085100 2.809500
19.109500 2.822100
19.133900 2.581600
19.158300 2.256100
19.182700 1.911600
19.207100 1.624000
19.231500 1.466500
19.255900 1.437200
19.280300 1.555700
19.304700 1.840400
19.329100 2.152200
19.353600 2.307100
19.378000 2.286800
19.402400 2.155400
19.426800 1.893400
19.451200 1.540900
19.475600 1.275500
19.500000 1.178700
19.524400 1.228500
19.548800 1.474200
19.573200 1.880300
19.597600 2.149200
19.622000 2.077200
19.646400 1.859000
19.670800 1.780300
19.695200 1.896000
19.719600 2.107600
19.744100 2.289000
19.768500 2.319500
19.792900 2.189700
19.817300 2.029100
19.841700 1.968000
19.866100 2.007400
19.890500 2.018800
19.914900 1.906500
19.939300 1.735800
19.963700 1.643200
19.988100 1.704600
20.012500 1.955400
20.036900 2.333400
20.061300 2.590400
20.085700 2.576200
20.110100 2.467900
20.134600 2.433600
20.159000 2.353800
20.183400 2.147700
20.207800 2.036200
20.232200 2.173500
20.256600 2.375800
20.281000 2.426500
20.305400 2.334300
20.329800 2.215300
20.354200 2.140600
20.378600 2.103200
20.403000 2.071600
20.427400 2.002400
20.451800 1.825100
20.476200 1.577000
20.500600 1.391200
20.525000 1.281400
20.549500 1.246600
20.573900 1.463100
20.598300 2.031900
20.622700 2.634800
20.647100 2.758300
20.671500 2.363100
20.695900 1.940500
20.720300 1.822100
20.744700 1.884500
20.769100 1.924900
20.793500 1.885700
20.817900 1.759500
20.842300 1.674000
