set title 'mp-973111 - Density of States'
set xlabel 'Energy (eV)'
set ylabel 'DOS (states/eV)'
set grid
set xrange [-10:10]
set yrange [0:76.219]
set xzeroaxis lt -1
set terminal png size 800,600
set output 'mp-973111_dos_gnuplot.png'
plot '-' using 1:2 with lines title 'DOS'
-10.583800 0.000000
-10.556000 0.000000
-10.528100 0.000000
-10.500200 0.000000
-10.472300 0.000000
-10.444500 0.000000
-10.416600 0.000000
-10.388700 0.000000
-10.360900 0.000000
-10.333000 0.000000
-10.305100 0.000000
-10.277200 0.000000
-10.249400 0.000000
-10.221500 0.000000
-10.193600 0.000000
-10.165700 0.000000
-10.137900 0.000000
-10.110000 0.000000
-10.082100 0.000000
-10.054300 0.000000
-10.026400 0.000000
-9.998500 0.000000
-9.970600 0.000000
-9.942800 0.000000
-9.914900 0.000000
-9.887000 0.000000
-9.859200 0.000000
-9.831300 0.000000
-9.803400 0.000000
-9.775500 0.000000
-9.747700 0.000000
-9.719800 0.000000
-9.691900 0.000000
-9.664100 0.000000
-9.636200 0.000000
-9.608300 0.000000
-9.580400 0.000000
-9.552600 0.000000
-9.524700 0.000000
-9.496800 0.000000
-9.468900 0.000000
-9.441100 0.000000
-9.413200 0.000000
-9.385300 0.000000
-9.357500 0.000000
-9.329600 0.000000
-9.301700 0.000000
-9.273800 0.000000
-9.246000 0.000000
-9.218100 0.000000
-9.190200 0.000000
-9.162400 0.000000
-9.134500 0.000000
-9.106600 0.000000
-9.078700 0.000000
-9.050900 0.000000
-9.023000 0.000000
-8.995100 0.000000
-8.967200 0.000000
-8.939400 0.000000
-8.911500 0.000000
-8.883600 0.000000
-8.855800 0.000000
-8.827900 0.000000
-8.800000 0.000000
-8.772100 0.000000
-8.744300 0.000000
-8.716400 0.000000
-8.688500 0.000000
-8.660700 0.000000
-8.632800 0.000000
-8.604900 0.000000
-8.577000 0.000000
-8.549200 0.000000
-8.521300 0.000000
-8.493400 0.000000
-8.465600 0.000000
-8.437700 0.000000
-8.409800 0.000000
-8.381900 0.000000
-8.354100 0.000000
-8.326200 0.000000
-8.298300 0.000000
-8.270400 0.000000
-8.242600 0.000000
-8.214700 0.000000
-8.186800 0.000000
-8.159000 0.000000
-8.131100 0.000000
-8.103200 0.000000
-8.075300 0.000000
-8.047500 0.798900
-8.019600 7.065000
-7.991700 15.841400
-7.963900 48.174800
-7.936000 54.562800
-7.908100 49.569000
-7.880200 55.211900
-7.852400 54.542400
-7.824500 58.157800
-7.796600 35.703300
-7.768700 65.507400
-7.740900 47.715800
-7.713000 40.685500
-7.685100 55.867500
-7.657300 67.791400
-7.629400 69.289800
-7.601500 0.000000
-7.573600 0.000000
-7.545800 0.000000
-7.517900 0.000000
-7.490000 0.000000
-7.462200 0.000000
-7.434300 0.000000
-7.406400 0.000000
-7.378500 0.000000
-7.350700 0.000000
-7.322800 0.000000
-7.294900 0.000000
-7.267100 0.000000
-7.239200 0.000000
-7.211300 0.000000
-7.183400 0.000000
-7.155600 0.000000
-7.127700 0.000000
-7.099800 0.000000
-7.071900 0.000000
-7.044100 0.000000
-7.016200 0.000000
-6.988300 0.000000
-6.960500 0.000000
-6.932600 0.000000
-6.904700 0.000000
-6.876800 0.000000
-6.849000 0.000000
-6.821100 0.000000
-6.793200 0.000000
-6.765400 0.000000
-6.737500 0.000000
-6.709600 0.000000
-6.681700 0.000000
-6.653900 0.000000
-6.626000 0.000000
-6.598100 0.000000
-6.570200 0.000000
-6.542400 0.000000
-6.514500 0.000000
-6.486600 0.000000
-6.458800 0.000000
-6.430900 0.000000
-6.403000 0.000000
-6.375100 0.000000
-6.347300 0.000000
-6.319400 0.000000
-6.291500 0.000000
-6.263700 0.000000
-6.235800 0.000000
-6.207900 0.000000
-6.180000 0.000000
-6.152200 0.000000
-6.124300 0.000000
-6.096400 0.000000
-6.068500 0.000000
-6.040700 0.000000
-6.012800 0.000000
-5.984900 0.000000
-5.957100 0.000000
-5.929200 0.000000
-5.901300 0.000000
-5.873400 0.000000
-5.845600 0.000000
-5.817700 0.000000
-5.789800 0.000000
-5.762000 0.000000
-5.734100 0.000000
-5.706200 0.000000
-5.678300 0.000000
-5.650500 0.000000
-5.622600 0.000000
-5.594700 0.000000
-5.566900 0.000000
-5.539000 0.000000
-5.511100 0.000000
-5.483200 0.000000
-5.455400 0.000000
-5.427500 0.000000
-5.399600 0.000000
-5.371700 0.000000
-5.343900 0.000000
-5.316000 0.000000
-5.288100 0.000000
-5.260300 0.000000
-5.232400 0.000000
-5.204500 0.000000
-5.176600 0.000000
-5.148800 0.000000
-5.120900 0.000000
-5.093000 0.000000
-5.065200 0.000000
-5.037300 0.000000
-5.009400 0.000000
-4.981500 0.000000
-4.953700 0.000000
-4.925800 0.000000
-4.897900 0.000000
-4.870000 0.000000
-4.842200 0.000000
-4.814300 0.000000
-4.786400 0.000000
-4.758600 0.000000
-4.730700 0.000000
-4.702800 0.000000
-4.674900 0.000000
-4.647100 0.000000
-4.619200 0.000000
-4.591300 0.000000
-4.563500 0.000000
-4.535600 0.000000
-4.507700 0.000000
-4.479800 0.000000
-4.452000 0.000000
-4.424100 0.000000
-4.396200 0.000000
-4.368400 0.000000
-4.340500 0.000000
-4.312600 0.000000
-4.284700 0.000000
-4.256900 0.000000
-4.229000 0.000000
-4.201100 0.000000
-4.173200 0.000000
-4.145400 0.000000
-4.117500 0.000000
-4.089600 0.000000
-4.061800 0.000000
-4.033900 0.000000
-4.006000 0.000000
-3.978100 0.000000
-3.950300 0.000000
-3.922400 0.000000
-3.894500 0.000000
-3.866700 0.000000
-3.838800 0.000000
-3.810900 0.000000
-3.783000 0.000000
-3.755200 0.000000
-3.727300 0.000000
-3.699400 0.000000
-3.671500 0.000000
-3.643700 0.000000
-3.615800 0.000000
-3.587900 0.000000
-3.560100 0.000000
-3.532200 0.000000
-3.504300 0.000000
-3.476400 0.000000
-3.448600 0.000000
-3.420700 0.000000
-3.392800 0.000000
-3.365000 0.000000
-3.337100 0.000000
-3.309200 0.000000
-3.281300 0.000000
-3.253500 0.000000
-3.225600 0.000000
-3.197700 0.000000
-3.169900 0.000000
-3.142000 0.000000
-3.114100 0.000000
-3.086200 0.000000
-3.058400 0.000000
-3.030500 0.000000
-3.002600 0.000000
-2.974700 0.000000
-2.946900 0.000000
-2.919000 0.000000
-2.891100 0.000000
-2.863300 0.000000
-2.835400 0.000000
-2.807500 0.000000
-2.779600 0.000000
-2.751800 0.000000
-2.723900 0.000000
-2.696000 0.000000
-2.668200 0.000000
-2.640300 0.000000
-2.612400 0.000000
-2.584500 0.000000
-2.556700 0.000000
-2.528800 0.000000
-2.500900 0.000000
-2.473000 0.000000
-2.445200 0.000000
-2.417300 0.000000
-2.389400 0.000000
-2.361600 0.000000
-2.333700 0.000000
-2.305800 0.003000
-2.277900 0.025500
-2.250100 0.069600
-2.222200 0.101600
-2.194300 0.110000
-2.166500 0.113200
-2.138600 0.128400
-2.110700 0.144200
-2.082800 0.160600
-2.055000 0.176100
-2.027100 0.185900
-1.999200 0.189600
-1.971300 0.192400
-1.943500 0.199100
-1.915600 0.207400
-1.887700 0.215900
-1.859900 0.224300
-1.832000 0.232700
-1.804100 0.241200
-1.776200 0.250100
-1.748400 0.259400
-1.720500 0.265200
-1.692600 0.269100
-1.664800 0.272800
-1.636900 0.277900
-1.609000 0.282800
-1.581100 0.287600
-1.553300 0.292400
-1.525400 0.297400
-1.497500 0.302600
-1.469700 0.308200
-1.441800 0.314100
-1.413900 0.320200
-1.386000 0.326500
-1.358200 0.332900
-1.330300 0.339400
-1.302400 0.345100
-1.274500 0.362800
-1.246700 0.387900
-1.218800 0.410400
-1.190900 0.383700
-1.163100 0.386000
-1.135200 0.388100
-1.107300 0.390000
-1.079400 0.391600
-1.051600 0.393100
-1.023700 0.391300
-0.995800 0.388600
-0.968000 0.386400
-0.940100 0.387000
-0.912200 0.388400
-0.884300 0.389700
-0.856500 0.391000
-0.828600 0.392300
-0.800700 0.393500
-0.772800 0.394700
-0.745000 0.395200
-0.717100 0.394800
-0.689200 0.403800
-0.661400 0.429800
-0.633500 0.457700
-0.605600 0.436200
-0.577700 0.440700
-0.549900 0.445500
-0.522000 0.451100
-0.494100 0.456900
-0.466300 0.463000
-0.438400 0.466000
-0.410500 0.467300
-0.382600 0.468500
-0.354800 0.471900
-0.326900 0.476300
-0.299000 0.480500
-0.271200 0.483700
-0.243300 0.487000
-0.215400 0.490700
-0.187500 0.495500
-0.159700 0.500300
-0.131800 0.505300
-0.103900 0.505700
-0.076000 0.509500
-0.048200 0.512800
-0.020300 0.515700
0.007600 0.518500
0.035400 0.521500
0.063300 0.525000
0.091200 0.528200
0.119100 0.531600
0.146900 0.535000
0.174800 0.538300
0.202700 0.541700
0.230500 0.545100
0.258400 0.548600
0.286300 0.550600
0.314200 0.552700
0.342000 0.554800
0.369900 0.557100
0.397800 0.560200
0.425700 0.563300
0.453500 0.566600
0.481400 0.570100
0.509300 0.573500
0.537100 0.577000
0.565000 0.580500
0.592900 0.584100
0.620800 0.587700
0.648600 0.591500
0.676500 0.595300
0.704400 0.599200
0.732200 0.602900
0.760100 0.606300
0.788000 0.609700
0.815900 0.613400
0.843700 0.616900
0.871600 0.619000
0.899500 0.621900
0.927300 0.624700
0.955200 0.627300
0.983100 0.629800
1.011000 0.632400
1.038800 0.635500
1.066700 0.638800
1.094600 0.642200
1.122500 0.645600
1.150300 0.649100
1.178200 0.652600
1.206100 0.656200
1.233900 0.660000
1.261800 0.664100
1.289700 0.668600
1.317600 0.673100
1.345400 0.677800
1.373300 0.682600
1.401200 0.687600
1.429000 0.692700
1.456900 0.697900
1.484800 0.703200
1.512700 0.708600
1.540500 0.713600
1.568400 0.718700
1.596300 0.723800
1.624200 0.729300
1.652000 0.739900
1.679900 0.757900
1.707800 0.773200
1.735600 0.779200
1.763500 0.784300
1.791400 0.789400
1.819300 0.794400
1.847100 0.799500
1.875000 0.806400
1.902900 0.850800
1.930700 0.881900
1.958600 0.878400
1.986500 0.863600
2.014400 0.844300
2.042200 0.828700
2.070100 0.821800
2.098000 0.819600
2.125900 0.817100
2.153700 0.808800
2.181600 0.802300
2.209500 0.797300
2.237300 0.793900
2.265200 0.792100
2.293100 0.790600
2.321000 0.788700
2.348800 0.786800
2.376700 0.784800
2.404600 0.782700
2.432400 0.780500
2.460300 0.775900
2.488200 0.776000
2.516100 0.787500
2.543900 0.810400
2.571800 0.813600
2.599700 0.786200
2.627500 0.759200
2.655400 0.766800
2.683300 0.755200
2.711200 0.744600
2.739000 0.733500
2.766900 0.721300
2.794800 0.708300
2.822700 0.698300
2.850500 0.693200
2.878400 0.743200
2.906300 0.719800
2.934100 0.701000
2.962000 0.686900
2.989900 0.692100
3.017800 0.705800
3.045600 0.721000
3.073500 0.737600
3.101400 0.755800
3.129200 0.757900
3.157100 0.759600
3.185000 0.795800
3.212900 0.811800
3.240700 0.829000
3.268600 0.856600
3.296500 0.919300
3.324400 1.001600
3.352200 1.009400
3.380100 1.202200
3.408000 1.049900
3.435800 1.033400
3.463700 1.017900
3.491600 1.001400
3.519500 0.950300
3.547300 0.953100
3.575200 0.956300
3.603100 0.959700
3.630900 0.963100
3.658800 0.966700
3.686700 0.971500
3.714600 0.965600
3.742400 0.949700
3.770300 0.933500
3.798200 0.920600
3.826000 0.903300
3.853900 0.889500
3.881800 0.897400
3.909700 0.912600
3.937500 0.933700
3.965400 0.946900
3.993300 0.922100
4.021200 0.880100
4.049000 0.825700
4.076900 0.761600
4.104800 0.687800
4.132600 0.590700
4.160500 0.568400
4.188400 0.562900
4.216300 0.566500
4.244100 0.562500
4.272000 0.557500
4.299900 0.551500
4.327700 0.512700
4.355600 0.503600
4.383500 0.484800
4.411400 0.422500
4.439200 0.410900
4.467100 0.429900
4.495000 0.454800
4.522900 0.453000
4.550700 0.437400
4.578600 0.418700
4.606500 0.437100
4.634300 0.421600
4.662200 0.411900
4.690100 0.404500
4.718000 0.407700
4.745800 0.421700
4.773700 0.441400
4.801600 0.461900
4.829400 0.483000
4.857300 0.504700
4.885200 0.495900
4.913100 0.507900
4.940900 0.520200
4.968800 0.534500
4.996700 0.551600
5.024500 0.570900
5.052400 0.592700
5.080300 0.620000
5.108200 0.672500
5.136000 0.709700
5.163900 0.733400
5.191800 0.751400
5.219700 0.769600
5.247500 0.789800
5.275400 0.853800
5.303300 0.931400
5.331100 0.969000
5.359000 0.987800
5.386900 1.009700
5.414800 1.029400
5.442600 1.046700
5.470500 1.061400
5.498400 1.073500
5.526200 1.085100
5.554100 1.101200
5.582000 1.140800
5.609900 1.185800
5.637700 1.263300
5.665600 1.393700
5.693500 1.241200
5.721400 1.160400
5.749200 1.168500
5.777100 1.170100
5.805000 1.164800
5.832800 1.153800
5.860700 1.144100
5.888600 1.136400
5.916500 1.130600
5.944300 1.127300
5.972200 1.132000
6.000100 1.169100
6.027900 1.164800
6.055800 1.153100
6.083700 1.136800
6.111600 1.118500
6.139400 1.113600
6.167300 1.088700
6.195200 1.044600
6.223100 1.003100
6.250900 0.946200
6.278800 0.922200
6.306700 0.901600
6.334500 0.886600
6.362400 0.873300
6.390300 0.861800
6.418200 0.851200
6.446000 0.841000
6.473900 0.830600
6.501800 0.826300
6.529600 0.828900
6.557500 0.833700
6.585400 0.837500
6.613300 0.846600
6.641100 0.856700
6.669000 0.867100
6.696900 0.874300
6.724700 0.888500
6.752600 0.904500
6.780500 0.921900
6.808400 0.940600
6.836200 0.959200
6.864100 0.977400
6.892000 0.996700
6.919900 1.016200
6.947700 1.037000
6.975600 1.058600
7.003500 1.081200
7.031300 1.106400
7.059200 1.137500
7.087100 1.168000
7.115000 1.187100
7.142800 1.201600
7.170700 1.216300
7.198600 1.225600
7.226400 1.232900
7.254300 1.236700
7.282200 1.239300
7.310100 1.232900
7.337900 1.215900
7.365800 1.200300
7.393700 1.180900
7.421600 1.158900
7.449400 1.133000
7.477300 1.102600
7.505200 1.082000
7.533000 1.062800
7.560900 1.045500
7.588800 1.030900
7.616700 1.012000
7.644500 0.996800
7.672400 0.985000
7.700300 0.983400
7.728100 1.007100
7.756000 1.034100
7.783900 1.057000
7.811800 1.078600
7.839600 1.097900
7.867500 1.114000
7.895400 1.127500
7.923200 1.139000
7.951100 1.147800
7.979000 1.153500
8.006900 1.156300
8.034700 1.156300
8.062600 1.152000
8.090500 1.151000
8.118400 1.154500
8.146200 1.167300
8.174100 1.187100
8.202000 1.206200
8.229800 1.179800
8.257700 1.135000
8.285600 1.094800
8.313500 1.066200
8.341300 1.052500
8.369200 1.037500
8.397100 1.024300
8.424900 1.005300
8.452800 0.988500
8.480700 0.980700
8.508600 0.955300
8.536400 0.953000
8.564300 0.952200
8.592200 0.958300
8.620100 0.966600
8.647900 0.979400
8.675800 0.990700
8.703700 1.016200
8.731500 1.037300
8.759400 1.051900
8.787300 1.067300
8.815200 1.085300
8.843000 1.124500
8.870900 1.170800
8.898800 1.170700
8.926600 1.189200
8.954500 1.206600
8.982400 1.226900
9.010300 1.242000
9.038100 1.235900
9.066000 1.223500
9.093900 1.208900
9.121700 1.197100
9.149600 1.186100
9.177500 1.141600
9.205400 1.120800
9.233200 1.123900
9.261100 1.130500
9.289000 1.243100
9.316900 1.274400
9.344700 1.160700
9.372600 1.109100
9.400500 1.100000
9.428300 1.090100
9.456200 1.078800
9.484100 1.068300
9.512000 1.065000
9.539800 1.061800
9.567700 1.058500
9.595600 1.055400
9.623400 1.053200
9.651300 1.057600
9.679200 1.065500
9.707100 1.073800
9.734900 1.084500
9.762800 1.095200
9.790700 1.104000
9.818600 1.113700
9.846400 1.124900
9.874300 1.153900
9.902200 1.162300
9.930000 1.166600
9.957900 1.168800
9.985800 1.182200
10.013700 1.190300
10.041500 1.198000
10.069400 1.208500
10.097300 1.220500
10.125100 1.233100
10.153000 1.246400
10.180900 1.260400
10.208800 1.289000
10.236600 1.314000
10.264500 1.354400
10.292400 1.405400
10.320300 1.456200
10.348100 1.457900
10.376000 1.443300
10.403900 1.426700
10.431700 1.408200
10.459600 1.389700
10.487500 1.386300
10.515400 1.381300
10.543200 1.467900
10.571100 1.488800
10.599000 1.442500
10.626800 1.427300
10.654700 1.424300
10.682600 1.436400
10.710500 1.452900
10.738300 1.472800
10.766200 1.478500
10.794100 1.451600
10.821900 1.426300
10.849800 1.408400
10.877700 1.331100
10.905600 1.326000
10.933400 1.321200
10.961300 1.316500
10.989200 1.311600
11.017100 1.306900
11.044900 1.303500
11.072800 1.304400
11.100700 1.314700
11.128500 1.317200
11.156400 1.317200
11.184300 1.316300
11.212200 1.315200
11.240000 1.345600
11.267900 1.391000
11.295800 1.435300
11.323600 1.460400
11.351500 1.397300
11.379400 1.347500
11.407300 1.359300
11.435100 1.354800
11.463000 1.349900
11.490900 1.344900
11.518800 1.345200
11.546600 1.381800
11.574500 1.409200
11.602400 1.420000
11.630200 1.426400
11.658100 1.403000
11.686000 1.379200
11.713900 1.352900
11.741700 1.322000
11.769600 1.310900
11.797500 1.298600
11.825300 1.284800
11.853200 1.283400
11.881100 1.288600
11.909000 1.296600
11.936800 1.290000
11.964700 1.281900
11.992600 1.274100
12.020400 1.265900
12.048300 1.251200
12.076200 1.245700
12.104100 1.249800
12.131900 1.257300
12.159800 1.262400
12.187700 1.352800
12.215600 1.314600
12.243400 1.330200
12.271300 1.345700
12.299200 1.358000
12.327000 1.408300
12.354900 1.365200
12.382800 1.329400
12.410700 1.295000
12.438500 1.262800
12.466400 1.238400
12.494300 1.236800
12.522100 1.247900
12.550000 1.268900
12.577900 1.238600
12.605800 1.254300
12.633600 1.285400
12.661500 1.333100
12.689400 1.380400
12.717300 1.436000
12.745100 1.502400
12.773000 1.516400
12.800900 1.527700
12.828700 1.537600
12.856600 1.544300
12.884500 1.554800
12.912400 1.571900
12.940200 1.590500
12.968100 1.603500
12.996000 1.609700
13.023800 1.577900
13.051700 1.574800
13.079600 1.577900
13.107500 1.582100
13.135300 1.584900
13.163200 1.563600
13.191100 1.555000
13.218900 1.545900
13.246800 1.535400
13.274700 1.523800
13.302600 1.517400
13.330400 1.501500
13.358300 1.483700
13.386200 1.465000
13.414100 1.447400
13.441900 1.430900
13.469800 1.417200
13.497700 1.403700
13.525500 1.398900
13.553400 1.391400
13.581300 1.378400
13.609200 1.360100
13.637000 1.344000
13.664900 1.368200
13.692800 1.387400
13.720600 1.401300
13.748500 1.209900
13.776400 1.206300
13.804300 1.206300
13.832100 1.198100
13.860000 1.185300
13.887900 1.175200
13.915800 1.130300
13.943600 1.081100
13.971500 1.048600
13.999400 1.021300
14.027200 0.975700
14.055100 0.955600
14.083000 0.953200
14.110900 0.951300
14.138700 0.951700
14.166600 0.950600
14.194500 0.949800
14.222300 0.950400
14.250200 0.953600
14.278100 0.949700
14.306000 0.950200
14.333800 0.948100
14.361700 0.947700
14.389600 0.953200
14.417500 0.962600
14.445300 0.973300
14.473200 0.985100
14.501100 0.998100
14.528900 1.014400
14.556800 1.044700
14.584700 1.084300
14.612600 1.133600
14.640400 1.200400
14.668300 1.243800
14.696200 1.244000
14.724000 1.226900
14.751900 1.225400
14.779800 1.233800
14.807700 1.225300
14.835500 1.213800
14.863400 1.201800
14.891300 1.188000
14.919100 1.166000
14.947000 1.150200
14.974900 1.142800
15.002800 1.132400
15.030600 1.131700
15.058500 1.128600
15.086400 1.126200
15.114300 1.124600
15.142100 1.121900
15.170000 1.121400
15.197900 1.121900
15.225700 1.123900
15.253600 1.125700
15.281500 1.127500
15.309400 1.129500
15.337200 1.132100
15.365100 1.152700
15.393000 1.156700
15.420800 1.160400
15.448700 1.164000
15.476600 1.169000
15.504500 1.170100
15.532300 1.173400
15.560200 1.181000
15.588100 1.192000
15.616000 1.206700
15.643800 1.235600
15.671700 1.188800
15.699600 1.178800
15.727400 1.170300
15.755300 1.164600
15.783200 1.162700
15.811100 1.167500
15.838900 1.174500
15.866800 1.194800
15.894700 1.219600
15.922500 1.248600
15.950400 1.281200
15.978300 1.316200
16.006200 1.354800
16.034000 1.431100
16.061900 1.492200
16.089800 1.558000
16.117600 1.669800
16.145500 1.744400
16.173400 1.818100
16.201300 1.853600
16.229100 1.877200
16.257000 1.942100
16.284900 1.987800
16.312800 1.858500
16.340600 1.830600
16.368500 1.797400
16.396400 1.783400
16.424200 1.764100
16.452100 1.727100
16.480000 1.686600
16.507900 1.647000
16.535700 1.613100
16.563600 1.583600
16.591500 1.560300
16.619300 1.540800
16.647200 1.522700
16.675100 1.509500
16.703000 1.508400
16.730800 1.469400
16.758700 1.523000
16.786600 1.496400
16.814500 1.486500
16.842300 1.470900
16.870200 1.468800
16.898100 1.471900
16.925900 1.617400
16.953800 1.438000
16.981700 1.456400
17.009600 1.540700
17.037400 1.711300
17.065300 1.893100
17.093200 1.771700
17.121000 1.795200
17.148900 1.829400
17.176800 1.868400
17.204700 1.793700
17.232500 1.776500
17.260400 1.745300
17.288300 1.722300
17.316100 1.702500
17.344000 1.691100
17.371900 1.688300
17.399800 1.671100
17.427600 1.624200
17.455500 1.603200
17.483400 1.582600
17.511300 1.593100
17.539100 1.537500
17.567000 1.490400
17.594900 1.478000
17.622700 1.469700
17.650600 1.466600
17.678500 1.423700
17.706400 1.403800
17.734200 1.393800
17.762100 1.414200
17.790000 1.466900
17.817800 1.359000
17.845700 1.239900
17.873600 1.234200
17.901500 1.228900
17.929300 1.226200
17.957200 1.208000
17.985100 1.302900
18.013000 1.235100
18.040800 1.193500
18.068700 1.154500
18.096600 1.125900
18.124400 1.101800
18.152300 1.079600
18.180200 1.059300
18.208100 1.040900
18.235900 1.027500
18.263800 1.016800
18.291700 1.015000
18.319500 1.019500
18.347400 1.030800
18.375300 1.223200
18.403200 1.086100
18.431000 1.106000
18.458900 1.126300
18.486800 1.147600
18.514700 1.167700
18.542500 1.163800
18.570400 1.194600
18.598300 1.177700
18.626100 1.176600
18.654000 1.179400
18.681900 1.182600
18.709800 1.185500
18.737600 1.261300
18.765500 1.161600
18.793400 1.155400
