set title 'mp-1184565 - Density of States'
set xlabel 'Energy (eV)'
set ylabel 'DOS (states/eV)'
set grid
set xrange [-10:10]
set yrange [0:3.508]
set xzeroaxis lt -1
set terminal png size 800,600
set output 'mp-1184565_dos_gnuplot.png'
plot '-' using 1:2 with lines title 'DOS'
-21.031600 0.000000
-21.000100 0.000000
-20.968700 0.000000
-20.937200 0.000000
-20.905800 0.000000
-20.874300 0.000000
-20.842900 0.000000
-20.811400 0.000000
-20.780000 0.000000
-20.748500 0.000000
-20.717100 0.000000
-20.685600 0.000000
-20.654200 0.000000
-20.622700 0.000000
-20.591300 0.000000
-20.559800 0.000000
-20.528400 0.000000
-20.496900 0.000000
-20.465500 0.000000
-20.434000 0.000000
-20.402600 0.000000
-20.371100 0.000000
-20.339700 0.000000
-20.308200 0.000000
-20.276800 0.000000
-20.245300 0.000000
-20.213900 0.000000
-20.182400 0.000000
-20.151000 0.000000
-20.119500 0.000000
-20.088100 0.000000
-20.056600 0.000000
-20.025200 0.000000
-19.993700 0.000000
-19.962300 0.000000
-19.930800 0.000000
-19.899400 0.000000
-19.867900 0.000000
-19.836500 0.000000
-19.805000 0.000000
-19.773600 0.000000
-19.742100 0.000000
-19.710700 0.000000
-19.679200 0.000000
-19.647800 0.000000
-19.616300 0.000000
-19.584900 0.000000
-19.553400 0.000000
-19.522000 0.000000
-19.490500 0.000000
-19.459100 0.000000
-19.427600 0.000000
-19.396200 0.000000
-19.364800 0.000000
-19.333300 0.000000
-19.301900 0.000000
-19.270400 0.000000
-19.239000 0.000000
-19.207500 0.000000
-19.176100 0.000000
-19.144600 0.000000
-19.113200 0.000000
-19.081700 0.000000
-19.050300 0.000000
-19.018800 0.000000
-18.987400 0.000000
-18.955900 0.000000
-18.924500 0.000000
-18.893000 0.000000
-18.861600 0.000000
-18.830100 0.000000
-18.798700 0.000000
-18.767200 0.000000
-18.735800 0.000000
-18.704300 0.000000
-18.672900 0.000000
-18.641400 0.000000
-18.610000 0.000000
-18.578500 0.000000
-18.547100 0.000000
-18.515600 0.000000
-18.484200 0.000000
-18.452700 0.000000
-18.421300 0.000000
-18.389800 0.000000
-18.358400 0.000000
-18.326900 0.000000
-18.295500 0.000000
-18.264000 0.000000
-18.232600 0.000000
-18.201100 0.000000
-18.169700 68.343200
-18.138200 72.422200
-18.106800 0.013700
-18.075300 325.510100
-18.043900 0.000000
-18.012400 0.000000
-17.981000 0.000000
-17.949500 0.000000
-17.918100 0.000000
-17.886600 0.000000
-17.855200 0.000000
-17.823700 0.000000
-17.792300 0.000000
-17.760800 0.000000
-17.729400 0.000000
-17.697900 0.000000
-17.666500 0.000000
-17.635000 0.000000
-17.603600 0.000000
-17.572100 0.000000
-17.540700 0.000000
-17.509200 0.000000
-17.477800 0.000000
-17.446300 0.000000
-17.414900 0.000000
-17.383400 0.000000
-17.352000 0.000000
-17.320500 0.000000
-17.289100 0.000000
-17.257600 0.000000
-17.226200 0.000000
-17.194700 0.000000
-17.163300 0.000000
-17.131800 0.000000
-17.100400 0.000000
-17.068900 0.000000
-17.037500 0.000000
-17.006000 0.000000
-16.974600 0.000000
-16.943100 0.000000
-16.911700 0.000000
-16.880200 0.000000
-16.848800 0.000000
-16.817300 0.000000
-16.785900 0.000000
-16.754400 0.000000
-16.723000 0.000000
-16.691500 0.000000
-16.660100 0.000000
-16.628600 0.000000
-16.597200 0.000000
-16.565700 0.000000
-16.534300 0.000000
-16.502800 0.000000
-16.471400 0.000000
-16.439900 0.000000
-16.408500 0.000000
-16.377000 0.000000
-16.345600 0.000000
-16.314100 0.000000
-16.282700 0.000000
-16.251200 0.000000
-16.219800 0.000000
-16.188400 0.000000
-16.156900 0.000000
-16.125500 0.000000
-16.094000 0.000000
-16.062600 0.000000
-16.031100 0.000000
-15.999700 0.000000
-15.968200 0.000000
-15.936800 0.000000
-15.905300 0.000000
-15.873900 0.000000
-15.842400 0.000000
-15.811000 0.000000
-15.779500 0.000000
-15.748100 0.000000
-15.716600 0.000000
-15.685200 0.000000
-15.653700 0.000000
-15.622300 0.000000
-15.590800 0.000000
-15.559400 0.000000
-15.527900 0.000000
-15.496500 0.000000
-15.465000 0.000000
-15.433600 0.000000
-15.402100 0.000000
-15.370700 0.000000
-15.339200 0.000000
-15.307800 0.000000
-15.276300 0.000000
-15.244900 0.000000
-15.213400 0.000000
-15.182000 0.000000
-15.150500 0.000000
-15.119100 0.000000
-15.087600 0.000000
-15.056200 0.000000
-15.024700 0.000000
-14.993300 0.000000
-14.961800 0.000000
-14.930400 0.000000
-14.898900 0.000000
-14.867500 0.000000
-14.836000 0.000000
-14.804600 0.000000
-14.773100 0.000000
-14.741700 0.000000
-14.710200 0.000000
-14.678800 0.000000
-14.647300 0.000000
-14.615900 0.000000
-14.584400 0.000000
-14.553000 0.000000
-14.521500 0.000000
-14.490100 0.000000
-14.458600 0.000000
-14.427200 0.000000
-14.395700 0.000000
-14.364300 0.000000
-14.332800 0.000000
-14.301400 0.000000
-14.269900 0.000000
-14.238500 0.000000
-14.207000 0.000000
-14.175600 0.000000
-14.144100 0.000000
-14.112700 0.000000
-14.081200 0.000000
-14.049800 0.000000
-14.018300 0.000000
-13.986900 0.000000
-13.955400 0.000000
-13.924000 0.000000
-13.892500 0.000000
-13.861100 0.000000
-13.829600 0.000000
-13.798200 0.000000
-13.766700 0.000000
-13.735300 0.000000
-13.703800 0.000000
-13.672400 0.000000
-13.640900 0.000000
-13.609500 0.000000
-13.578000 0.000000
-13.546600 0.000000
-13.515100 0.000000
-13.483700 0.000000
-13.452200 0.000000
-13.420800 0.000000
-13.389300 0.000000
-13.357900 0.000000
-13.326400 0.000000
-13.295000 0.000000
-13.263500 0.000000
-13.232100 0.000000
-13.200600 0.000000
-13.169200 0.000000
-13.137700 0.000000
-13.106300 0.000000
-13.074800 0.000000
-13.043400 0.000000
-13.012000 0.000000
-12.980500 0.000000
-12.949100 0.000000
-12.917600 0.000000
-12.886200 0.000000
-12.854700 0.000000
-12.823300 0.000000
-12.791800 0.000000
-12.760400 0.000000
-12.728900 0.000000
-12.697500 0.000000
-12.666000 0.000000
-12.634600 0.000000
-12.603100 0.000000
-12.571700 0.000000
-12.540200 0.000000
-12.508800 0.000000
-12.477300 0.000000
-12.445900 0.000000
-12.414400 0.000000
-12.383000 0.000000
-12.351500 0.000000
-12.320100 0.000000
-12.288600 0.000000
-12.257200 0.000000
-12.225700 0.000000
-12.194300 0.000000
-12.162800 0.000000
-12.131400 0.000000
-12.099900 0.000000
-12.068500 0.000000
-12.037000 0.000000
-12.005600 0.000000
-11.974100 0.000000
-11.942700 0.000000
-11.911200 0.000000
-11.879800 0.000000
-11.848300 0.000000
-11.816900 0.000000
-11.785400 0.000000
-11.754000 0.000000
-11.722500 0.000000
-11.691100 0.000000
-11.659600 0.000000
-11.628200 0.000000
-11.596700 0.000000
-11.565300 0.000000
-11.533800 0.000000
-11.502400 0.000000
-11.470900 0.000000
-11.439500 0.000000
-11.408000 0.000000
-11.376600 0.000000
-11.345100 0.000000
-11.313700 0.000000
-11.282200 0.000000
-11.250800 0.000000
-11.219300 0.000000
-11.187900 0.000000
-11.156400 0.000000
-11.125000 0.000000
-11.093500 0.000000
-11.062100 0.000000
-11.030600 0.000000
-10.999200 0.000000
-10.967700 0.000000
-10.936300 0.000000
-10.904800 0.000000
-10.873400 0.000000
-10.841900 0.000000
-10.810500 0.000000
-10.779000 0.000000
-10.747600 0.000000
-10.716100 0.000000
-10.684700 0.000000
-10.653200 0.000000
-10.621800 0.000000
-10.590300 0.000000
-10.558900 0.000000
-10.527400 0.000000
-10.496000 0.000000
-10.464500 0.000000
-10.433100 0.000000
-10.401600 0.000000
-10.370200 0.000000
-10.338700 0.000000
-10.307300 0.000000
-10.275800 0.000000
-10.244400 0.000000
-10.212900 0.000000
-10.181500 0.000000
-10.150000 0.000000
-10.118600 0.000000
-10.087100 0.000000
-10.055700 0.000000
-10.024200 0.000000
-9.992800 0.000000
-9.961300 0.000000
-9.929900 0.000000
-9.898400 0.000000
-9.867000 0.000000
-9.835600 0.000000
-9.804100 0.000000
-9.772700 0.000000
-9.741200 0.000000
-9.709800 0.000000
-9.678300 0.000000
-9.646900 0.000000
-9.615400 0.000000
-9.584000 0.000000
-9.552500 0.000000
-9.521100 0.000000
-9.489600 0.000000
-9.458200 0.000000
-9.426700 0.000000
-9.395300 0.000000
-9.363800 0.000000
-9.332400 0.000000
-9.300900 0.000000
-9.269500 0.000000
-9.238000 0.000000
-9.206600 0.000000
-9.175100 0.000000
-9.143700 0.000000
-9.112200 0.000000
-9.080800 0.000000
-9.049300 0.000000
-9.017900 0.000000
-8.986400 0.000000
-8.955000 0.000000
-8.923500 0.000000
-8.892100 0.000000
-8.860600 0.000000
-8.829200 0.000000
-8.797700 0.000000
-8.766300 0.000000
-8.734800 0.000000
-8.703400 0.000000
-8.671900 0.000000
-8.640500 0.000000
-8.609000 0.000000
-8.577600 0.000000
-8.546100 0.000000
-8.514700 0.000000
-8.483200 0.000000
-8.451800 0.000000
-8.420300 0.000000
-8.388900 0.000000
-8.357400 0.000000
-8.326000 0.000000
-8.294500 0.000000
-8.263100 0.000000
-8.231600 0.000000
-8.200200 0.000000
-8.168700 0.000000
-8.137300 0.000000
-8.105800 0.000000
-8.074400 0.000000
-8.042900 0.000000
-8.011500 0.000000
-7.980000 0.000000
-7.948600 0.000000
-7.917100 0.000000
-7.885700 0.000000
-7.854200 0.000000
-7.822800 0.000000
-7.791300 0.000000
-7.759900 0.001600
-7.728400 0.037000
-7.697000 0.113500
-7.665500 0.139400
-7.634100 0.145000
-7.602600 0.170300
-7.571200 0.196900
-7.539700 0.223100
-7.508300 0.240600
-7.476800 0.247100
-7.445400 0.255700
-7.413900 0.270000
-7.382500 0.284600
-7.351000 0.299200
-7.319600 0.313800
-7.288100 0.329100
-7.256700 0.340700
-7.225200 0.350300
-7.193800 0.359900
-7.162300 0.367900
-7.130900 0.376800
-7.099400 0.386100
-7.068000 0.395800
-7.036500 0.405700
-7.005100 0.416200
-6.973600 0.427300
-6.942200 0.438800
-6.910700 0.449500
-6.879300 0.457900
-6.847800 0.465400
-6.816400 0.473700
-6.784900 0.481200
-6.753500 0.488400
-6.722000 0.496200
-6.690600 0.503900
-6.659200 0.511800
-6.627700 0.520100
-6.596300 0.528800
-6.564800 0.537800
-6.533400 0.546900
-6.501900 0.556100
-6.470500 0.565300
-6.439000 0.572900
-6.407600 0.579700
-6.376100 0.587300
-6.344700 0.594900
-6.313200 0.602300
-6.281800 0.609400
-6.250300 0.616700
-6.218900 0.624300
-6.187400 0.632000
-6.156000 0.639800
-6.124500 0.647600
-6.093100 0.655500
-6.061600 0.663500
-6.030200 0.671600
-5.998700 0.679900
-5.967300 0.688300
-5.935800 0.696900
-5.904400 0.705200
-5.872900 0.712600
-5.841500 0.720100
-5.810000 0.728100
-5.778600 0.736300
-5.747100 0.744500
-5.715700 0.752900
-5.684200 0.761400
-5.652800 0.770100
-5.621300 0.779100
-5.589900 0.788200
-5.558400 0.797500
-5.527000 0.807000
-5.495500 0.816600
-5.464100 0.826300
-5.432600 0.836200
-5.401200 0.846200
-5.369700 0.856400
-5.338300 0.866800
-5.306800 0.877500
-5.275400 0.888000
-5.243900 0.898700
-5.212500 0.910600
-5.181000 0.927700
-5.149600 0.948000
-5.118100 0.966700
-5.086700 0.986200
-5.055200 1.006500
-5.023800 1.027700
-4.992300 1.049300
-4.960900 1.072400
-4.929400 1.090800
-4.898000 1.099700
-4.866500 1.114500
-4.835100 1.130100
-4.803600 1.145900
-4.772200 1.162000
-4.740700 1.213000
-4.709300 1.245600
-4.677800 1.247000
-4.646400 1.243000
-4.614900 1.235100
-4.583500 1.270600
-4.552000 1.334600
-4.520600 1.240800
-4.489100 1.229500
-4.457700 1.219700
-4.426200 1.210600
-4.394800 1.201700
-4.363300 1.177000
-4.331900 1.166800
-4.300400 1.155200
-4.269000 1.140500
-4.237500 1.125800
-4.206100 1.111000
-4.174600 1.098800
-4.143200 1.093300
-4.111700 1.085400
-4.080300 1.084600
-4.048800 1.085000
-4.017400 1.085200
-3.985900 1.056400
-3.954500 1.034800
-3.923000 1.021200
-3.891600 1.007600
-3.860100 0.994000
-3.828700 0.981000
-3.797200 0.973800
-3.765800 0.968200
-3.734300 0.958600
-3.702900 0.948100
-3.671400 0.937500
-3.640000 0.926800
-3.608500 0.916000
-3.577100 0.908400
-3.545600 0.901100
-3.514200 0.892400
-3.482800 0.882900
-3.451300 0.881500
-3.419900 0.896700
-3.388400 0.911800
-3.357000 0.925400
-3.325500 0.950600
-3.294100 0.978700
-3.262600 1.028000
-3.231200 1.102000
-3.199700 1.137900
-3.168300 1.192200
-3.136800 1.332900
-3.105400 1.463000
-3.073900 1.520200
-3.042500 1.813900
-3.011000 1.913300
-2.979600 1.189300
-2.948100 1.012800
-2.916700 0.839800
-2.885200 0.665100
-2.853800 0.535500
-2.822300 0.443500
-2.790900 0.369200
-2.759400 0.318500
-2.728000 0.147600
-2.696500 0.061000
-2.665100 0.012100
-2.633600 0.000000
-2.602200 0.000000
-2.570700 0.000000
-2.539300 0.000000
-2.507800 0.000000
-2.476400 0.000000
-2.444900 0.000000
-2.413500 0.000000
-2.382000 0.000000
-2.350600 0.000000
-2.319100 0.000000
-2.287700 0.000000
-2.256200 0.003700
-2.224800 0.017600
-2.193300 0.027900
-2.161900 0.039200
-2.130400 0.051400
-2.099000 0.064400
-2.067500 0.076900
-2.036100 0.088900
-2.004600 0.101200
-1.973200 0.114000
-1.941700 0.127100
-1.910300 0.140800
-1.878800 0.294200
-1.847400 0.433100
-1.815900 0.539600
-1.784500 0.616700
-1.753000 0.742700
-1.721600 1.205400
-1.690100 1.299200
-1.658700 1.336600
-1.627200 1.330700
-1.595800 1.366900
-1.564300 1.428100
-1.532900 1.543000
-1.501400 1.657600
-1.470000 1.759600
-1.438500 1.945300
-1.407100 2.245900
-1.375600 2.420700
-1.344200 2.353200
-1.312700 2.081300
-1.281300 1.898500
-1.249800 1.734900
-1.218400 1.639600
-1.186900 1.552000
-1.155500 1.466800
-1.124000 1.384900
-1.092600 1.300200
-1.061100 1.220300
-1.029700 1.178300
-0.998200 1.143600
-0.966800 1.110800
-0.935300 1.079600
-0.903900 1.050600
-0.872400 1.025300
-0.841000 1.007900
-0.809500 0.993900
-0.778100 0.980900
-0.746600 0.968500
-0.715200 0.956800
-0.683700 0.945800
-0.652300 0.935000
-0.620800 0.924000
-0.589400 0.914200
-0.557900 0.905700
-0.526500 0.897800
-0.495000 0.891400
-0.463600 0.884700
-0.432100 0.877000
-0.400700 0.870400
-0.369200 0.866000
-0.337800 0.863200
-0.306400 0.861600
-0.274900 0.861000
-0.243500 0.860800
-0.212000 0.860700
-0.180600 0.862300
-0.149100 0.868000
-0.117700 0.878200
-0.086200 0.892800
-0.054800 0.910700
-0.023300 0.940200
0.008100 0.971700
0.039600 0.981400
0.071000 0.983100
0.102500 0.977200
0.133900 0.962900
0.165400 0.941300
0.196800 0.899600
0.228300 0.861500
0.259700 0.860400
0.291200 0.863800
0.322600 0.871200
0.354100 0.885900
0.385500 0.908700
0.417000 0.939200
0.448400 0.965600
0.479900 1.009700
0.511300 1.051200
0.542800 1.082500
0.574200 1.099100
0.605700 1.109300
0.637100 1.118700
0.668600 1.143900
0.700000 1.166400
0.731500 1.223800
0.762900 1.284100
0.794400 1.379900
0.825800 1.450700
0.857300 1.470500
0.888700 1.489600
0.920200 1.505100
0.951600 1.508800
0.983100 1.492500
1.014500 1.453600
1.046000 1.389400
1.077400 1.298600
1.108900 1.231200
1.140300 1.218500
1.171800 1.211700
1.203200 1.205300
1.234700 1.199300
1.266100 1.193700
1.297600 1.190200
1.329000 1.191200
1.360500 1.204700
1.391900 1.260000
1.423400 1.285100
1.454800 1.284800
1.486300 1.289200
1.517700 1.299900
1.549200 1.324700
1.580600 1.365300
1.612100 1.404400
1.643500 1.418700
1.675000 1.396100
1.706400 1.387000
1.737900 1.414800
1.769300 1.427400
1.800800 1.417700
1.832200 1.417000
1.863700 1.425000
1.895100 1.433500
1.926600 1.442000
1.958000 1.449900
1.989500 1.454700
2.020900 1.482400
2.052400 1.539700
2.083800 1.576300
2.115300 1.593000
2.146700 1.602100
2.178200 1.606300
2.209600 1.624200
2.241100 1.619700
2.272500 1.591000
2.304000 1.563800
2.335400 1.572500
2.366900 1.537300
2.398300 1.506700
2.429800 1.481700
2.461200 1.475700
2.492700 1.477900
2.524100 1.488300
2.555600 1.496100
2.587000 1.508700
2.618500 1.526200
2.649900 1.600000
2.681400 1.666100
2.712800 1.714200
2.744300 1.732300
2.775700 1.758600
2.807100 1.796200
2.838600 1.861700
2.870000 1.927300
2.901500 1.976800
2.932900 2.033200
2.964400 2.131700
2.995800 2.255500
3.027300 2.279900
3.058700 2.236300
3.090200 2.185300
3.121600 2.196300
3.153100 2.212000
3.184500 2.230700
3.216000 2.252200
3.247400 2.293100
3.278900 2.344500
3.310300 2.396000
3.341800 2.451400
3.373200 2.490100
3.404700 2.545800
3.436100 2.595900
3.467600 2.613100
3.499000 2.644300
3.530500 2.684200
3.561900 2.691400
3.593400 2.689300
3.624800 2.680800
3.656300 2.675800
3.687700 2.697400
3.719200 2.773700
3.750600 2.936800
3.782100 2.993000
3.813500 3.189500
3.845000 2.941000
3.876400 2.749700
3.907900 2.665100
3.939300 2.551400
3.970800 2.432300
4.002200 2.434300
4.033700 2.384300
4.065100 2.316600
4.096600 2.198600
4.128000 2.125900
4.159500 2.085600
4.190900 2.039800
4.222400 1.996500
4.253800 1.959000
4.285300 1.922800
4.316700 1.889200
4.348200 1.858000
4.379600 1.824500
4.411100 1.801300
4.442500 1.796400
4.474000 1.799500
4.505400 1.770400
4.536900 1.736800
4.568300 1.704500
4.599800 1.672700
4.631200 1.642100
4.662700 1.612600
4.694100 1.581500
4.725600 1.557500
4.757000 1.546100
4.788500 1.533700
4.819900 1.517000
4.851400 1.497600
4.882800 1.478400
4.914300 1.459600
4.945700 1.440400
4.977200 1.422500
5.008600 1.464100
5.040100 1.442400
5.071500 1.453800
5.103000 1.436000
5.134400 1.397700
5.165900 1.364300
5.197300 1.334300
5.228800 1.310300
5.260200 1.283900
5.291700 1.255200
5.323100 1.221200
5.354600 1.179000
5.386000 1.122900
5.417500 1.063600
5.448900 1.023500
5.480400 0.998100
5.511800 0.964900
5.543300 0.922900
5.574700 0.876400
5.606200 0.827800
5.637600 0.784300
5.669100 0.718800
5.700500 0.687700
5.732000 0.665300
5.763400 0.645000
5.794900 0.626700
5.826300 0.628500
5.857800 0.595500
5.889200 0.567700
5.920700 0.545100
5.952100 0.527300
5.983500 0.513000
6.015000 0.499000
6.046400 0.485400
6.077900 0.472000
6.109300 0.459800
6.140800 0.465500
6.172200 0.464000
6.203700 0.439700
6.235100 0.418600
6.266600 0.402700
6.298000 0.388500
6.329500 0.374700
6.360900 0.361400
6.392400 0.348500
6.423800 0.338300
6.455300 0.329400
6.486700 0.321100
6.518200 0.313300
6.549600 0.302100
6.581100 0.290100
6.612500 0.278100
6.644000 0.266200
6.675400 0.254500
6.706900 0.243000
6.738300 0.231600
6.769800 0.220500
6.801200 0.209500
6.832700 0.202500
6.864100 0.199600
6.895600 0.195500
6.927000 0.189700
6.958500 0.175500
6.989900 0.157700
7.021400 0.140700
7.052800 0.124500
7.084300 0.109100
7.115700 0.100600
7.147200 0.092900
7.178600 0.081000
7.210100 0.063100
7.241500 0.030300
7.273000 0.009400
7.304400 0.000400
7.335900 0.000000
7.367300 0.000000
7.398800 0.000000
7.430200 0.000000
7.461700 0.000900
7.493100 0.004200
7.524600 0.009900
7.556000 0.018100
7.587500 0.028700
7.618900 0.041700
7.650400 0.052600
7.681800 0.061600
7.713300 0.070700
7.744700 0.079600
7.776200 0.087200
7.807600 0.093400
7.839100 0.098100
7.870500 0.101400
7.902000 0.103400
7.933400 0.108600
7.964900 0.115100
7.996300 0.121700
8.027800 0.128300
8.059200 0.135000
8.090700 0.141400
8.122100 0.147400
8.153600 0.153200
8.185000 0.166300
8.216500 0.215800
8.247900 0.287800
8.279400 0.369300
8.310800 0.460700
8.342300 0.566900
8.373700 0.660300
8.405200 0.747100
8.436600 0.828900
8.468100 0.904300
8.499500 0.987000
8.531000 1.074300
8.562400 1.241200
8.593900 1.337100
8.625300 1.408200
8.656800 1.488300
8.688200 1.565200
8.719700 1.647700
8.751100 1.745500
8.782600 1.874000
8.814000 2.062100
8.845500 2.141100
8.876900 2.218700
8.908400 2.254800
8.939800 2.089000
8.971300 1.711300
9.002700 1.619700
9.034200 1.578800
9.065600 1.567600
9.097100 1.561200
9.128500 1.558900
9.159900 1.560500
9.191400 1.574100
9.222800 1.663700
9.254300 1.676000
9.285700 1.700900
9.317200 1.906300
9.348600 1.857700
9.380100 1.729800
9.411500 1.626000
9.443000 1.564100
9.474400 1.553500
9.505900 1.560800
9.537300 1.559400
9.568800 1.500000
9.600200 1.425800
9.631700 1.370900
9.663100 1.345800
9.694600 1.330500
9.726000 1.325700
9.757500 1.323600
9.788900 1.336500
9.820400 1.371900
9.851800 1.424500
9.883300 1.502900
9.914700 1.517100
9.946200 1.510100
9.977600 1.518400
10.009100 1.515400
10.040500 1.541500
10.072000 1.610300
10.103400 1.701900
10.134900 1.842800
10.166300 1.947100
10.197800 2.043400
10.229200 2.122700
10.260700 2.166000
10.292100 2.189300
10.323600 2.187100
10.355000 2.142000
10.386500 2.085300
10.417900 2.083000
10.449400 2.162200
10.480800 2.219400
10.512300 2.285700
10.543700 2.310200
10.575200 2.250300
10.606600 2.095000
10.638100 2.085700
10.669500 2.118100
10.701000 2.190200
10.732400 2.388800
10.763900 2.673700
10.795300 2.670800
10.826800 2.762800
10.858200 2.903300
10.889700 3.005600
10.921100 2.942800
10.952600 2.860800
10.984000 2.909100
11.015500 2.897000
11.046900 2.495200
11.078400 2.246700
11.109800 2.087000
11.141300 1.969600
11.172700 1.895800
11.204200 1.847000
11.235600 1.815100
11.267100 1.804700
11.298500 1.821800
11.330000 1.851500
11.361400 1.898900
11.392900 1.948500
11.424300 2.010100
11.455800 2.080800
11.487200 2.172300
11.518700 2.271100
