set title 'mp-2133 - Density of States'
set xlabel 'Energy (eV)'
set ylabel 'DOS (states/eV)'
set grid
set xrange [-10:10]
set yrange [0:33.102]
set xzeroaxis lt -1
set terminal png size 800,600
set output 'mp-2133_dos_gnuplot.png'
plot '-' using 1:2 with lines title 'DOS'
-19.037800 0.000000
-19.014500 0.000000
-18.991200 0.000000
-18.967900 0.000000
-18.944600 0.000000
-18.921400 0.000000
-18.898100 0.000000
-18.874800 0.000000
-18.851500 0.000000
-18.828200 0.000000
-18.805000 0.000000
-18.781700 0.000000
-18.758400 0.000000
-18.735100 0.000000
-18.711800 0.000000
-18.688600 0.000000
-18.665300 0.000000
-18.642000 0.000000
-18.618700 0.000000
-18.595400 0.000000
-18.572200 0.000000
-18.548900 0.000000
-18.525600 0.000000
-18.502300 0.000000
-18.479000 0.000000
-18.455800 0.000000
-18.432500 0.000000
-18.409200 0.000000
-18.385900 0.000000
-18.362600 0.000000
-18.339400 0.000000
-18.316100 0.000000
-18.292800 0.000000
-18.269500 0.000000
-18.246200 0.000000
-18.223000 0.000000
-18.199700 0.000000
-18.176400 0.000000
-18.153100 0.000000
-18.129800 0.000000
-18.106600 0.000000
-18.083300 0.000000
-18.060000 0.000000
-18.036700 0.000000
-18.013400 0.000000
-17.990200 0.000000
-17.966900 0.000000
-17.943600 0.000000
-17.920300 0.000000
-17.897000 0.000000
-17.873800 0.000000
-17.850500 0.000000
-17.827200 0.000000
-17.803900 0.000000
-17.780600 0.000000
-17.757400 0.000000
-17.734100 0.000000
-17.710800 0.000000
-17.687500 0.000000
-17.664200 0.000000
-17.641000 0.000000
-17.617700 0.000000
-17.594400 0.000000
-17.571100 0.000000
-17.547800 0.000000
-17.524600 0.000000
-17.501300 0.000000
-17.478000 0.000000
-17.454700 0.000000
-17.431400 0.000000
-17.408200 0.000000
-17.384900 0.000000
-17.361600 0.000000
-17.338300 0.000000
-17.315000 0.000000
-17.291800 0.000000
-17.268500 0.000000
-17.245200 0.000000
-17.221900 0.000000
-17.198600 0.000000
-17.175400 0.000000
-17.152100 0.000000
-17.128800 0.000000
-17.105500 0.000000
-17.082200 0.000000
-17.059000 0.000000
-17.035700 0.000000
-17.012400 0.000000
-16.989100 0.000000
-16.965800 0.000000
-16.942600 0.000000
-16.919300 0.006600
-16.896000 0.314200
-16.872700 0.517000
-16.849400 0.635700
-16.826200 0.772200
-16.802900 0.877300
-16.779600 1.000400
-16.756300 1.116200
-16.733000 1.228300
-16.709800 1.352100
-16.686500 1.478600
-16.663200 1.609000
-16.639900 1.743900
-16.616600 1.893300
-16.593400 2.053100
-16.570100 2.219600
-16.546800 2.405800
-16.523500 2.609000
-16.500200 2.838500
-16.477000 3.093600
-16.453700 3.363000
-16.430400 3.707100
-16.407100 4.101000
-16.383800 4.535200
-16.360600 5.119600
-16.337300 5.881700
-16.314000 6.930400
-16.290700 8.938500
-16.267400 9.729800
-16.244200 10.175900
-16.220900 10.468100
-16.197600 10.911400
-16.174300 11.649900
-16.151000 12.180600
-16.127800 15.720400
-16.104500 20.515200
-16.081200 0.000000
-16.057900 0.000000
-16.034600 0.000000
-16.011400 0.000000
-15.988100 0.000000
-15.964800 0.000000
-15.941500 0.000000
-15.918200 0.000000
-15.895000 0.000000
-15.871700 0.000000
-15.848400 0.000000
-15.825100 0.000000
-15.801800 0.000000
-15.778600 0.000000
-15.755300 0.000000
-15.732000 0.000000
-15.708700 0.000000
-15.685400 0.000000
-15.662200 0.000000
-15.638900 0.000000
-15.615600 0.000000
-15.592300 0.000000
-15.569000 0.000000
-15.545800 0.000000
-15.522500 0.000000
-15.499200 0.000000
-15.475900 0.000000
-15.452600 0.000000
-15.429400 0.000000
-15.406100 0.000000
-15.382800 0.000000
-15.359500 0.000000
-15.336200 0.000000
-15.313000 0.000000
-15.289700 0.000000
-15.266400 0.000000
-15.243100 0.000000
-15.219800 0.000000
-15.196600 0.000000
-15.173300 0.000000
-15.150000 0.000000
-15.126700 0.000000
-15.103400 0.000000
-15.080200 0.000000
-15.056900 0.000000
-15.033600 0.000000
-15.010300 0.000000
-14.987000 0.000000
-14.963800 0.000000
-14.940500 0.000000
-14.917200 0.000000
-14.893900 0.000000
-14.870600 0.000000
-14.847400 0.000000
-14.824100 0.000000
-14.800800 0.000000
-14.777500 0.000000
-14.754200 0.000000
-14.731000 0.000000
-14.707700 0.000000
-14.684400 0.000000
-14.661100 0.000000
-14.637800 0.000000
-14.614600 0.000000
-14.591300 0.000000
-14.568000 0.000000
-14.544700 0.000000
-14.521400 0.000000
-14.498200 0.000000
-14.474900 0.000000
-14.451600 0.000000
-14.428300 0.000000
-14.405000 0.000000
-14.381800 0.000000
-14.358500 0.000000
-14.335200 0.000000
-14.311900 0.000000
-14.288600 0.000000
-14.265400 0.000000
-14.242100 0.000000
-14.218800 0.000000
-14.195500 0.000000
-14.172200 0.000000
-14.149000 0.000000
-14.125700 0.000000
-14.102400 0.000000
-14.079100 0.000000
-14.055800 0.000000
-14.032600 0.000000
-14.009300 0.000000
-13.986000 0.000000
-13.962700 0.000000
-13.939400 0.000000
-13.916200 0.000000
-13.892900 0.000000
-13.869600 0.000000
-13.846300 0.000000
-13.823000 0.000000
-13.799800 0.000000
-13.776500 0.000000
-13.753200 0.000000
-13.729900 0.000000
-13.706600 0.000000
-13.683400 0.000000
-13.660100 0.000000
-13.636800 0.000000
-13.613500 0.000000
-13.590200 0.000000
-13.567000 0.000000
-13.543700 0.000000
-13.520400 0.000000
-13.497100 0.000000
-13.473800 0.000000
-13.450600 0.000000
-13.427300 0.000000
-13.404000 0.000000
-13.380700 0.000000
-13.357400 0.000000
-13.334200 0.000000
-13.310900 0.000000
-13.287600 0.000000
-13.264300 0.000000
-13.241000 0.000000
-13.217800 0.000000
-13.194500 0.000000
-13.171200 0.000000
-13.147900 0.000000
-13.124600 0.000000
-13.101400 0.000000
-13.078100 0.000000
-13.054800 0.000000
-13.031500 0.000000
-13.008200 0.000000
-12.985000 0.000000
-12.961700 0.000000
-12.938400 0.000000
-12.915100 0.000000
-12.891800 0.000000
-12.868600 0.000000
-12.845300 0.000000
-12.822000 0.000000
-12.798700 0.000000
-12.775400 0.000000
-12.752200 0.000000
-12.728900 0.000000
-12.705600 0.000000
-12.682300 0.000000
-12.659000 0.000000
-12.635800 0.000000
-12.612500 0.000000
-12.589200 0.000000
-12.565900 0.000000
-12.542600 0.000000
-12.519400 0.000000
-12.496100 0.000000
-12.472800 0.000000
-12.449500 0.000000
-12.426200 0.000000
-12.403000 0.000000
-12.379700 0.000000
-12.356400 0.000000
-12.333100 0.000000
-12.309800 0.000000
-12.286600 0.000000
-12.263300 0.000000
-12.240000 0.000000
-12.216700 0.000000
-12.193400 0.000000
-12.170200 0.000000
-12.146900 0.000000
-12.123600 0.000000
-12.100300 0.000000
-12.077000 0.000000
-12.053800 0.000000
-12.030500 0.000000
-12.007200 0.000000
-11.983900 0.000000
-11.960600 0.000000
-11.937400 0.000000
-11.914100 0.000000
-11.890800 0.000000
-11.867500 0.000000
-11.844200 0.000000
-11.821000 0.000000
-11.797700 0.000000
-11.774400 0.000000
-11.751100 0.000000
-11.727800 0.000000
-11.704600 0.000000
-11.681300 0.000000
-11.658000 0.000000
-11.634700 0.000000
-11.611400 0.000000
-11.588200 0.000000
-11.564900 0.000000
-11.541600 0.000000
-11.518300 0.000000
-11.495000 0.000000
-11.471800 0.000000
-11.448500 0.000000
-11.425200 0.000000
-11.401900 0.000000
-11.378600 0.000000
-11.355400 0.000000
-11.332100 0.000000
-11.308800 0.000000
-11.285500 0.000000
-11.262200 0.000000
-11.239000 0.000000
-11.215700 0.000000
-11.192400 0.000000
-11.169100 0.000000
-11.145800 0.000000
-11.122600 0.000000
-11.099300 0.000000
-11.076000 0.000000
-11.052700 0.000000
-11.029400 0.000000
-11.006200 0.000000
-10.982900 0.000000
-10.959600 0.000000
-10.936300 0.000000
-10.913000 0.000000
-10.889800 0.000000
-10.866500 0.000000
-10.843200 0.000000
-10.819900 0.000000
-10.796600 0.000000
-10.773400 0.000000
-10.750100 0.000000
-10.726800 0.000000
-10.703500 0.000000
-10.680200 0.000000
-10.657000 0.000000
-10.633700 0.000000
-10.610400 0.000000
-10.587100 0.000000
-10.563800 0.000000
-10.540600 0.000000
-10.517300 0.000000
-10.494000 0.000000
-10.470700 0.000000
-10.447400 0.000000
-10.424200 0.000000
-10.400900 0.000000
-10.377600 0.000000
-10.354300 0.000000
-10.331000 0.000000
-10.307800 0.000000
-10.284500 0.000000
-10.261200 0.000000
-10.237900 0.000000
-10.214600 0.000000
-10.191400 0.000000
-10.168100 0.000000
-10.144800 0.000000
-10.121500 0.000000
-10.098200 0.000000
-10.075000 0.000000
-10.051700 0.000000
-10.028400 0.000000
-10.005100 0.000000
-9.981800 0.000000
-9.958600 0.000000
-9.935300 0.000000
-9.912000 0.000000
-9.888700 0.000000
-9.865400 0.000000
-9.842200 0.000000
-9.818900 0.000000
-9.795600 0.000000
-9.772300 0.000000
-9.749000 0.000000
-9.725800 0.000000
-9.702500 0.000000
-9.679200 0.000000
-9.655900 0.000000
-9.632600 0.000000
-9.609400 0.000000
-9.586100 0.000000
-9.562800 0.000000
-9.539500 0.000000
-9.516200 0.000000
-9.493000 0.000000
-9.469700 0.000000
-9.446400 0.000000
-9.423100 0.000000
-9.399800 0.000000
-9.376600 0.000000
-9.353300 0.000000
-9.330000 0.000000
-9.306700 0.000000
-9.283400 0.000000
-9.260200 0.000000
-9.236900 0.000000
-9.213600 0.000000
-9.190300 0.000000
-9.167000 0.000000
-9.143800 0.000000
-9.120500 0.000000
-9.097200 0.000000
-9.073900 0.000000
-9.050600 0.000000
-9.027400 0.000000
-9.004100 0.000000
-8.980800 0.000000
-8.957500 0.000000
-8.934200 0.000000
-8.911000 0.000000
-8.887700 0.000000
-8.864400 0.000000
-8.841100 0.000000
-8.817800 0.000000
-8.794600 0.000000
-8.771300 0.000000
-8.748000 0.000000
-8.724700 0.000000
-8.701400 0.000000
-8.678200 0.000000
-8.654900 0.000000
-8.631600 0.000000
-8.608300 0.000000
-8.585000 0.000000
-8.561800 0.000000
-8.538500 0.000000
-8.515200 0.000000
-8.491900 0.000000
-8.468600 0.000000
-8.445400 0.000000
-8.422100 0.000000
-8.398800 0.000000
-8.375500 0.000000
-8.352200 0.000000
-8.329000 0.000000
-8.305700 0.000000
-8.282400 0.000000
-8.259100 0.000000
-8.235800 0.000000
-8.212600 0.000000
-8.189300 0.000000
-8.166000 0.000000
-8.142700 0.000000
-8.119400 0.000000
-8.096200 0.000000
-8.072900 0.000000
-8.049600 0.000000
-8.026300 0.000000
-8.003000 0.000000
-7.979800 0.000000
-7.956500 0.000000
-7.933200 0.000000
-7.909900 0.000000
-7.886600 0.000000
-7.863400 0.000000
-7.840100 0.000000
-7.816800 0.000000
-7.793500 0.000000
-7.770200 0.000000
-7.747000 0.000000
-7.723700 0.000000
-7.700400 0.000000
-7.677100 0.000000
-7.653800 0.000000
-7.630600 0.000000
-7.607300 0.000000
-7.584000 0.000000
-7.560700 0.000000
-7.537400 0.000000
-7.514200 0.000000
-7.490900 0.000000
-7.467600 0.000000
-7.444300 0.000000
-7.421000 0.000000
-7.397800 0.000000
-7.374500 0.000000
-7.351200 0.000000
-7.327900 0.000000
-7.304600 0.000000
-7.281400 0.000000
-7.258100 0.000000
-7.234800 0.000000
-7.211500 0.000000
-7.188200 0.000000
-7.165000 0.000000
-7.141700 0.000000
-7.118400 0.000000
-7.095100 0.000000
-7.071800 0.000000
-7.048600 0.000000
-7.025300 0.000000
-7.002000 0.000000
-6.978700 0.000000
-6.955400 0.000000
-6.932200 0.000000
-6.908900 0.000000
-6.885600 0.000000
-6.862300 0.000000
-6.839000 0.000000
-6.815800 0.000000
-6.792500 0.000000
-6.769200 0.000000
-6.745900 0.000000
-6.722600 0.000000
-6.699400 0.000000
-6.676100 0.000000
-6.652800 0.000000
-6.629500 0.000000
-6.606200 0.000000
-6.583000 0.000000
-6.559700 0.000000
-6.536400 0.000000
-6.513100 0.000000
-6.489800 0.000000
-6.466600 0.000000
-6.443300 0.000000
-6.420000 0.000000
-6.396700 0.000000
-6.373400 0.000000
-6.350200 0.000000
-6.326900 0.000000
-6.303600 0.000000
-6.280300 0.000000
-6.257000 0.000000
-6.233800 0.000000
-6.210500 0.000000
-6.187200 0.000000
-6.163900 0.000000
-6.140600 0.000000
-6.117400 0.000000
-6.094100 0.000000
-6.070800 0.000000
-6.047500 0.000000
-6.024200 0.000000
-6.001000 0.000000
-5.977700 0.000000
-5.954400 0.000000
-5.931100 0.000000
-5.907800 0.000000
-5.884600 0.000000
-5.861300 0.000000
-5.838000 0.000000
-5.814700 0.000000
-5.791400 0.000000
-5.768200 0.000000
-5.744900 0.000000
-5.721600 0.000000
-5.698300 0.000000
-5.675000 0.000000
-5.651800 0.000000
-5.628500 0.000000
-5.605200 0.000000
-5.581900 0.000000
-5.558600 0.000000
-5.535400 0.000000
-5.512100 0.000000
-5.488800 0.000000
-5.465500 0.000000
-5.442200 0.000000
-5.419000 0.000000
-5.395700 0.000000
-5.372400 0.000000
-5.349100 0.000000
-5.325800 0.000000
-5.302600 0.000000
-5.279300 0.000000
-5.256000 0.000000
-5.232700 0.000000
-5.209400 0.000000
-5.186200 0.000000
-5.162900 0.000000
-5.139600 0.000000
-5.116300 0.000000
-5.093000 0.000000
-5.069800 0.000000
-5.046500 0.000000
-5.023200 0.000000
-4.999900 5.924800
-4.976600 8.025900
-4.953400 12.004200
-4.930100 13.470400
-4.906800 13.227700
-4.883500 12.946700
-4.860200 12.286900
-4.837000 10.020900
-4.813700 8.777500
-4.790400 8.010900
-4.767100 7.651600
-4.743800 7.983900
-4.720600 8.807900
-4.697300 6.299700
-4.674000 7.734300
-4.650700 9.667800
-4.627400 10.658100
-4.604200 9.481000
-4.580900 8.770600
-4.557600 9.884700
-4.534300 12.008800
-4.511000 13.368300
-4.487800 15.070200
-4.464500 19.587900
-4.441200 19.681600
-4.417900 18.698000
-4.394600 14.648900
-4.371400 13.346100
-4.348100 12.552100
-4.324800 12.131700
-4.301500 12.028600
-4.278200 11.747200
-4.255000 11.239700
-4.231700 11.167800
-4.208400 11.295100
-4.185100 11.903000
-4.161800 12.436300
-4.138600 12.654300
-4.115300 11.703100
-4.092000 10.969000
-4.068700 10.158600
-4.045400 9.564500
-4.022200 7.903300
-3.998900 7.437800
-3.975600 6.256100
-3.952300 4.504600
-3.929000 3.110100
-3.905800 2.103700
-3.882500 1.253500
-3.859200 0.885900
-3.835900 0.622200
-3.812600 0.370800
-3.789400 0.264200
-3.766100 0.134100
-3.742800 0.802100
-3.719500 5.236100
-3.696200 7.159900
-3.673000 8.138400
-3.649700 9.482600
-3.626400 16.590500
-3.603100 18.267400
-3.579800 21.451800
-3.556600 22.670200
-3.533300 26.247400
-3.510000 30.093100
-3.486700 20.243000
-3.463400 16.776900
-3.440200 25.780600
-3.416900 22.967100
-3.393600 17.089900
-3.370300 11.032900
-3.347000 9.606700
-3.323800 12.435800
-3.300500 9.892800
-3.277200 8.906000
-3.253900 8.636400
-3.230600 6.849600
-3.207400 5.084600
-3.184100 2.907600
-3.160800 0.878000
-3.137500 0.543200
-3.114200 0.580300
-3.091000 0.576200
-3.067700 0.503700
-3.044400 0.519900
-3.021100 0.552100
-2.997800 0.591400
-2.974600 0.652100
-2.951300 1.349300
-2.928000 4.850900
-2.904700 6.935800
-2.881400 6.810200
-2.858200 5.432700
-2.834900 4.867900
-2.811600 4.521900
-2.788300 4.149300
-2.765000 3.626500
-2.741800 3.339800
-2.718500 3.039700
-2.695200 2.991600
-2.671900 3.124000
-2.648600 3.153900
-2.625400 3.242800
-2.602100 3.315800
-2.578800 3.609700
-2.555500 3.769800
-2.532200 3.648900
-2.509000 3.701200
-2.485700 3.448300
-2.462400 3.250800
-2.439100 2.996100
-2.415800 2.911900
-2.392600 2.816000
-2.369300 2.685500
-2.346000 2.594400
-2.322700 2.516900
-2.299400 2.443600
-2.276200 2.358300
-2.252900 2.288200
-2.229600 2.224100
-2.206300 2.169300
-2.183000 2.122800
-2.159800 2.078000
-2.136500 2.038300
-2.113200 2.007600
-2.089900 1.963000
-2.066600 1.907700
-2.043400 1.881600
-2.020100 1.864800
-1.996800 1.850300
-1.973500 1.835700
-1.950200 1.823400
-1.927000 1.811900
-1.903700 1.878500
-1.880400 1.954700
-1.857100 2.109400
-1.833800 2.171200
-1.810600 2.229700
-1.787300 2.228000
-1.764000 2.168000
-1.740700 2.166500
-1.717400 2.150700
-1.694200 2.178200
-1.670900 2.232100
-1.647600 2.308300
-1.624300 2.385000
-1.601000 2.461600
-1.577800 2.494800
-1.554500 2.487800
-1.531200 2.529000
-1.507900 2.588700
-1.484600 2.680400
-1.461400 2.809400
-1.438100 2.971700
-1.414800 3.091000
-1.391500 3.067600
-1.368200 3.051000
-1.345000 3.056000
-1.321700 3.109400
-1.298400 3.232400
-1.275100 3.298200
-1.251800 3.297000
-1.228600 3.300400
-1.205300 3.336900
-1.182000 3.363900
-1.158700 3.401500
-1.135400 3.436000
-1.112200 3.497500
-1.088900 3.609100
-1.065600 3.558200
-1.042300 3.471700
-1.019000 3.360900
-0.995800 3.240800
-0.972500 3.109400
-0.949200 2.967500
-0.925900 2.940500
-0.902600 3.023900
-0.879400 3.050000
-0.856100 3.066700
-0.832800 3.163300
-0.809500 3.255700
-0.786200 3.270000
-0.763000 3.411900
-0.739700 3.507800
-0.716400 3.696900
-0.693100 3.760700
-0.669800 3.858200
-0.646600 3.643700
-0.623300 3.606200
-0.600000 3.655100
-0.576700 4.000600
-0.553400 3.884700
-0.530200 3.975900
-0.506900 4.094500
-0.483600 4.148400
-0.460300 4.587400
-0.437000 4.921100
-0.413800 5.029900
-0.390500 5.292400
-0.367200 5.580000
-0.343900 6.164000
-0.320600 5.992700
-0.297400 6.002900
-0.274100 6.282800
-0.250800 6.251300
-0.227500 6.040200
-0.204200 5.899000
-0.181000 5.602600
-0.157700 5.327000
-0.134400 5.122100
-0.111100 4.953200
-0.087800 4.817900
-0.064600 4.698900
-0.041300 4.606300
-0.018000 4.541300
0.005300 4.497500
0.028600 4.325800
0.051800 4.041200
0.075100 3.836500
0.098400 3.622600
0.121700 3.430300
0.145000 3.271500
0.168200 3.124500
0.191500 2.969900
0.214800 2.827400
0.238100 2.708600
0.261400 2.595700
0.284600 2.484800
0.307900 2.382100
0.331200 2.287700
0.354500 2.203000
0.377800 2.107100
0.401000 2.007100
0.424300 1.922900
0.447600 1.883400
0.470900 1.792600
0.494200 1.693500
0.517400 1.592800
0.540700 1.500300
0.564000 1.416800
0.587300 1.336900
0.610600 1.244800
0.633800 1.149000
0.657100 1.040900
0.680400 0.935900
0.703700 0.841000
0.727000 0.702000
0.750200 0.509400
0.773500 0.386600
0.796800 0.239000
0.820100 0.005200
0.843400 0.000000
0.866600 0.000000
0.889900 0.000000
0.913200 0.000000
0.936500 0.000000
0.959800 0.000000
0.983000 0.000000
1.006300 0.000000
1.029600 0.000000
1.052900 0.000000
1.076200 0.000000
1.099400 0.000000
1.122700 0.000000
1.146000 0.000000
1.169300 0.000000
1.192600 0.000000
1.215800 0.000000
1.239100 0.000000
1.262400 0.000000
1.285700 0.000000
1.309000 0.000000
1.332200 0.000000
1.355500 0.000000
1.378800 0.000000
1.402100 0.000000
1.425400 0.000000
1.448600 0.000000
1.471900 0.000000
1.495200 0.000000
1.518500 0.000000
1.541800 0.000000
1.565000 0.000000
1.588300 0.000200
1.611600 0.000600
1.634900 0.001200
1.658200 0.002000
1.681400 0.002900
1.704700 0.004100
1.728000 0.005500
1.751300 0.007100
1.774600 0.008900
1.797800 0.011200
1.821100 0.014400
1.844400 0.016200
1.867700 0.017800
1.891000 0.019300
1.914200 0.020600
1.937500 0.021700
1.960800 0.022600
1.984100 0.023700
2.007400 0.025400
2.030600 0.027100
2.053900 0.028800
2.077200 0.030600
2.100500 0.032400
2.123800 0.034300
2.147000 0.036200
2.170300 0.038100
2.193600 0.040100
2.216900 0.042100
2.240200 0.044000
2.263400 0.045900
2.286700 0.047800
2.310000 0.049800
2.333300 0.052100
2.356600 0.054400
2.379800 0.056600
2.403100 0.058800
2.426400 0.060900
2.449700 0.063000
2.473000 0.065100
2.496200 0.067300
2.519500 0.069500
2.542800 0.071600
2.566100 0.073800
2.589400 0.076000
2.612600 0.078300
2.635900 0.080800
2.659200 0.083400
2.682500 0.086200
2.705800 0.089100
2.729000 0.091900
2.752300 0.094600
2.775600 0.097200
2.798900 0.099800
2.822200 0.102400
2.845400 0.105000
2.868700 0.107600
2.892000 0.110200
2.915300 0.112800
2.938600 0.115400
2.961800 0.117900
2.985100 0.121000
3.008400 0.124000
3.031700 0.127000
3.055000 0.130000
3.078200 0.133100
3.101500 0.136100
3.124800 0.139200
3.148100 0.142300
3.171400 0.145400
3.194600 0.148600
3.217900 0.151700
3.241200 0.154800
3.264500 0.157800
3.287800 0.160900
3.311000 0.163900
3.334300 0.167200
3.357600 0.170600
3.380900 0.174100
3.404200 0.177600
3.427400 0.181200
3.450700 0.184700
3.474000 0.188100
3.497300 0.191600
3.520600 0.195100
3.543800 0.198500
3.567100 0.202000
3.590400 0.205500
3.613700 0.209000
3.637000 0.212500
3.660200 0.216100
3.683500 0.219700
3.706800 0.223400
3.730100 0.227500
3.753400 0.231600
3.776600 0.235500
3.799900 0.239500
3.823200 0.243500
3.846500 0.247600
3.869800 0.251600
3.893000 0.255600
3.916300 0.259600
3.939600 0.263700
3.962900 0.267700
3.986200 0.271700
4.009400 0.275700
4.032700 0.279700
4.056000 0.283800
4.079300 0.288000
4.102600 0.292600
4.125800 0.297200
4.149100 0.301800
4.172400 0.306400
4.195700 0.311000
4.219000 0.315700
4.242200 0.320300
4.265500 0.325000
4.288800 0.329700
4.312100 0.334400
4.335400 0.339100
4.358600 0.343800
4.381900 0.348500
4.405200 0.353200
4.428500 0.357900
4.451800 0.362800
4.475000 0.367900
4.498300 0.373200
4.521600 0.378600
4.544900 0.384000
4.568200 0.389300
4.591400 0.394600
4.614700 0.400000
4.638000 0.405400
4.661300 0.410900
4.684600 0.416600
4.707800 0.422300
4.731100 0.428000
4.754400 0.433700
4.777700 0.439300
4.801000 0.444900
4.824200 0.450600
