set title 'mp-14506 - Density of States'
set xlabel 'Energy (eV)'
set ylabel 'DOS (states/eV)'
set grid
set xrange [-10:10]
set yrange [0:70.016]
set xzeroaxis lt -1
set terminal png size 800,600
set output 'mp-14506_dos_gnuplot.png'
plot '-' using 1:2 with lines title 'DOS'
-9.077000 0.000000
-9.066800 0.000000
-9.056600 0.000000
-9.046400 0.000000
-9.036200 0.000000
-9.026000 0.000000
-9.015800 0.000000
-9.005600 0.000000
-8.995500 0.000000
-8.985300 0.000000
-8.975100 0.000000
-8.964900 0.000000
-8.954700 0.000000
-8.944500 0.000000
-8.934300 0.000000
-8.924100 0.000000
-8.914000 0.000000
-8.903800 0.000000
-8.893600 0.000000
-8.883400 0.000000
-8.873200 0.000000
-8.863000 0.000000
-8.852800 0.000000
-8.842600 0.000000
-8.832500 0.000000
-8.822300 0.000000
-8.812100 0.000000
-8.801900 0.000000
-8.791700 0.000000
-8.781500 0.000000
-8.771300 0.000000
-8.761100 0.000000
-8.750900 0.000000
-8.740800 0.000000
-8.730600 0.000000
-8.720400 0.000000
-8.710200 0.000000
-8.700000 0.000000
-8.689800 0.000000
-8.679600 0.000000
-8.669400 0.000000
-8.659300 0.000000
-8.649100 0.000000
-8.638900 0.000000
-8.628700 0.000000
-8.618500 0.000000
-8.608300 0.000000
-8.598100 0.000000
-8.587900 0.000000
-8.577800 0.000000
-8.567600 0.000000
-8.557400 0.000000
-8.547200 0.000000
-8.537000 0.000000
-8.526800 0.000000
-8.516600 0.000000
-8.506400 0.000000
-8.496300 0.000000
-8.486100 0.000000
-8.475900 0.000000
-8.465700 0.000000
-8.455500 0.000000
-8.445300 0.000000
-8.435100 0.000000
-8.424900 0.000000
-8.414800 0.000000
-8.404600 0.000000
-8.394400 0.000000
-8.384200 0.000000
-8.374000 0.000000
-8.363800 0.000000
-8.353600 0.000000
-8.343400 0.000000
-8.333200 0.000000
-8.323100 0.000100
-8.312900 0.000300
-8.302700 0.001000
-8.292500 0.003400
-8.282300 0.010600
-8.272100 0.031100
-8.261900 0.083600
-8.251700 0.207300
-8.241600 0.473800
-8.231400 0.998800
-8.221200 1.941700
-8.211000 3.481700
-8.200800 5.759300
-8.190600 8.791000
-8.180400 12.384600
-8.170200 16.106700
-8.160100 19.342500
-8.149900 21.454500
-8.139700 21.985800
-8.129500 20.822600
-8.119300 18.235900
-8.109100 14.784700
-8.098900 11.130600
-8.088700 7.851100
-8.078600 5.324600
-8.068400 3.710600
-8.058200 2.998300
-8.048000 3.078900
-8.037800 3.805400
-8.027600 5.031500
-8.017400 6.632900
-8.007200 8.517700
-7.997100 10.616700
-7.986900 12.848100
-7.976700 15.062700
-7.966500 17.007000
-7.956300 18.345700
-7.946100 18.762300
-7.935900 18.102100
-7.925700 16.485800
-7.915500 14.324800
-7.905400 12.216900
-7.895200 10.763300
-7.885000 10.376100
-7.874800 11.143400
-7.864600 12.795300
-7.854400 14.781700
-7.844200 16.444400
-7.834000 17.234800
-7.823900 16.899800
-7.813700 15.562300
-7.803500 13.660000
-7.793300 11.769200
-7.783100 10.390400
-7.772900 9.782500
-7.762700 9.904900
-7.752500 10.473800
-7.742400 11.101100
-7.732200 11.459300
-7.722000 11.412300
-7.711800 11.067700
-7.701600 10.731200
-7.691400 10.775400
-7.681200 11.470300
-7.671000 12.841300
-7.660900 14.618800
-7.650700 16.313700
-7.640500 17.402100
-7.630300 17.544700
-7.620100 16.744300
-7.609900 15.363000
-7.599700 13.985300
-7.589500 13.185100
-7.579400 13.292700
-7.569200 14.260700
-7.559000 15.681100
-7.548800 16.947400
-7.538600 17.493900
-7.528400 17.015200
-7.518200 15.570700
-7.508000 13.538900
-7.497800 11.448900
-7.487700 9.777500
-7.477500 8.799800
-7.467300 8.545500
-7.457100 8.857200
-7.446900 9.503100
-7.436700 10.291100
-7.426500 11.141200
-7.416300 12.103400
-7.406200 13.326600
-7.396000 14.994600
-7.385800 17.258400
-7.375600 20.192300
-7.365400 23.791400
-7.355200 27.998600
-7.345000 32.719900
-7.334800 37.784700
-7.324700 42.858200
-7.314500 47.372600
-7.304300 50.573200
-7.294100 51.715400
-7.283900 50.352200
-7.273700 46.568600
-7.263500 41.034700
-7.253300 34.841300
-7.243200 29.191300
-7.233000 25.076700
-7.222800 23.058800
-7.212600 23.207700
-7.202400 25.196700
-7.192200 28.495000
-7.182000 32.579800
-7.171800 37.084500
-7.161600 41.833100
-7.151500 46.755100
-7.141300 51.733000
-7.131100 56.467000
-7.120900 60.439800
-7.110700 63.017000
-7.100500 63.650800
-7.090300 62.091000
-7.080100 58.490800
-7.070000 53.352100
-7.059800 47.348700
-7.049600 41.135600
-7.039400 35.245600
-7.029200 30.094600
-7.019000 26.029300
-7.008800 23.323400
-6.998600 22.087200
-6.988500 22.143400
-6.978300 22.973500
-6.968100 23.816000
-6.957900 23.900600
-6.947700 22.718100
-6.937500 20.189200
-6.927300 16.655200
-6.917100 12.706200
-6.907000 8.946800
-6.896800 5.808400
-6.886600 3.475100
-6.876400 1.915400
-6.866200 0.972500
-6.856000 0.454800
-6.845800 0.195900
-6.835600 0.077700
-6.825500 0.028400
-6.815300 0.009600
-6.805100 0.003000
-6.794900 0.000900
-6.784700 0.000400
-6.774500 0.000700
-6.764300 0.002300
-6.754100 0.007600
-6.743900 0.023200
-6.733800 0.065100
-6.723600 0.169400
-6.713400 0.407400
-6.703200 0.907400
-6.693000 1.873900
-6.682800 3.591700
-6.672600 6.399500
-6.662400 10.617600
-6.652300 16.435400
-6.642100 23.785600
-6.631900 32.249900
-6.621700 41.045000
-6.611500 49.111400
-6.601300 55.300600
-6.591100 58.620100
-6.580900 58.475800
-6.570800 54.845000
-6.560600 48.318000
-6.550400 39.983000
-6.540200 31.186100
-6.530000 23.247000
-6.519800 17.231400
-6.509600 13.836500
-6.499400 13.383400
-6.489300 15.855700
-6.479100 20.926400
-6.468900 27.961600
-6.458700 36.036600
-6.448500 44.017600
-6.438300 50.726300
-6.428100 55.153000
-6.417900 56.648800
-6.407800 55.036000
-6.397600 50.609600
-6.387400 44.044300
-6.377200 36.239900
-6.367000 28.143700
-6.356800 20.583000
-6.346600 14.141200
-6.336400 9.103800
-6.326200 5.478700
-6.316100 3.075400
-6.305900 1.607300
-6.295700 0.780900
-6.285500 0.352200
-6.275300 0.147300
-6.265100 0.057100
-6.254900 0.020500
-6.244700 0.006800
-6.234600 0.002100
-6.224400 0.000600
-6.214200 0.000200
-6.204000 0.000000
-6.193800 0.000000
-6.183600 0.000000
-6.173400 0.000000
-6.163200 0.000000
-6.153100 0.000000
-6.142900 0.000000
-6.132700 0.000000
-6.122500 0.000000
-6.112300 0.000000
-6.102100 0.000000
-6.091900 0.000000
-6.081700 0.000000
-6.071600 0.000000
-6.061400 0.000000
-6.051200 0.000000
-6.041000 0.000000
-6.030800 0.000000
-6.020600 0.000000
-6.010400 0.000000
-6.000200 0.000000
-5.990000 0.000000
-5.979900 0.000000
-5.969700 0.000000
-5.959500 0.000000
-5.949300 0.000000
-5.939100 0.000000
-5.928900 0.000000
-5.918700 0.000000
-5.908500 0.000000
-5.898400 0.000000
-5.888200 0.000000
-5.878000 0.000000
-5.867800 0.000000
-5.857600 0.000000
-5.847400 0.000000
-5.837200 0.000000
-5.827000 0.000000
-5.816900 0.000000
-5.806700 0.000000
-5.796500 0.000000
-5.786300 0.000000
-5.776100 0.000000
-5.765900 0.000000
-5.755700 0.000000
-5.745500 0.000000
-5.735400 0.000000
-5.725200 0.000000
-5.715000 0.000000
-5.704800 0.000000
-5.694600 0.000000
-5.684400 0.000000
-5.674200 0.000000
-5.664000 0.000000
-5.653900 0.000000
-5.643700 0.000000
-5.633500 0.000000
-5.623300 0.000000
-5.613100 0.000000
-5.602900 0.000000
-5.592700 0.000000
-5.582500 0.000000
-5.572300 0.000000
-5.562200 0.000000
-5.552000 0.000000
-5.541800 0.000000
-5.531600 0.000000
-5.521400 0.000000
-5.511200 0.000000
-5.501000 0.000000
-5.490800 0.000000
-5.480700 0.000000
-5.470500 0.000000
-5.460300 0.000000
-5.450100 0.000000
-5.439900 0.000000
-5.429700 0.000000
-5.419500 0.000000
-5.409300 0.000000
-5.399200 0.000000
-5.389000 0.000000
-5.378800 0.000000
-5.368600 0.000000
-5.358400 0.000000
-5.348200 0.000000
-5.338000 0.000000
-5.327800 0.000000
-5.317700 0.000000
-5.307500 0.000000
-5.297300 0.000000
-5.287100 0.000000
-5.276900 0.000000
-5.266700 0.000000
-5.256500 0.000000
-5.246300 0.000000
-5.236200 0.000000
-5.226000 0.000000
-5.215800 0.000000
-5.205600 0.000000
-5.195400 0.000000
-5.185200 0.000000
-5.175000 0.000000
-5.164800 0.000000
-5.154600 0.000000
-5.144500 0.000000
-5.134300 0.000000
-5.124100 0.000000
-5.113900 0.000000
-5.103700 0.000000
-5.093500 0.000000
-5.083300 0.000000
-5.073100 0.000000
-5.063000 0.000000
-5.052800 0.000000
-5.042600 0.000000
-5.032400 0.000000
-5.022200 0.000000
-5.012000 0.000000
-5.001800 0.000000
-4.991600 0.000000
-4.981500 0.000000
-4.971300 0.000000
-4.961100 0.000000
-4.950900 0.000000
-4.940700 0.000000
-4.930500 0.000000
-4.920300 0.000000
-4.910100 0.000000
-4.900000 0.000000
-4.889800 0.000000
-4.879600 0.000000
-4.869400 0.000000
-4.859200 0.000000
-4.849000 0.000000
-4.838800 0.000000
-4.828600 0.000000
-4.818400 0.000000
-4.808300 0.000000
-4.798100 0.000000
-4.787900 0.000000
-4.777700 0.000000
-4.767500 0.000000
-4.757300 0.000000
-4.747100 0.000000
-4.736900 0.000000
-4.726800 0.000000
-4.716600 0.000000
-4.706400 0.000000
-4.696200 0.000000
-4.686000 0.000000
-4.675800 0.000000
-4.665600 0.000000
-4.655400 0.000000
-4.645300 0.000000
-4.635100 0.000000
-4.624900 0.000000
-4.614700 0.000000
-4.604500 0.000000
-4.594300 0.000000
-4.584100 0.000000
-4.573900 0.000000
-4.563800 0.000000
-4.553600 0.000000
-4.543400 0.000000
-4.533200 0.000000
-4.523000 0.000000
-4.512800 0.000000
-4.502600 0.000000
-4.492400 0.000000
-4.482300 0.000000
-4.472100 0.000000
-4.461900 0.000000
-4.451700 0.000000
-4.441500 0.000000
-4.431300 0.000000
-4.421100 0.000000
-4.410900 0.000000
-4.400700 0.000000
-4.390600 0.000000
-4.380400 0.000000
-4.370200 0.000000
-4.360000 0.000000
-4.349800 0.000000
-4.339600 0.000000
-4.329400 0.000000
-4.319200 0.000000
-4.309100 0.000000
-4.298900 0.000000
-4.288700 0.000000
-4.278500 0.000000
-4.268300 0.000000
-4.258100 0.000000
-4.247900 0.000000
-4.237700 0.000000
-4.227600 0.000000
-4.217400 0.000000
-4.207200 0.000000
-4.197000 0.000000
-4.186800 0.000000
-4.176600 0.000000
-4.166400 0.000000
-4.156200 0.000000
-4.146100 0.000000
-4.135900 0.000000
-4.125700 0.000000
-4.115500 0.000000
-4.105300 0.000000
-4.095100 0.000000
-4.084900 0.000000
-4.074700 0.000000
-4.064600 0.000000
-4.054400 0.000000
-4.044200 0.000000
-4.034000 0.000000
-4.023800 0.000000
-4.013600 0.000000
-4.003400 0.000000
-3.993200 0.000000
-3.983000 0.000000
-3.972900 0.000000
-3.962700 0.000000
-3.952500 0.000000
-3.942300 0.000000
-3.932100 0.000000
-3.921900 0.000000
-3.911700 0.000000
-3.901500 0.000000
-3.891400 0.000000
-3.881200 0.000000
-3.871000 0.000000
-3.860800 0.000000
-3.850600 0.000000
-3.840400 0.000000
-3.830200 0.000000
-3.820000 0.000000
-3.809900 0.000000
-3.799700 0.000000
-3.789500 0.000000
-3.779300 0.000000
-3.769100 0.000000
-3.758900 0.000000
-3.748700 0.000000
-3.738500 0.000000
-3.728400 0.000000
-3.718200 0.000000
-3.708000 0.000000
-3.697800 0.000000
-3.687600 0.000000
-3.677400 0.000000
-3.667200 0.000000
-3.657000 0.000000
-3.646900 0.000000
-3.636700 0.000000
-3.626500 0.000000
-3.616300 0.000000
-3.606100 0.000000
-3.595900 0.000000
-3.585700 0.000000
-3.575500 0.000000
-3.565300 0.000000
-3.555200 0.000000
-3.545000 0.000000
-3.534800 0.000000
-3.524600 0.000000
-3.514400 0.000000
-3.504200 0.000000
-3.494000 0.000000
-3.483800 0.000000
-3.473700 0.000000
-3.463500 0.000000
-3.453300 0.000000
-3.443100 0.000000
-3.432900 0.000000
-3.422700 0.000000
-3.412500 0.000000
-3.402300 0.000000
-3.392200 0.000000
-3.382000 0.000000
-3.371800 0.000000
-3.361600 0.000000
-3.351400 0.000000
-3.341200 0.000000
-3.331000 0.000000
-3.320800 0.000000
-3.310700 0.000000
-3.300500 0.000000
-3.290300 0.000000
-3.280100 0.000000
-3.269900 0.000000
-3.259700 0.000000
-3.249500 0.000000
-3.239300 0.000000
-3.229100 0.000000
-3.219000 0.000000
-3.208800 0.000000
-3.198600 0.000000
-3.188400 0.000000
-3.178200 0.000000
-3.168000 0.000000
-3.157800 0.000000
-3.147600 0.000000
-3.137500 0.000000
-3.127300 0.000000
-3.117100 0.000000
-3.106900 0.000000
-3.096700 0.000000
-3.086500 0.000000
-3.076300 0.000000
-3.066100 0.000000
-3.056000 0.000000
-3.045800 0.000000
-3.035600 0.000000
-3.025400 0.000000
-3.015200 0.000000
-3.005000 0.000000
-2.994800 0.000000
-2.984600 0.000000
-2.974500 0.000000
-2.964300 0.000000
-2.954100 0.000000
-2.943900 0.000000
-2.933700 0.000000
-2.923500 0.000000
-2.913300 0.000000
-2.903100 0.000000
-2.893000 0.000000
-2.882800 0.000000
-2.872600 0.000000
-2.862400 0.000000
-2.852200 0.000000
-2.842000 0.000000
-2.831800 0.000000
-2.821600 0.000000
-2.811400 0.000000
-2.801300 0.000000
-2.791100 0.000000
-2.780900 0.000000
-2.770700 0.000000
-2.760500 0.000000
-2.750300 0.000000
-2.740100 0.000000
-2.729900 0.000000
-2.719800 0.000000
-2.709600 0.000000
-2.699400 0.000000
-2.689200 0.000000
-2.679000 0.000000
-2.668800 0.000000
-2.658600 0.000000
-2.648400 0.000000
-2.638300 0.000000
-2.628100 0.000000
-2.617900 0.000000
-2.607700 0.000000
-2.597500 0.000000
-2.587300 0.000000
-2.577100 0.000000
-2.566900 0.000000
-2.556800 0.000000
-2.546600 0.000000
-2.536400 0.000000
-2.526200 0.000000
-2.516000 0.000000
-2.505800 0.000000
-2.495600 0.000000
-2.485400 0.000000
-2.475300 0.000000
-2.465100 0.000000
-2.454900 0.000000
-2.444700 0.000000
-2.434500 0.000000
-2.424300 0.000000
-2.414100 0.000000
-2.403900 0.000000
-2.393700 0.000000
-2.383600 0.000000
-2.373400 0.000000
-2.363200 0.000000
-2.353000 0.000000
-2.342800 0.000000
-2.332600 0.000000
-2.322400 0.000000
-2.312200 0.000000
-2.302100 0.000000
-2.291900 0.000000
-2.281700 0.000200
-2.271500 0.000800
-2.261300 0.002700
-2.251100 0.008700
-2.240900 0.026000
-2.230700 0.071300
-2.220600 0.180400
-2.210400 0.420500
-2.200200 0.903400
-2.190000 1.788900
-2.179800 3.264800
-2.169600 5.491300
-2.159400 8.512100
-2.149200 12.160100
-2.139100 16.009300
-2.128900 19.423600
-2.118700 21.717100
-2.108500 22.375900
-2.098300 21.245000
-2.088100 18.587400
-2.077900 14.985000
-2.067700 11.132000
-2.057500 7.620800
-2.047400 4.810300
-2.037200 2.807900
-2.027000 1.539700
-2.016800 0.855800
-2.006600 0.624400
-1.996400 0.793000
-1.986200 1.413900
-1.976000 2.635300
-1.965900 4.654400
-1.955700 7.628400
-1.945500 11.557500
-1.935300 16.178600
-1.925100 20.934400
-1.914900 25.069200
-1.904700 27.851700
-1.894500 28.846000
-1.884400 28.102500
-1.874200 26.157700
-1.864000 23.824800
-1.853800 21.865300
-1.843600 20.701700
-1.833400 20.306200
-1.823200 20.308600
-1.813000 20.250500
-1.802900 19.848900
-1.792700 19.144800
-1.782500 18.484200
-1.772300 18.367200
-1.762100 19.246900
-1.751900 21.358200
-1.741700 24.622400
-1.731500 28.645900
-1.721400 32.815400
-1.711200 36.471000
-1.701000 39.106700
-1.690800 40.514700
-1.680600 40.801200
-1.670400 40.263500
-1.660200 39.203500
-1.650000 37.793300
-1.639800 36.070900
-1.629700 34.048600
-1.619500 31.833800
-1.609300 29.663000
-1.599100 27.820100
-1.588900 26.504800
-1.578700 25.755900
-1.568500 25.494000
-1.558300 25.657900
-1.548200 26.335100
-1.538000 27.776400
-1.527800 30.256800
-1.517600 33.843000
-1.507400 38.199300
-1.497200 42.553600
-1.487000 45.868900
-1.476800 47.160200
-1.466700 45.824100
-1.456500 41.842400
-1.446300 35.779200
-1.436100 28.585500
-1.425900 21.303400
-1.415700 14.789800
-1.405500 9.553900
-1.395300 5.736400
-1.385200 3.198400
-1.375000 1.655000
-1.364800 0.796200
-1.354600 0.362500
-1.344400 0.175000
-1.334200 0.136000
-1.324000 0.218100
-1.313800 0.455300
-1.303700 0.935600
-1.293500 1.788400
-1.283300 3.152700
-1.273100 5.118800
-1.262900 7.653500
-1.252700 10.537400
-1.242500 13.359800
-1.232300 15.597300
-1.222100 16.768300
-1.212000 16.600300
-1.201800 15.133200
-1.191600 12.703800
-1.181400 9.820300
-1.171200 6.990400
-1.161000 4.582100
-1.150800 2.765900
-1.140600 1.537800
-1.130500 0.788600
-1.120300 0.376300
-1.110100 0.176800
-1.099900 0.106400
-1.089700 0.126900
-1.079500 0.242700
-1.069300 0.497300
-1.059100 0.969600
-1.049000 1.766700
-1.038800 3.006100
-1.028600 4.788200
-1.018400 7.161000
-1.008200 10.087900
-0.998000 13.426100
-0.987800 16.925200
-0.977600 20.250700
-0.967500 23.037300
-0.957300 24.972400
-0.947100 25.892000
-0.936900 25.853400
-0.926700 25.133900
-0.916500 24.131600
-0.906300 23.197600
-0.896100 22.482900
-0.886000 21.892300
-0.875800 21.178500
-0.865600 20.123600
-0.855400 18.695300
-0.845200 17.080300
-0.835000 15.579000
-0.824800 14.430800
-0.814600 13.679400
-0.804400 13.154700
-0.794300 12.573600
-0.784100 11.697900
-0.773900 10.462900
-0.763700 9.022900
-0.753500 7.703300
-0.743300 6.892100
-0.733100 6.912600
-0.722900 7.913300
-0.712800 9.795200
-0.702600 12.199900
-0.692400 14.573300
-0.682200 16.306700
-0.672000 16.918500
-0.661800 16.208500
-0.651600 14.315000
-0.641400 11.647100
-0.631300 8.728300
-0.621100 6.025000
-0.610900 3.833800
-0.600700 2.257600
-0.590500 1.252400
-0.580300 0.705400
-0.570100 0.503100
-0.559900 0.570500
-0.549800 0.876500
-0.539600 1.415400
-0.529400 2.173300
-0.519200 3.094700
-0.509000 4.064800
-0.498800 4.920800
-0.488600 5.494000
-0.478400 5.670900
-0.468200 5.446600
-0.458100 4.947600
-0.447900 4.413400
-0.437700 4.145000
-0.427500 4.432800
-0.417300 5.480100
-0.407100 7.329400
-0.396900 9.810200
-0.386700 12.532100
-0.376600 14.952300
-0.366400 16.517200
-0.356200 16.836800
-0.346000 15.818900
-0.335800 13.697800
-0.325600 10.943200
-0.315400 8.097500
-0.305200 5.618500
-0.295100 3.790100
-0.284900 2.713500
-0.274700 2.351300
-0.264500 2.580000
-0.254300 3.226100
-0.244100 4.085300
-0.233900 4.944100
-0.223700 5.621000
-0.213600 6.022300
-0.203400 6.191700
-0.193200 6.319600
-0.183000 6.693600
-0.172800 7.593100
-0.162600 9.160800
-0.152400 11.300700
-0.142200 13.656600
-0.132100 15.695100
-0.121900 16.877200
-0.111700 16.855400
-0.101500 15.609500
-0.091300 13.464800
-0.081100 10.990000
-0.070900 8.829100
-0.060700 7.540100
-0.050500 7.488200
-0.040400 8.801400
-0.030200 11.374000
-0.020000 14.904000
-0.009800 18.957400
0.000400 23.051000
0.010600 26.730300
0.020800 29.615800
0.031000 31.414800
0.041100 31.923800
0.051300 31.056600
0.061500 28.897900
0.071700 25.740700
0.081900 22.054900
0.092100 18.377100
0.102300 15.171700
0.112500 12.741200
0.122600 11.226700
0.132800 10.676700
0.143000 11.113000
0.153200 12.532600
0.163400 14.840300
0.173600 17.768000
0.183800 20.855300
0.194000 23.535800
0.204100 25.305200
0.214300 25.897600
0.224500 25.384300
0.234700 24.150400
0.244900 22.757800
0.255100 21.750900
0.265300 21.470400
0.275500 21.938400
0.285600 22.853700
0.295800 23.708300
0.306000 23.992400
0.316200 23.412700
0.326400 22.029600
0.336600 20.240600
0.346800 18.608300
0.357000 17.605000
0.367200 17.395500
0.377300 17.762200
0.387500 18.211000
0.397700 18.206800
0.407900 17.426100
0.418100 15.910000
0.428300 14.052700
0.438500 12.440800
0.448700 11.619700
0.458800 11.884900
0.469000 13.171000
0.479200 15.075600
0.489400 17.002000
0.499600 18.368000
0.509800 18.797500
0.520000 18.221600
0.530200 16.856600
0.540300 15.090200
0.550500 13.349300
0.560700 12.011200
0.570900 11.376000
0.581100 11.666600
0.591300 13.014700
0.601500 15.419300
0.611700 18.706600
0.621800 22.526200
0.632000 26.403000
0.642200 29.822500
0.652400 32.320700
0.662600 33.559100
0.672800 33.388300
0.683000 31.898900
0.693200 29.441100
0.703400 26.578100
0.713500 23.960500
0.723700 22.151400
0.733900 21.465400
0.744100 21.886700
0.754300 23.096000
0.764500 24.597200
0.774700 25.897400
0.784900 26.672100
0.795000 26.849300
0.805200 26.578100
0.815400 26.102900
0.825600 25.620600
0.835800 25.210600
0.846000 24.877500
0.856200 24.668100
0.866400 24.763200
0.876500 25.459500
0.886700 27.030900
0.896900 29.547900
0.907100 32.768300
0.917300 36.165400
0.927500 39.076800
0.937700 40.894800
0.947900 41.214400
0.958000 39.905300
0.968200 37.117700
0.978400 33.244800
0.988600 28.849600
0.998800 24.551300
1.009000 20.880400
1.019200 18.144800
1.029400 16.366000
1.039500 15.327700
1.049700 14.721900
1.059900 14.322700
1.070100 14.093700
1.080300 14.170200
1.090500 14.726400
1.100700 15.810000
1.110900 17.248400
1.121100 18.689800
1.131200 19.763000
1.141400 20.267100
1.151600 20.279800
1.161800 20.123800
1.172000 20.210700
1.182200 20.850200
1.192400 22.125600
1.202600 23.895000
1.212700 25.906100
1.222900 27.954300
1.233100 29.997700
1.243300 32.167500
1.253500 34.673900
1.263700 37.657200
1.273900 41.057500
1.284100 44.557600
1.294200 47.618500
1.304400 49.593500
1.314600 49.889900
1.324800 48.138900
1.335000 44.326700
1.345200 38.845100
