set title 'mp-632291 - Density of States'
set xlabel 'Energy (eV)'
set ylabel 'DOS (states/eV)'
set grid
set xrange [-10:10]
set yrange [0:3.512]
set xzeroaxis lt -1
set terminal png size 800,600
set output 'mp-632291_dos_gnuplot.png'
plot '-' using 1:2 with lines title 'DOS'
-17.604600 0.000000
-17.525900 0.000000
-17.447100 0.000000
-17.368300 0.000000
-17.289500 0.000000
-17.210700 0.000000
-17.131900 0.000000
-17.053200 0.000000
-16.974400 0.000000
-16.895600 0.000000
-16.816800 0.000000
-16.738000 0.000000
-16.659200 0.000000
-16.580400 0.000000
-16.501700 0.000000
-16.422900 0.000000
-16.344100 0.000000
-16.265300 0.000000
-16.186500 0.000000
-16.107700 0.000000
-16.029000 0.000000
-15.950200 0.000000
-15.871400 0.000000
-15.792600 0.000000
-15.713800 0.000000
-15.635000 0.000000
-15.556300 0.000000
-15.477500 0.000000
-15.398700 0.000000
-15.319900 0.000000
-15.241100 0.000000
-15.162300 0.000000
-15.083600 0.000000
-15.004800 0.000000
-14.926000 0.000000
-14.847200 0.000000
-14.768400 0.000000
-14.689600 0.000000
-14.610900 0.000000
-14.532100 0.000000
-14.453300 0.000000
-14.374500 0.000000
-14.295700 0.000000
-14.216900 0.000000
-14.138200 0.000000
-14.059400 0.000000
-13.980600 0.000000
-13.901800 0.000000
-13.823000 0.000000
-13.744200 0.000000
-13.665500 0.000000
-13.586700 0.000000
-13.507900 0.000000
-13.429100 0.000000
-13.350300 0.000000
-13.271500 0.000000
-13.192800 0.000000
-13.114000 0.000000
-13.035200 0.000000
-12.956400 0.000000
-12.877600 0.000000
-12.798800 0.000000
-12.720100 0.000000
-12.641300 0.000000
-12.562500 0.000000
-12.483700 0.000000
-12.404900 0.000000
-12.326100 0.000000
-12.247400 0.000000
-12.168600 0.000000
-12.089800 0.000000
-12.011000 0.000000
-11.932200 0.000000
-11.853400 0.000000
-11.774600 0.000000
-11.695900 0.000000
-11.617100 0.000000
-11.538300 0.000000
-11.459500 0.000000
-11.380700 0.000000
-11.301900 0.000000
-11.223200 0.000000
-11.144400 0.000000
-11.065600 0.000000
-10.986800 0.000000
-10.908000 0.000000
-10.829200 0.000000
-10.750500 0.000000
-10.671700 0.000000
-10.592900 0.000000
-10.514100 0.001600
-10.435300 0.064500
-10.356500 0.096300
-10.277800 0.159200
-10.199000 0.246500
-10.120200 0.340700
-10.041400 0.094900
-9.962600 0.308500
-9.883800 0.531300
-9.805100 0.387400
-9.726300 0.460400
-9.647500 0.387300
-9.568700 0.305500
-9.489900 0.884700
-9.411100 0.735400
-9.332400 0.621300
-9.253600 0.888800
-9.174800 0.601600
-9.096000 1.045100
-9.017200 1.695000
-8.938400 1.324300
-8.859700 1.943100
-8.780900 2.314900
-8.702100 2.247000
-8.623300 3.192600
-8.544500 1.526400
-8.465700 0.801500
-8.387000 0.931900
-8.308200 0.477900
-8.229400 0.394300
-8.150600 0.278000
-8.071800 0.093100
-7.993000 0.005000
-7.914300 0.000000
-7.835500 0.000000
-7.756700 0.000000
-7.677900 0.000000
-7.599100 0.000000
-7.520300 0.000000
-7.441600 0.000000
-7.362800 0.000000
-7.284000 0.000000
-7.205200 0.000000
-7.126400 0.000000
-7.047600 0.000000
-6.968800 0.000000
-6.890100 0.000000
-6.811300 0.000000
-6.732500 0.000000
-6.653700 0.000000
-6.574900 0.000000
-6.496100 0.000000
-6.417400 0.000000
-6.338600 0.000000
-6.259800 0.000000
-6.181000 0.000000
-6.102200 0.000000
-6.023400 0.000000
-5.944700 0.000000
-5.865900 0.000000
-5.787100 0.000000
-5.708300 0.000000
-5.629500 0.000000
-5.550700 0.000000
-5.472000 0.000000
-5.393200 0.000000
-5.314400 0.000000
-5.235600 0.000000
-5.156800 0.000000
-5.078000 0.000000
-4.999300 0.000000
-4.920500 0.000000
-4.841700 0.000000
-4.762900 0.000000
-4.684100 0.000000
-4.605300 0.000000
-4.526600 0.000000
-4.447800 0.000000
-4.369000 0.000000
-4.290200 0.000000
-4.211400 0.000000
-4.132600 0.000000
-4.053900 0.000000
-3.975100 0.000000
-3.896300 0.000000
-3.817500 0.000000
-3.738700 0.000000
-3.659900 0.000000
-3.581200 0.000000
-3.502400 0.000000
-3.423600 0.000000
-3.344800 0.000000
-3.266000 0.000000
-3.187200 0.000000
-3.108500 0.000000
-3.029700 0.000000
-2.950900 0.000000
-2.872100 0.000000
-2.793300 0.000000
-2.714500 0.000000
-2.635800 0.000000
-2.557000 0.000000
-2.478200 0.000000
-2.399400 0.000000
-2.320600 0.000000
-2.241800 0.000000
-2.163000 0.000000
-2.084300 0.000000
-2.005500 0.000000
-1.926700 0.000000
-1.847900 0.000000
-1.769100 0.000000
-1.690300 0.000000
-1.611600 0.000000
-1.532800 0.000000
-1.454000 0.000000
-1.375200 0.000000
-1.296400 0.000000
-1.217600 0.000000
-1.138900 0.000000
-1.060100 0.000000
-0.981300 0.000000
-0.902500 0.000000
-0.823700 0.000000
-0.744900 0.000000
-0.666200 0.000000
-0.587400 0.000000
-0.508600 0.000000
-0.429800 0.000000
-0.351000 0.000000
-0.272200 0.000000
-0.193500 0.000000
-0.114700 0.000000
-0.035900 0.000000
0.042900 0.000000
0.121700 0.000000
0.200500 0.000000
0.279200 0.000000
0.358000 0.000000
0.436800 0.000000
0.515600 0.000000
0.594400 0.000000
0.673200 0.000000
0.751900 0.000100
0.830700 0.040100
0.909500 0.400500
0.988300 0.223200
1.067100 0.301200
1.145900 0.128500
1.224600 0.299100
1.303400 0.579500
1.382200 0.948600
1.461000 0.988600
1.539800 0.855100
1.618600 0.327900
1.697300 1.114900
1.776100 1.134800
1.854900 0.901000
1.933700 1.035900
2.012500 1.148300
2.091300 0.458600
2.170100 0.564400
2.248800 0.817300
2.327600 1.012300
2.406400 0.392200
2.485200 0.394500
2.564000 0.876600
2.642800 0.885200
2.721500 0.881900
2.800300 0.474900
2.879100 1.156600
2.957900 1.282700
3.036700 0.653000
3.115500 0.295700
3.194200 0.776800
3.273000 0.494200
3.351800 0.305100
3.430600 0.402600
3.509400 0.320000
3.588200 0.417900
3.666900 0.467800
3.745700 0.386500
3.824500 0.399300
3.903300 0.255100
3.982100 0.374200
4.060900 0.550400
4.139600 0.179500
4.218400 0.073800
4.297200 0.070000
4.376000 0.196700
4.454800 0.655200
4.533600 0.722500
4.612300 0.724600
4.691100 0.673400
4.769900 0.587400
4.848700 0.339100
4.927500 0.261900
5.006300 0.642200
5.085000 0.665100
5.163800 0.274000
5.242600 0.191800
5.321400 0.743800
5.400200 0.465700
5.479000 0.060600
5.557700 0.553500
5.636500 0.491500
5.715300 0.621500
5.794100 0.600700
5.872900 0.438500
5.951700 0.570800
6.030400 0.148800
6.109200 0.332200
6.188000 0.784600
6.266800 0.821100
6.345600 0.396100
6.424400 0.382800
6.503100 0.462100
6.581900 0.283100
6.660700 0.419300
6.739500 0.307000
6.818300 0.421700
6.897100 0.718000
6.975900 0.804600
7.054600 0.904200
7.133400 1.174200
7.212200 0.678700
7.291000 0.243600
7.369800 0.500900
7.448600 0.286700
7.527300 0.380700
7.606100 0.143800
7.684900 0.481600
7.763700 1.041300
7.842500 0.531400
7.921300 0.575300
8.000000 0.351700
8.078800 0.562400
8.157600 0.466100
8.236400 0.101700
8.315200 0.372300
8.394000 1.572300
8.472700 0.781300
8.551500 0.689600
8.630300 0.611500
8.709100 0.473400
8.787900 0.600700
8.866700 0.300100
8.945400 1.112500
9.024200 1.116800
9.103000 0.758300
9.181800 0.720300
9.260600 0.681500
9.339400 0.922500
9.418100 0.604700
9.496900 0.416800
9.575700 0.578300
9.654500 0.426800
9.733300 0.477300
9.812100 0.309900
9.890800 0.270100
9.969600 0.638200
10.048400 1.128900
10.127200 0.608600
10.206000 0.554900
10.284800 0.469300
10.363500 0.530700
10.442300 0.444800
10.521100 0.377500
10.599900 0.266400
10.678700 0.506100
10.757500 0.926700
10.836200 0.446300
10.915000 0.444400
10.993800 0.823900
11.072600 1.266900
11.151400 0.845200
11.230200 0.758600
11.308900 0.979400
11.387700 1.218700
11.466500 0.787000
11.545300 0.915900
11.624100 0.696200
11.702900 0.137200
11.781700 0.363800
11.860400 1.031300
11.939200 0.806100
12.018000 0.980000
12.096800 0.421700
12.175600 0.981500
12.254400 0.858700
12.333100 0.539100
12.411900 0.947000
12.490700 0.388800
12.569500 0.500100
12.648300 0.869100
12.727100 0.839500
12.805800 0.912900
12.884600 1.092700
12.963400 0.144700
13.042200 0.359500
13.121000 0.711700
13.199800 0.392500
13.278500 0.632500
13.357300 0.355300
13.436100 0.840200
13.514900 0.684200
13.593700 0.208300
13.672500 0.639700
13.751200 1.133900
13.830000 0.897900
13.908800 0.479800
13.987600 0.272000
14.066400 0.233600
14.145200 0.170900
14.223900 0.499700
14.302700 0.177100
14.381500 0.499100
14.460300 1.057400
14.539100 0.771200
14.617900 0.417000
14.696600 0.940900
14.775400 1.360100
14.854200 0.881200
14.933000 0.625600
15.011800 0.474400
15.090600 1.188400
15.169300 1.072800
15.248100 0.496300
15.326900 0.471600
15.405700 0.755800
15.484500 0.947500
15.563300 0.643600
15.642000 0.823300
15.720800 0.431100
15.799600 0.532200
15.878400 1.055500
15.957200 0.840600
16.036000 0.844000
16.114700 1.192900
16.193500 0.405800
16.272300 0.138800
16.351100 0.726500
16.429900 0.644100
16.508700 0.666900
16.587500 0.688400
16.666200 0.701600
16.745000 0.314700
16.823800 0.344900
16.902600 0.614100
16.981400 1.466000
17.060200 1.160200
17.138900 0.340600
17.217700 0.792600
17.296500 0.420500
17.375300 0.773500
17.454100 1.081100
17.532900 1.501000
17.611600 1.525600
17.690400 1.038100
17.769200 0.490900
17.848000 0.788500
17.926800 0.326800
18.005600 0.819200
18.084300 1.363500
18.163100 0.788800
18.241900 1.053500
18.320700 1.140900
18.399500 0.387300
18.478300 0.044200
18.557000 0.404200
18.635800 0.470300
18.714600 0.298900
18.793400 0.821600
18.872200 1.149500
18.951000 0.727900
19.029700 0.942600
19.108500 0.759400
19.187300 0.605000
19.266100 0.863200
19.344900 0.293600
19.423700 0.752400
19.502400 1.194200
19.581200 0.938700
19.660000 0.441700
19.738800 0.078500
19.817600 0.480200
19.896400 0.803700
19.975100 1.046100
20.053900 0.861400
20.132700 1.074400
20.211500 0.918600
20.290300 0.956300
20.369100 1.241800
20.447800 1.545600
20.526600 1.107700
20.605400 0.622300
20.684200 1.052700
20.763000 1.384900
20.841800 0.706600
20.920500 0.514500
20.999300 0.600800
21.078100 0.507500
21.156900 1.040500
21.235700 1.218500
21.314500 0.727000
21.393300 0.425000
21.472000 0.956500
21.550800 1.200700
21.629600 0.989900
21.708400 0.587400
21.787200 1.038200
21.866000 0.883000
21.944700 0.448300
22.023500 0.980000
22.102300 0.421500
22.181100 0.284500
22.259900 0.477100
22.338700 0.998400
22.417400 0.853800
22.496200 0.956600
22.575000 0.811100
22.653800 0.926100
22.732600 0.246200
22.811400 0.538800
22.890100 1.070400
22.968900 1.101400
23.047700 0.949300
23.126500 1.191700
23.205300 1.088100
23.284100 0.583400
23.362800 0.751300
23.441600 1.025200
23.520400 0.339800
23.599200 0.695900
23.678000 1.128100
23.756800 1.057700
23.835500 0.817400
23.914300 0.823600
23.993100 1.216900
24.071900 0.913200
24.150700 1.077000
24.229500 0.444400
24.308200 1.483800
24.387000 1.768300
24.465800 1.158900
24.544600 0.761100
24.623400 0.161600
24.702200 0.204600
24.780900 0.741400
24.859700 1.136500
24.938500 1.491000
25.017300 0.960300
25.096100 0.473000
25.174900 1.183300
25.253600 0.912000
25.332400 0.393700
25.411200 0.501500
25.490000 0.867400
25.568800 1.160500
25.647600 1.035400
25.726300 0.811100
25.805100 0.839100
25.883900 0.442400
25.962700 0.534200
26.041500 0.293000
26.120300 1.559900
26.199100 0.923300
26.277800 0.555300
26.356600 0.424400
26.435400 1.138200
26.514200 1.098300
26.593000 0.626500
26.671800 1.215700
26.750500 1.293200
26.829300 1.583300
26.908100 1.201700
26.986900 0.453200
27.065700 0.504900
27.144500 0.934400
27.223200 1.248600
27.302000 1.169300
27.380800 1.044800
27.459600 1.338600
27.538400 1.030600
27.617200 1.119400
27.695900 1.330600
27.774700 0.888600
27.853500 0.785500
27.932300 0.967100
28.011100 0.873900
28.089900 0.873800
28.168600 0.580700
28.247400 0.363100
28.326200 0.418600
28.405000 1.319900
28.483800 1.396100
28.562600 1.236300
28.641300 0.661800
28.720100 1.089400
28.798900 0.608200
28.877700 0.904800
28.956500 0.396300
29.035300 0.872100
29.114000 0.890500
29.192800 0.750000
29.271600 0.729300
29.350400 1.034700
29.429200 0.658400
29.508000 0.641900
29.586700 0.658800
29.665500 0.814400
29.744300 1.542500
29.823100 0.868500
29.901900 0.467700
29.980700 0.940200
30.059400 1.225300
30.138200 1.177500
30.217000 0.756200
30.295800 1.333000
30.374600 0.614100
30.453400 1.119500
30.532100 0.902900
30.610900 1.151000
30.689700 0.741000
30.768500 0.672400
30.847300 1.193800
30.926100 1.954500
31.004900 2.072100
31.083600 1.202300
31.162400 1.119500
31.241200 1.031600
31.320000 0.492900
31.398800 1.155000
31.477600 1.285200
31.556300 1.186700
31.635100 0.976800
31.713900 0.722400
31.792700 0.511200
31.871500 0.711900
31.950300 0.506000
32.029000 0.764000
32.107800 0.866700
32.186600 0.800100
32.265400 0.930200
32.344200 0.929700
32.423000 1.402200
32.501700 0.976300
32.580500 0.466500
32.659300 0.589800
32.738100 0.776600
32.816900 0.722000
32.895700 1.003100
32.974400 1.449100
33.053200 1.311700
33.132000 0.389000
33.210800 0.088800
33.289600 0.409600
33.368400 1.045600
33.447100 0.642000
33.525900 1.129700
33.604700 1.314100
33.683500 1.806000
33.762300 1.740900
33.841100 0.906900
33.919800 0.668500
33.998600 1.068500
34.077400 1.397300
34.156200 1.239200
34.235000 1.624400
34.313800 1.738800
34.392500 1.101600
34.471300 0.782700
34.550100 1.149900
34.628900 0.925700
34.707700 0.567600
34.786500 0.554100
34.865200 1.350700
34.944000 0.854300
35.022800 1.085200
35.101600 2.261300
35.180400 0.924700
35.259200 0.280500
35.337900 0.720500
35.416700 1.676200
35.495500 1.473600
35.574300 1.155800
35.653100 1.022800
35.731900 0.877500
35.810700 0.725400
35.889400 0.616800
35.968200 1.035900
36.047000 1.330400
36.125800 1.334100
36.204600 1.306300
36.283400 0.714500
36.362100 0.128800
36.440900 0.338300
36.519700 1.301900
36.598500 1.128400
36.677300 0.852300
36.756100 1.224600
36.834800 1.009400
36.913600 0.620400
36.992400 1.091000
37.071200 1.307600
37.150000 1.378200
37.228800 1.397700
37.307500 0.594500
37.386300 1.053700
37.465100 1.038400
37.543900 0.473600
37.622700 0.727300
37.701500 0.493200
37.780200 0.530400
37.859000 1.662200
37.937800 1.546400
38.016600 0.844600
38.095400 0.962400
38.174200 1.105100
38.252900 1.773000
38.331700 1.372100
38.410500 1.078900
38.489300 0.824500
38.568100 0.655900
38.646900 0.943600
38.725600 0.897200
38.804400 0.943000
38.883200 1.139700
38.962000 1.637200
39.040800 0.576900
39.119600 1.074500
39.198300 1.565500
39.277100 1.896100
39.355900 0.881300
39.434700 1.062800
39.513500 1.195800
39.592300 0.724400
39.671000 1.490000
39.749800 1.651500
39.828600 1.346200
39.907400 1.060500
39.986200 0.857200
40.065000 0.955200
40.143700 1.421300
40.222500 1.641000
40.301300 1.260400
40.380100 0.483400
40.458900 0.930100
40.537700 1.166500
40.616500 0.710500
40.695200 0.414000
40.774000 0.389600
40.852800 1.456900
40.931600 1.517000
41.010400 0.772200
41.089200 1.457000
41.167900 1.338100
41.246700 1.143700
41.325500 0.511600
41.404300 1.082200
41.483100 0.814900
41.561900 1.021700
41.640600 1.021100
41.719400 1.295400
41.798200 0.566400
41.877000 0.852100
41.955800 0.884000
42.034600 1.065700
42.113300 1.786400
42.192100 1.111800
42.270900 0.731800
42.349700 0.606000
42.428500 0.976400
42.507300 0.532200
42.586000 1.826000
42.664800 1.353200
42.743600 0.832600
42.822400 1.593600
42.901200 1.171600
42.980000 0.581600
43.058700 0.980600
43.137500 1.236300
43.216300 1.296200
43.295100 1.274700
43.373900 1.870900
43.452700 1.316000
43.531400 0.838600
43.610200 1.245000
43.689000 1.250800
43.767800 1.053300
43.846600 1.040800
43.925400 0.912800
44.004100 0.982400
44.082900 1.864300
44.161700 1.740400
44.240500 1.628700
44.319300 1.031600
44.398100 1.174500
44.476800 1.356500
44.555600 0.971600
44.634400 1.593000
44.713200 1.164000
44.792000 0.670100
44.870800 0.924500
44.949500 1.773000
45.028300 1.932800
45.107100 1.173900
45.185900 0.947000
45.264700 0.641700
45.343500 0.782600
45.422300 1.380200
45.501000 0.624100
45.579800 0.461600
45.658600 0.574300
45.737400 0.879700
45.816200 1.201500
45.895000 1.062000
45.973700 0.970900
46.052500 0.821600
46.131300 0.674100
46.210100 1.207600
46.288900 1.130300
46.367700 1.543800
46.446400 1.247700
46.525200 1.425000
46.604000 1.187800
46.682800 1.103400
46.761600 1.405100
46.840400 1.357600
46.919100 1.473500
46.997900 0.694300
47.076700 0.834600
47.155500 1.297500
47.234300 1.194000
47.313100 1.067400
47.391800 1.259600
47.470600 1.904500
47.549400 0.888700
47.628200 0.343000
47.707000 0.681000
47.785800 0.756500
47.864500 0.997600
47.943300 1.348500
48.022100 1.415000
48.100900 1.376500
48.179700 0.851200
48.258500 1.130100
48.337200 1.724500
48.416000 1.249600
48.494800 2.243600
48.573600 1.867100
48.652400 0.687600
48.731200 0.948600
48.809900 0.989500
48.888700 0.703500
48.967500 0.618900
49.046300 1.430900
49.125100 0.883400
49.203900 1.239100
49.282600 1.118500
49.361400 1.064000
49.440200 1.459300
49.519000 1.448500
49.597800 1.361800
49.676600 1.592300
49.755300 2.079100
49.834100 1.505600
49.912900 1.178300
49.991700 1.056100
50.070500 1.777100
50.149300 0.708700
50.228100 2.069500
50.306800 2.233000
50.385600 0.976300
50.464400 1.225600
50.543200 1.473500
50.622000 0.847800
50.700800 0.782600
50.779500 1.293800
50.858300 0.971500
50.937100 0.461900
51.015900 1.046600
51.094700 1.633500
51.173500 0.924400
51.252200 1.319200
51.331000 1.137400
51.409800 1.689000
51.488600 1.320100
51.567400 0.823700
51.646200 1.056500
51.724900 1.109100
51.803700 0.348400
51.882500 0.793500
51.961300 0.911100
52.040100 0.770700
52.118900 0.377100
52.197600 1.147600
52.276400 0.989000
52.355200 0.693200
52.434000 0.540200
52.512800 1.331700
52.591600 1.833100
52.670300 0.941800
52.749100 0.754300
52.827900 1.102600
52.906700 1.524400
52.985500 0.887300
53.064300 1.237500
53.143000 0.726100
53.221800 1.022100
53.300600 1.383400
53.379400 1.318100
53.458200 2.265000
53.537000 1.873400
53.615700 1.980000
53.694500 1.216800
53.773300 1.090700
53.852100 1.917700
53.930900 1.122000
54.009700 1.258600
54.088400 1.425400
54.167200 1.198200
54.246000 0.878700
54.324800 1.126800
54.403600 1.668300
54.482400 1.156500
54.561100 1.582200
54.639900 1.936600
54.718700 1.416900
54.797500 1.489000
54.876300 1.818500
54.955100 1.397500
55.033900 1.513500
55.112600 1.306100
55.191400 1.253500
55.270200 1.583600
55.349000 1.846000
55.427800 1.903000
55.506600 0.790100
55.585300 0.529400
55.664100 0.852000
55.742900 1.606800
55.821700 1.644700
55.900500 0.833000
55.979300 0.894000
56.058000 1.331700
56.136800 1.056300
56.215600 0.899800
56.294400 0.622000
56.373200 1.228700
56.452000 1.369300
56.530700 0.995900
56.609500 2.171500
56.688300 2.044200
56.767100 1.713200
56.845900 0.586100
56.924700 1.042700
57.003400 0.926500
57.082200 0.639200
57.161000 0.573100
57.239800 0.731100
57.318600 1.581300
57.397400 1.376800
57.476100 0.908800
57.554900 1.108800
57.633700 1.348700
57.712500 1.402600
57.791300 0.695900
57.870100 0.404600
57.948800 1.111200
58.027600 1.375200
58.106400 0.989800
58.185200 0.749000
58.264000 1.214200
58.342800 0.582000
58.421500 0.983900
58.500300 1.170000
58.579100 0.722400
58.657900 1.687300
58.736700 1.869100
58.815500 1.645400
58.894200 1.672400
58.973000 1.475800
59.051800 0.897800
59.130600 1.248700
59.209400 2.352100
59.288200 1.068600
59.366900 0.808200
59.445700 0.979000
59.524500 0.748000
59.603300 1.861600
59.682100 2.111600
59.760900 1.707800
59.839700 1.796000
59.918400 1.544500
59.997200 1.232100
60.076000 2.074800
60.154800 1.751800
60.233600 1.535300
60.312400 1.428700
60.391100 1.275200
60.469900 1.294500
60.548700 1.767300
60.627500 1.537000
60.706300 1.023600
60.785100 0.846500
60.863800 1.004300
60.942600 1.901700
61.021400 3.001400
61.100200 1.801700
61.179000 1.773900
61.257800 1.870700
61.336500 1.938800
61.415300 0.540400
61.494100 1.237400
61.572900 1.120800
61.651700 1.201100
61.730500 1.147800
61.809200 1.052100
61.888000 1.200400
61.966800 0.867900
62.045600 0.590600
62.124400 1.199500
62.203200 1.063800
62.281900 1.559900
62.360700 1.023000
62.439500 0.744000
62.518300 0.583500
62.597100 0.915400
62.675900 1.024700
62.754600 1.195300
62.833400 1.496100
62.912200 1.173900
62.991000 0.939300
63.069800 0.709600
63.148600 1.147000
63.227300 1.976700
63.306100 1.356100
63.384900 1.517500
63.463700 2.060400
63.542500 1.556400
63.621300 1.588100
63.700000 0.710400
63.778800 0.823400
63.857600 1.849200
63.936400 0.884100
64.015200 1.712300
64.094000 0.912500
64.172700 0.693500
