set title 'mp-1223819 - Density of States'
set xlabel 'Energy (eV)'
set ylabel 'DOS (states/eV)'
set grid
set xrange [-10:10]
set yrange [0:36.974]
set xzeroaxis lt -1
set terminal png size 800,600
set output 'mp-1223819_dos_gnuplot.png'
plot '-' using 1:2 with lines title 'DOS'
-13.025300 0.000000
-13.001400 0.000000
-12.977400 0.000000
-12.953400 0.000000
-12.929400 0.000000
-12.905500 0.000000
-12.881500 0.000000
-12.857500 0.000000
-12.833500 0.000000
-12.809500 0.000000
-12.785600 0.000000
-12.761600 0.000000
-12.737600 0.000000
-12.713600 0.000000
-12.689700 0.000000
-12.665700 0.000000
-12.641700 0.000000
-12.617700 0.000000
-12.593700 0.000000
-12.569800 0.000000
-12.545800 0.000000
-12.521800 0.000000
-12.497800 0.000000
-12.473800 0.000000
-12.449900 0.000000
-12.425900 0.000000
-12.401900 0.000000
-12.377900 0.000000
-12.354000 0.000000
-12.330000 0.000000
-12.306000 0.000000
-12.282000 0.000000
-12.258000 0.000000
-12.234100 0.000000
-12.210100 0.000000
-12.186100 0.000000
-12.162100 0.000000
-12.138200 0.000000
-12.114200 0.000000
-12.090200 0.000000
-12.066200 0.000000
-12.042200 0.000000
-12.018300 0.000000
-11.994300 0.000000
-11.970300 0.000000
-11.946300 0.000000
-11.922400 0.000000
-11.898400 0.000000
-11.874400 0.000000
-11.850400 0.000000
-11.826400 0.000000
-11.802500 0.000000
-11.778500 0.000000
-11.754500 0.000000
-11.730500 0.000000
-11.706600 0.000000
-11.682600 0.000000
-11.658600 0.000000
-11.634600 0.000000
-11.610600 0.000000
-11.586700 0.000000
-11.562700 0.000000
-11.538700 0.000000
-11.514700 0.000000
-11.490800 0.000000
-11.466800 0.000000
-11.442800 0.000000
-11.418800 0.000000
-11.394800 0.000000
-11.370900 0.000000
-11.346900 0.000000
-11.322900 0.000000
-11.298900 0.000000
-11.275000 0.000000
-11.251000 0.000000
-11.227000 0.000000
-11.203000 0.000000
-11.179000 0.000000
-11.155100 0.000000
-11.131100 0.000000
-11.107100 0.000000
-11.083100 0.000000
-11.059200 0.000000
-11.035200 0.000000
-11.011200 0.000000
-10.987200 0.000000
-10.963200 0.000000
-10.939300 0.000000
-10.915300 0.000000
-10.891300 0.000000
-10.867300 0.000000
-10.843400 0.338100
-10.819400 4.063900
-10.795400 5.272200
-10.771400 5.151000
-10.747400 5.521800
-10.723500 5.737800
-10.699500 6.475800
-10.675500 7.213700
-10.651500 13.635100
-10.627600 14.953400
-10.603600 6.363000
-10.579600 2.104900
-10.555600 7.456400
-10.531600 16.443700
-10.507700 16.411400
-10.483700 21.816100
-10.459700 20.573900
-10.435700 8.670600
-10.411800 2.904500
-10.387800 5.472300
-10.363800 15.171400
-10.339800 11.778900
-10.315800 12.119300
-10.291900 19.635700
-10.267900 22.559300
-10.243900 28.029100
-10.219900 27.389100
-10.196000 23.214300
-10.172000 23.794600
-10.148000 6.635900
-10.124000 6.824600
-10.100000 9.054600
-10.076100 7.691300
-10.052100 6.470600
-10.028100 5.249900
-10.004100 4.331500
-9.980200 1.611600
-9.956200 0.000000
-9.932200 0.000000
-9.908200 0.000000
-9.884200 0.000000
-9.860300 0.000000
-9.836300 0.000000
-9.812300 0.000000
-9.788300 0.000000
-9.764400 0.000000
-9.740400 0.000000
-9.716400 0.000000
-9.692400 0.000000
-9.668400 0.000000
-9.644500 0.000000
-9.620500 0.000000
-9.596500 0.000000
-9.572500 0.000000
-9.548600 0.000000
-9.524600 0.000000
-9.500600 0.000000
-9.476600 0.000000
-9.452600 0.000000
-9.428700 0.000000
-9.404700 0.000000
-9.380700 0.000000
-9.356700 0.000000
-9.332800 0.000000
-9.308800 0.000000
-9.284800 0.000000
-9.260800 0.000000
-9.236800 0.000000
-9.212900 0.000000
-9.188900 0.000000
-9.164900 0.000000
-9.140900 0.000000
-9.117000 0.000000
-9.093000 0.000000
-9.069000 0.000000
-9.045000 0.000000
-9.021000 0.000000
-8.997100 0.000000
-8.973100 0.000000
-8.949100 0.000000
-8.925100 0.000000
-8.901100 0.000000
-8.877200 0.000000
-8.853200 0.000000
-8.829200 0.000000
-8.805200 0.000000
-8.781300 0.000000
-8.757300 0.000000
-8.733300 0.000000
-8.709300 0.000000
-8.685300 0.000000
-8.661400 0.000000
-8.637400 0.000000
-8.613400 0.000000
-8.589400 0.000000
-8.565500 0.000000
-8.541500 0.000000
-8.517500 0.000000
-8.493500 0.000000
-8.469500 0.000000
-8.445600 0.000000
-8.421600 0.000000
-8.397600 0.000000
-8.373600 0.000000
-8.349700 0.000000
-8.325700 0.000000
-8.301700 0.000000
-8.277700 0.000000
-8.253700 0.000000
-8.229800 0.000000
-8.205800 0.000000
-8.181800 0.000000
-8.157800 0.000000
-8.133900 0.000000
-8.109900 0.000000
-8.085900 0.000000
-8.061900 0.000000
-8.037900 0.000000
-8.014000 0.000000
-7.990000 0.000000
-7.966000 0.000000
-7.942000 0.000000
-7.918100 0.000000
-7.894100 0.000000
-7.870100 0.000000
-7.846100 0.000000
-7.822100 0.000000
-7.798200 0.000000
-7.774200 0.000000
-7.750200 0.000000
-7.726200 0.000000
-7.702300 0.000000
-7.678300 0.000000
-7.654300 0.000000
-7.630300 0.000000
-7.606300 0.000000
-7.582400 0.000000
-7.558400 0.000000
-7.534400 0.000000
-7.510400 0.000000
-7.486500 0.000000
-7.462500 0.000000
-7.438500 0.000000
-7.414500 0.000000
-7.390500 0.000000
-7.366600 0.000000
-7.342600 0.000000
-7.318600 0.000000
-7.294600 0.000000
-7.270700 0.000000
-7.246700 0.000000
-7.222700 0.000000
-7.198700 0.000000
-7.174700 0.000000
-7.150800 0.000000
-7.126800 0.000000
-7.102800 0.000000
-7.078800 0.000000
-7.054900 0.000000
-7.030900 0.000000
-7.006900 0.000000
-6.982900 0.000000
-6.958900 0.000000
-6.935000 0.000000
-6.911000 0.000000
-6.887000 0.000000
-6.863000 0.000000
-6.839100 0.000000
-6.815100 0.000000
-6.791100 0.000000
-6.767100 0.000000
-6.743100 0.000000
-6.719200 0.000000
-6.695200 0.000000
-6.671200 0.000000
-6.647200 0.000000
-6.623300 0.000000
-6.599300 0.000000
-6.575300 0.000000
-6.551300 0.000000
-6.527300 0.000000
-6.503400 0.000000
-6.479400 0.000000
-6.455400 0.000000
-6.431400 0.000000
-6.407500 0.000000
-6.383500 0.000000
-6.359500 0.000000
-6.335500 0.000000
-6.311500 0.000000
-6.287600 0.000000
-6.263600 0.000000
-6.239600 0.000000
-6.215600 0.000000
-6.191700 0.000000
-6.167700 0.000000
-6.143700 0.000000
-6.119700 0.000000
-6.095700 0.000000
-6.071800 0.000000
-6.047800 0.000000
-6.023800 0.000000
-5.999800 0.000000
-5.975900 0.000000
-5.951900 0.000000
-5.927900 0.000000
-5.903900 0.000000
-5.879900 0.000000
-5.856000 0.000000
-5.832000 0.000000
-5.808000 0.000000
-5.784000 0.000000
-5.760100 0.000000
-5.736100 0.000000
-5.712100 0.000000
-5.688100 0.000000
-5.664100 0.000000
-5.640200 0.000000
-5.616200 0.000000
-5.592200 0.000000
-5.568200 0.000000
-5.544300 0.000000
-5.520300 0.000000
-5.496300 0.000000
-5.472300 0.000000
-5.448300 0.000000
-5.424400 0.000000
-5.400400 0.000000
-5.376400 0.000000
-5.352400 0.000000
-5.328400 0.000000
-5.304500 0.000000
-5.280500 0.000000
-5.256500 0.000000
-5.232500 0.000000
-5.208600 0.000000
-5.184600 0.000000
-5.160600 0.000000
-5.136600 0.000000
-5.112600 0.000000
-5.088700 0.000000
-5.064700 0.029100
-5.040700 0.092500
-5.016700 0.155800
-4.992800 0.219200
-4.968800 0.282500
-4.944800 0.345900
-4.920800 0.409200
-4.896800 0.472600
-4.872900 0.535900
-4.848900 0.282400
-4.824900 0.287600
-4.800900 0.292800
-4.777000 0.298000
-4.753000 0.303300
-4.729000 0.308500
-4.705000 0.313700
-4.681000 0.318900
-4.657100 0.324100
-4.633100 0.329300
-4.609100 0.334500
-4.585100 0.339800
-4.561200 0.345000
-4.537200 0.350200
-4.513200 0.355400
-4.489200 0.360600
-4.465200 0.365800
-4.441300 0.371000
-4.417300 0.368600
-4.393300 0.362100
-4.369300 0.355700
-4.345400 0.349200
-4.321400 0.342800
-4.297400 0.336400
-4.273400 0.329900
-4.249400 0.323500
-4.225500 0.317000
-4.201500 0.316700
-4.177500 0.318700
-4.153500 0.320600
-4.129600 0.322600
-4.105600 0.324600
-4.081600 0.326600
-4.057600 0.328500
-4.033600 0.330500
-4.009700 0.332500
-3.985700 0.334500
-3.961700 0.336500
-3.937700 0.338400
-3.913800 0.340400
-3.889800 0.342400
-3.865800 0.344400
-3.841800 0.346300
-3.817800 0.348300
-3.793900 0.350300
-3.769900 0.352300
-3.745900 0.354200
-3.721900 0.356200
-3.698000 0.358200
-3.674000 0.360200
-3.650000 0.362200
-3.626000 0.364100
-3.602000 0.366100
-3.578100 0.368100
-3.554100 0.346500
-3.530100 0.347000
-3.506100 0.347500
-3.482200 0.348000
-3.458200 0.348500
-3.434200 0.349000
-3.410200 0.349500
-3.386200 0.350000
-3.362300 0.350500
-3.338300 0.351000
-3.314300 0.351600
-3.290300 0.352100
-3.266400 0.352600
-3.242400 0.353100
-3.218400 0.353600
-3.194400 0.354100
-3.170400 0.354600
-3.146500 0.356200
-3.122500 0.358100
-3.098500 0.360000
-3.074500 0.361800
-3.050600 0.363700
-3.026600 0.365500
-3.002600 0.367400
-2.978600 0.369300
-2.954600 0.371100
-2.930700 0.373000
-2.906700 0.374800
-2.882700 0.376700
-2.858700 0.378600
-2.834800 0.380400
-2.810800 0.382300
-2.786800 0.384100
-2.762800 0.386000
-2.738800 0.387900
-2.714900 0.389700
-2.690900 0.391600
-2.666900 0.393400
-2.642900 0.395300
-2.619000 0.397200
-2.595000 0.399000
-2.571000 0.400900
-2.547000 0.405000
-2.523000 0.415200
-2.499100 0.433200
-2.475100 0.456000
-2.451100 0.482000
-2.427100 0.511100
-2.403200 0.543100
-2.379200 0.577800
-2.355200 0.615200
-2.331200 0.654800
-2.307200 0.696600
-2.283300 0.707700
-2.259300 0.717400
-2.235300 0.733500
-2.211300 0.752400
-2.187400 0.776300
-2.163400 0.800600
-2.139400 0.823600
-2.115400 0.846000
-2.091400 0.867100
-2.067500 0.886600
-2.043500 0.904500
-2.019500 0.918100
-1.995500 0.925700
-1.971600 0.927500
-1.947600 0.945900
-1.923600 0.979500
-1.899600 1.015100
-1.875600 1.052300
-1.851700 1.090900
-1.827700 1.131300
-1.803700 1.174000
-1.779700 1.218900
-1.755800 1.258800
-1.731800 1.295100
-1.707800 1.333900
-1.683800 1.375000
-1.659800 1.418300
-1.635900 1.466200
-1.611900 1.518200
-1.587900 1.575800
-1.563900 1.636400
-1.539900 1.779700
-1.516000 3.331300
-1.492000 3.061100
-1.468000 2.874800
-1.444000 2.740500
-1.420100 3.006400
-1.396100 3.855000
-1.372100 5.199500
-1.348100 6.522500
-1.324100 7.876100
-1.300200 8.499900
-1.276200 9.151900
-1.252200 10.344700
-1.228200 12.330000
-1.204300 13.052300
-1.180300 12.349700
-1.156300 13.125800
-1.132300 16.332900
-1.108300 18.251600
-1.084400 18.771200
-1.060400 16.838700
-1.036400 18.332600
-1.012400 19.802800
-0.988500 22.048700
-0.964500 19.402500
-0.940500 15.996400
-0.916500 14.396500
-0.892500 14.371500
-0.868600 13.706400
-0.844600 14.684400
-0.820600 11.921500
-0.796600 11.704800
-0.772700 7.552100
-0.748700 7.952900
-0.724700 11.352300
-0.700700 15.424100
-0.676700 10.058800
-0.652800 8.762200
-0.628800 9.765000
-0.604800 11.844700
-0.580800 11.178600
-0.556900 10.500800
-0.532900 9.254500
-0.508900 11.204700
-0.484900 8.196300
-0.460900 17.690000
-0.437000 16.156300
-0.413000 13.484400
-0.389000 13.843200
-0.365000 11.045600
-0.341100 14.539300
-0.317100 13.529100
-0.293100 14.443500
-0.269100 15.064400
-0.245100 14.029800
-0.221200 21.336800
-0.197200 25.681900
-0.173200 25.327300
-0.149200 25.967400
-0.125300 16.069500
-0.101300 33.613100
-0.077300 20.402900
-0.053300 10.562900
-0.029300 12.674000
-0.005400 15.106500
0.018600 16.644300
0.042600 16.565400
0.066600 20.381200
0.090500 18.478600
0.114500 13.260100
0.138500 12.572000
0.162500 14.100100
0.186500 16.764700
0.210400 16.182800
0.234400 16.286600
0.258400 14.056900
0.282400 12.336500
0.306300 8.578300
0.330300 8.256700
0.354300 8.527300
0.378300 10.093900
0.402300 13.465600
0.426200 13.567600
0.450200 13.824700
0.474200 17.543000
0.498200 17.710100
0.522100 16.541400
0.546100 16.298100
0.570100 15.679800
0.594100 15.129000
0.618100 17.051700
0.642000 23.851100
0.666000 12.412900
0.690000 12.135300
0.714000 13.878200
0.737900 18.534700
0.761900 13.584600
0.785900 15.102100
0.809900 14.787900
0.833900 15.404900
0.857800 14.932700
0.881800 12.769400
0.905800 13.342700
0.929800 13.941000
0.953700 13.873900
0.977700 14.147200
1.001700 14.098900
1.025700 13.596000
1.049700 14.284200
1.073600 12.466800
1.097600 12.019800
1.121600 11.799800
1.145600 12.211100
1.169500 10.188700
1.193500 11.217200
1.217500 20.534300
1.241500 16.132700
1.265500 8.861400
1.289400 12.083500
1.313400 12.021800
1.337400 9.312000
1.361400 17.292400
1.385300 13.071400
1.409300 8.669000
1.433300 3.939300
1.457300 3.302000
1.481300 2.725100
1.505200 2.686000
1.529200 2.651100
1.553200 2.638500
1.577200 2.630700
1.601100 2.624400
1.625100 2.416400
1.649100 2.195100
1.673100 2.074000
1.697100 1.965100
1.721000 2.020700
1.745000 2.092600
1.769000 2.189900
1.793000 2.149900
1.816900 2.089900
1.840900 2.032200
1.864900 1.975100
1.888900 1.918500
1.912900 1.862200
1.936800 1.806300
1.960800 1.750400
1.984800 1.694600
2.008800 1.638700
2.032800 1.539700
2.056700 1.479200
2.080700 1.440500
2.104700 1.408200
2.128700 1.389000
2.152600 1.378200
2.176600 1.369000
2.200600 1.368200
2.224600 1.377200
2.248600 1.398100
2.272500 1.421300
2.296500 1.440800
2.320500 1.460600
2.344500 1.481100
2.368400 1.502200
2.392400 1.523000
2.416400 1.538300
2.440400 1.543800
2.464400 1.552000
2.488300 1.557700
2.512300 1.561600
2.536300 1.563800
2.560300 1.564400
2.584200 1.563500
2.608200 2.766500
2.632200 2.330200
2.656200 2.078400
2.680200 1.825300
2.704100 1.570800
2.728100 1.364000
2.752100 1.287100
2.776100 1.278000
2.800000 1.274500
2.824000 1.302600
2.848000 1.337000
2.872000 1.371700
2.896000 1.406600
2.919900 1.441700
2.943900 1.476900
2.967900 1.512400
2.991900 1.547900
3.015800 1.583600
3.039800 1.619400
3.063800 1.655400
3.087800 1.691600
3.111800 1.728100
3.135700 1.764800
3.159700 1.683600
3.183700 1.615600
3.207700 1.549900
3.231600 1.434600
3.255600 1.387500
3.279600 1.371900
3.303600 1.357400
3.327600 1.344000
3.351500 1.331900
3.375500 1.320300
3.399500 1.309000
3.423500 1.297900
3.447400 1.286800
3.471400 1.275900
3.495400 1.264900
3.519400 1.254900
3.543400 1.264200
3.567300 1.270000
3.591300 1.274200
3.615300 1.279600
3.639300 1.285700
3.663200 1.291000
3.687200 1.295400
3.711200 1.299000
3.735200 1.302100
3.759200 1.305200
3.783100 1.308400
3.807100 1.311800
3.831100 1.315400
3.855100 1.333800
3.879000 1.384200
3.903000 1.432200
3.927000 1.472700
3.951000 1.525700
3.975000 1.594000
3.998900 1.617800
4.022900 1.616300
4.046900 1.594500
4.070900 1.549300
4.094800 1.450700
4.118800 1.352600
4.142800 1.294600
4.166800 1.258700
4.190800 1.230900
4.214700 1.212600
4.238700 1.206200
4.262700 1.226400
4.286700 1.277000
4.310600 1.346200
4.334600 1.403300
4.358600 1.445400
4.382600 1.483400
4.406600 1.469300
4.430500 1.527600
4.454500 1.590800
4.478500 1.658000
4.502500 1.696200
4.526400 1.711000
4.550400 1.705600
4.574400 1.696900
4.598400 1.688900
4.622400 1.688600
4.646300 1.693800
4.670300 1.697200
4.694300 1.698600
4.718300 1.697700
4.742200 1.692200
4.766200 1.768800
4.790200 1.721000
4.814200 1.618800
4.838200 1.513500
4.862100 1.662700
4.886100 1.607200
4.910100 1.562100
4.934100 1.527300
4.958000 1.500400
4.982000 1.479700
5.006000 1.471500
5.030000 1.469600
5.054000 1.637200
5.077900 1.551000
5.101900 1.483100
5.125900 1.431600
5.149900 1.395500
5.173800 1.331800
5.197800 1.249200
5.221800 1.190000
5.245800 1.168400
5.269800 1.171800
5.293700 1.178100
5.317700 1.186300
5.341700 1.196800
5.365700 1.207500
5.389600 1.228300
5.413600 1.260200
5.437600 1.300200
5.461600 1.382600
5.485600 1.514800
5.509500 1.647300
5.533500 1.729500
5.557500 1.763900
5.581500 1.765200
5.605500 1.734800
5.629400 1.677200
5.653400 1.622600
5.677400 1.584100
5.701400 1.550400
5.725300 1.515700
5.749300 1.477800
5.773300 1.438400
5.797300 1.396000
5.821300 1.359000
5.845200 1.332900
5.869200 1.325600
5.893200 1.339200
5.917200 1.358100
5.941100 1.325400
5.965100 1.315900
5.989100 1.307400
6.013100 1.313400
6.037100 1.347400
6.061000 1.381000
6.085000 1.412600
6.109000 1.446600
6.133000 1.486900
6.156900 1.583300
6.180900 1.689100
6.204900 1.746800
6.228900 1.838400
6.252900 1.845600
6.276800 1.736900
6.300800 1.611200
6.324800 1.561700
6.348800 1.520900
6.372700 1.495100
6.396700 1.441500
6.420700 1.383000
6.444700 1.328300
6.468700 1.275500
6.492600 1.225100
6.516600 1.193800
6.540600 1.197700
6.564600 1.278300
6.588500 1.330800
6.612500 1.299300
6.636500 1.263700
6.660500 1.308300
6.684500 1.266000
6.708400 1.217400
6.732400 1.161400
6.756400 1.141600
6.780400 1.125600
6.804300 1.112800
6.828300 1.102800
6.852300 1.095300
6.876300 1.090000
6.900300 1.088200
6.924200 1.090900
6.948200 1.096500
6.972200 1.105900
6.996200 1.118400
7.020100 1.131300
7.044100 1.153600
7.068100 1.214100
7.092100 1.283500
7.116100 1.334600
7.140000 1.385600
7.164000 1.437000
7.188000 1.489200
7.212000 1.545000
7.235900 1.609800
7.259900 1.700000
7.283900 1.822700
7.307900 2.061700
7.331900 2.064000
7.355800 2.028000
7.379800 2.004600
7.403800 1.993600
7.427800 1.995000
7.451700 2.009300
7.475700 2.080200
7.499700 2.170700
7.523700 2.220600
7.547700 2.255000
7.571600 2.201000
7.595600 2.195300
7.619600 2.179700
7.643600 1.980800
7.667500 1.772900
7.691500 1.737500
7.715500 1.708800
7.739500 1.674000
7.763500 1.633200
7.787400 1.600700
7.811400 1.579200
7.835400 1.565900
7.859400 1.554300
7.883300 1.541000
7.907300 1.525300
7.931300 1.624800
7.955300 1.713400
7.979300 1.582700
8.003200 1.337900
8.027200 1.329600
8.051200 1.330600
8.075200 1.340700
8.099100 1.356500
8.123100 1.377900
8.147100 1.405500
8.171100 1.438700
8.195100 1.547300
8.219000 1.752100
8.243000 1.865500
8.267000 1.900600
8.291000 1.905700
8.314900 1.893500
8.338900 1.780200
8.362900 1.811800
8.386900 1.822700
8.410900 1.836800
8.434800 1.866600
8.458800 2.024400
8.482800 1.949800
8.506800 1.799400
8.530700 1.728700
8.554700 1.727000
8.578700 1.767700
8.602700 1.856100
8.626700 1.888100
8.650600 1.893000
8.674600 1.890000
8.698600 1.884300
8.722600 1.879000
8.746500 1.860500
8.770500 1.840400
8.794500 1.826400
8.818500 1.820700
8.842500 1.827100
8.866400 1.838100
8.890400 1.848700
8.914400 1.846000
8.938400 1.834100
8.962300 1.829500
8.986300 1.831400
9.010300 1.844100
9.034300 1.871200
9.058300 1.901600
9.082200 1.933100
9.106200 1.965700
9.130200 1.980600
9.154200 1.970800
9.178100 1.915700
9.202100 1.838700
9.226100 1.856700
9.250100 1.884900
9.274100 1.905200
9.298000 1.917500
9.322000 1.923400
9.346000 1.926300
9.370000 1.929900
9.394000 1.921000
9.417900 1.919800
9.441900 1.917500
9.465900 1.923900
9.489900 1.973600
9.513800 1.925800
9.537800 1.901300
9.561800 1.871600
9.585800 1.845600
9.609800 1.812600
9.633700 1.768200
9.657700 1.712400
9.681700 1.695000
9.705700 1.722300
9.729600 1.759900
9.753600 1.806100
9.777600 1.861900
9.801600 1.926800
9.825600 2.000500
9.849500 2.029400
9.873500 2.044200
9.897500 2.116300
9.921500 2.161500
9.945400 2.181600
9.969400 2.179000
9.993400 2.154600
10.017400 2.113600
10.041400 2.059800
10.065300 2.017700
10.089300 2.009400
10.113300 2.006300
10.137300 2.003800
10.161200 2.011200
10.185200 2.022600
10.209200 2.029600
10.233200 2.031800
10.257200 2.023200
10.281100 2.001300
10.305100 1.989900
10.329100 1.981900
10.353100 1.984900
10.377000 1.999200
10.401000 2.012700
10.425000 2.025100
10.449000 2.038200
10.473000 2.053500
10.496900 2.071300
10.520900 2.091100
10.544900 2.110900
10.568900 2.130700
10.592800 2.155500
10.616800 2.152100
10.640800 2.147100
10.664800 2.144100
10.688800 2.173000
10.712700 2.201700
10.736700 2.215600
10.760700 2.056600
10.784700 2.046300
10.808600 2.077800
10.832600 2.042600
10.856600 2.018700
10.880600 2.026800
10.904600 2.029100
10.928500 2.026000
10.952500 2.020800
10.976500 2.022700
11.000500 2.035900
11.024400 2.058700
11.048400 2.089500
11.072400 2.123900
11.096400 2.160800
11.120400 2.195000
11.144300 2.223000
11.168300 2.247800
11.192300 2.272700
11.216300 2.298200
11.240200 2.323300
11.264200 2.351200
11.288200 2.389100
11.312200 2.446000
11.336200 2.508900
11.360100 2.708600
11.384100 2.728800
11.408100 2.663100
11.432100 2.591900
11.456000 2.558600
11.480000 2.546600
11.504000 2.531800
11.528000 2.522400
11.552000 2.519900
11.575900 2.518300
11.599900 2.518000
11.623900 2.517000
11.647900 2.527500
11.671800 2.561300
11.695800 2.585900
11.719800 2.742700
11.743800 2.543000
11.767800 2.559800
11.791700 2.459700
11.815700 2.416600
11.839700 2.390800
11.863700 2.368700
11.887600 2.338500
11.911600 2.300200
11.935600 2.272700
11.959600 2.247300
11.983600 2.225500
12.007500 2.205700
12.031500 2.187900
12.055500 2.173800
