set title 'mp-171 - Density of States'
set xlabel 'Energy (eV)'
set ylabel 'DOS (states/eV)'
set grid
set xrange [-10:10]
set yrange [0:13.200]
set xzeroaxis lt -1
set terminal png size 800,600
set output 'mp-171_dos_gnuplot.png'
plot '-' using 1:2 with lines title 'DOS'
-63.477700 0.000000
-63.394100 0.000000
-63.310600 0.000000
-63.227000 0.000000
-63.143500 0.000000
-63.059900 0.000000
-62.976400 0.000000
-62.892800 0.000000
-62.809300 0.000000
-62.725700 0.000000
-62.642100 0.000000
-62.558600 0.000000
-62.475000 0.000000
-62.391500 0.000000
-62.307900 0.000000
-62.224400 0.000000
-62.140800 0.000000
-62.057300 0.000000
-61.973700 0.000000
-61.890200 0.000000
-61.806600 0.000000
-61.723000 0.000000
-61.639500 0.000000
-61.555900 0.000000
-61.472400 0.000000
-61.388800 0.000000
-61.305300 0.000000
-61.221700 0.000000
-61.138200 0.000000
-61.054600 0.000000
-60.971000 0.000000
-60.887500 0.000000
-60.803900 0.000000
-60.720400 0.000000
-60.636800 0.000000
-60.553300 0.000000
-60.469700 0.000000
-60.386200 0.000000
-60.302600 0.000000
-60.219100 0.000000
-60.135500 0.000000
-60.051900 0.000000
-59.968400 0.000000
-59.884800 0.000000
-59.801300 0.000000
-59.717700 0.000000
-59.634200 0.000000
-59.550600 0.000000
-59.467100 0.000000
-59.383500 0.000000
-59.300000 0.000000
-59.216400 0.000000
-59.132800 0.000000
-59.049300 0.000000
-58.965700 0.000000
-58.882200 0.000000
-58.798600 0.000000
-58.715100 0.000000
-58.631500 0.000000
-58.548000 0.000000
-58.464400 0.000000
-58.380900 0.000000
-58.297300 0.000000
-58.213700 0.000000
-58.130200 0.000000
-58.046600 0.000000
-57.963100 0.000000
-57.879500 0.000000
-57.796000 0.000000
-57.712400 0.000000
-57.628900 0.000000
-57.545300 0.000000
-57.461800 0.000000
-57.378200 0.000000
-57.294600 0.000000
-57.211100 0.000000
-57.127500 0.000000
-57.044000 0.000000
-56.960400 0.000000
-56.876900 0.000000
-56.793300 0.000000
-56.709800 0.000000
-56.626200 0.000000
-56.542700 0.000000
-56.459100 0.000000
-56.375500 0.000000
-56.292000 0.000000
-56.208400 0.000000
-56.124900 0.000000
-56.041300 0.000000
-55.957800 0.190100
-55.874200 22.231000
-55.790700 91.614500
-55.707100 68.551000
-55.623600 10.575300
-55.540000 17.794600
-55.456400 4.457400
-55.372900 0.014000
-55.289300 0.000000
-55.205800 0.000000
-55.122200 0.000000
-55.038700 0.000000
-54.955100 0.000000
-54.871600 0.000000
-54.788000 0.000000
-54.704500 0.000000
-54.620900 0.000000
-54.537300 0.000000
-54.453800 0.000000
-54.370200 0.000000
-54.286700 0.000000
-54.203100 0.000000
-54.119600 0.000000
-54.036000 0.000000
-53.952500 0.000000
-53.868900 0.000000
-53.785400 0.000000
-53.701800 0.000000
-53.618200 0.000000
-53.534700 0.000000
-53.451100 0.000000
-53.367600 0.000000
-53.284000 0.000000
-53.200500 0.000000
-53.116900 0.000000
-53.033400 0.000000
-52.949800 0.000000
-52.866300 0.000000
-52.782700 0.000000
-52.699100 0.000000
-52.615600 0.000000
-52.532000 0.000000
-52.448500 0.000000
-52.364900 0.000000
-52.281400 0.000000
-52.197800 0.000000
-52.114300 0.000000
-52.030700 0.000000
-51.947100 0.000000
-51.863600 0.000000
-51.780000 0.000000
-51.696500 0.000000
-51.612900 0.000000
-51.529400 0.000000
-51.445800 0.000000
-51.362300 0.000000
-51.278700 0.000000
-51.195200 0.000000
-51.111600 0.000000
-51.028000 0.000000
-50.944500 0.000000
-50.860900 0.000000
-50.777400 0.000000
-50.693800 0.000000
-50.610300 0.000000
-50.526700 0.000000
-50.443200 0.000000
-50.359600 0.000000
-50.276100 0.000000
-50.192500 0.000000
-50.108900 0.000000
-50.025400 0.000000
-49.941800 0.000000
-49.858300 0.000000
-49.774700 0.000000
-49.691200 0.000000
-49.607600 0.000000
-49.524100 0.000000
-49.440500 0.000000
-49.357000 0.000000
-49.273400 0.000000
-49.189800 0.000000
-49.106300 0.000000
-49.022700 0.000000
-48.939200 0.000000
-48.855600 0.000000
-48.772100 0.000000
-48.688500 0.000000
-48.605000 0.000000
-48.521400 0.000000
-48.437900 0.000000
-48.354300 0.000000
-48.270700 0.000000
-48.187200 0.000000
-48.103600 0.000000
-48.020100 0.000000
-47.936500 0.000000
-47.853000 0.000000
-47.769400 0.000000
-47.685900 0.000000
-47.602300 0.000000
-47.518800 0.000000
-47.435200 0.000000
-47.351600 0.000000
-47.268100 0.000000
-47.184500 0.000000
-47.101000 0.000000
-47.017400 0.000000
-46.933900 0.000000
-46.850300 0.000000
-46.766800 0.000000
-46.683200 0.000000
-46.599700 0.000000
-46.516100 0.000000
-46.432500 0.000000
-46.349000 0.000000
-46.265400 0.000000
-46.181900 0.000000
-46.098300 0.000000
-46.014800 0.000000
-45.931200 0.000000
-45.847700 0.000000
-45.764100 0.000000
-45.680600 0.000000
-45.597000 0.000000
-45.513400 0.000000
-45.429900 0.000000
-45.346300 0.000000
-45.262800 0.000000
-45.179200 0.000000
-45.095700 0.000000
-45.012100 0.000000
-44.928600 0.000000
-44.845000 0.000000
-44.761500 0.000000
-44.677900 0.000000
-44.594300 0.000000
-44.510800 0.000000
-44.427200 0.000000
-44.343700 0.000000
-44.260100 0.000000
-44.176600 0.000000
-44.093000 0.000000
-44.009500 0.000000
-43.925900 0.000000
-43.842400 0.000000
-43.758800 0.000000
-43.675200 0.000000
-43.591700 0.000000
-43.508100 0.000000
-43.424600 0.000000
-43.341000 0.000000
-43.257500 0.000000
-43.173900 0.000000
-43.090400 0.000000
-43.006800 0.000000
-42.923200 0.000000
-42.839700 0.000000
-42.756100 0.000000
-42.672600 0.000000
-42.589000 0.000000
-42.505500 0.000000
-42.421900 0.000000
-42.338400 0.000000
-42.254800 0.000000
-42.171300 0.000000
-42.087700 0.000000
-42.004100 0.000000
-41.920600 0.000000
-41.837000 0.000000
-41.753500 0.000000
-41.669900 0.000000
-41.586400 0.000000
-41.502800 0.000000
-41.419300 0.000000
-41.335700 0.000000
-41.252200 0.000000
-41.168600 0.000000
-41.085000 0.000000
-41.001500 0.000000
-40.917900 0.000000
-40.834400 0.000000
-40.750800 0.000000
-40.667300 0.000000
-40.583700 0.000000
-40.500200 0.000000
-40.416600 0.000000
-40.333100 0.000000
-40.249500 0.000000
-40.165900 0.000000
-40.082400 0.000000
-39.998800 0.000000
-39.915300 0.000000
-39.831700 0.000000
-39.748200 0.000000
-39.664600 0.000000
-39.581100 0.000000
-39.497500 0.000000
-39.414000 0.000000
-39.330400 0.000000
-39.246800 0.000000
-39.163300 0.000000
-39.079700 0.000000
-38.996200 0.000000
-38.912600 0.000000
-38.829100 0.000000
-38.745500 0.000000
-38.662000 0.000000
-38.578400 0.000000
-38.494900 0.000000
-38.411300 0.000000
-38.327700 0.000000
-38.244200 0.000000
-38.160600 0.000000
-38.077100 0.000000
-37.993500 0.000000
-37.910000 0.000000
-37.826400 0.000000
-37.742900 0.000000
-37.659300 0.000000
-37.575800 0.000000
-37.492200 0.000000
-37.408600 0.000000
-37.325100 0.000000
-37.241500 0.000000
-37.158000 0.000000
-37.074400 0.000000
-36.990900 0.000000
-36.907300 0.000000
-36.823800 0.000000
-36.740200 0.000000
-36.656700 0.000000
-36.573100 0.000000
-36.489500 0.000000
-36.406000 0.000000
-36.322400 0.000000
-36.238900 0.000000
-36.155300 0.000000
-36.071800 0.000000
-35.988200 0.000000
-35.904700 0.000000
-35.821100 0.000000
-35.737600 0.000000
-35.654000 0.000000
-35.570400 0.000000
-35.486900 0.000000
-35.403300 0.000000
-35.319800 0.000000
-35.236200 0.000000
-35.152700 0.000000
-35.069100 0.000000
-34.985600 0.000000
-34.902000 0.000000
-34.818500 0.000000
-34.734900 0.000000
-34.651300 0.000000
-34.567800 0.000000
-34.484200 0.000000
-34.400700 0.000000
-34.317100 0.000000
-34.233600 0.000000
-34.150000 0.000000
-34.066500 0.000000
-33.982900 0.000000
-33.899300 0.000000
-33.815800 0.000000
-33.732200 0.000000
-33.648700 0.000000
-33.565100 0.000000
-33.481600 0.000000
-33.398000 0.000000
-33.314500 0.000000
-33.230900 0.000000
-33.147400 0.000000
-33.063800 0.000000
-32.980200 0.000000
-32.896700 0.000000
-32.813100 0.000000
-32.729600 0.000000
-32.646000 0.000000
-32.562500 0.000000
-32.478900 0.000000
-32.395400 0.000000
-32.311800 0.000000
-32.228300 0.000000
-32.144700 0.000000
-32.061100 0.000000
-31.977600 0.000000
-31.894000 0.000000
-31.810500 0.000000
-31.726900 0.000000
-31.643400 0.000000
-31.559800 0.000000
-31.476300 0.000000
-31.392700 0.000000
-31.309200 0.000000
-31.225600 0.000000
-31.142000 0.000000
-31.058500 0.000000
-30.974900 0.000000
-30.891400 0.000000
-30.807800 0.001300
-30.724300 2.217100
-30.640700 44.893800
-30.557200 24.446500
-30.473600 0.250700
-30.390100 0.000000
-30.306500 0.000000
-30.222900 0.000000
-30.139400 0.000000
-30.055800 0.000000
-29.972300 0.000000
-29.888700 0.000000
-29.805200 0.000000
-29.721600 0.000000
-29.638100 0.000000
-29.554500 0.000000
-29.471000 0.000000
-29.387400 0.000000
-29.303800 0.000000
-29.220300 0.000000
-29.136700 0.000000
-29.053200 0.000000
-28.969600 0.000000
-28.886100 0.000000
-28.802500 0.000000
-28.719000 0.000000
-28.635400 0.000000
-28.551900 0.000000
-28.468300 0.000000
-28.384700 0.000000
-28.301200 0.000000
-28.217600 0.000000
-28.134100 0.000000
-28.050500 0.000000
-27.967000 0.000000
-27.883400 0.000000
-27.799900 0.000000
-27.716300 0.000000
-27.632800 0.000000
-27.549200 0.000000
-27.465600 0.000000
-27.382100 0.000000
-27.298500 0.000000
-27.215000 0.000000
-27.131400 0.000000
-27.047900 0.000000
-26.964300 0.000000
-26.880800 0.000000
-26.797200 0.000000
-26.713700 0.000000
-26.630100 0.000000
-26.546500 0.000000
-26.463000 0.000000
-26.379400 0.000000
-26.295900 0.000000
-26.212300 0.000000
-26.128800 0.000000
-26.045200 0.000000
-25.961700 0.000000
-25.878100 0.000000
-25.794600 0.000000
-25.711000 0.000000
-25.627400 0.000000
-25.543900 0.000000
-25.460300 0.000000
-25.376800 0.000000
-25.293200 0.000000
-25.209700 0.000000
-25.126100 0.000000
-25.042600 0.000000
-24.959000 0.000000
-24.875400 0.000000
-24.791900 0.000000
-24.708300 0.000000
-24.624800 0.000000
-24.541200 0.000000
-24.457700 0.000000
-24.374100 0.000000
-24.290600 0.000000
-24.207000 0.000000
-24.123500 0.000000
-24.039900 0.000000
-23.956300 0.000000
-23.872800 0.000000
-23.789200 0.000000
-23.705700 0.000000
-23.622100 0.000000
-23.538600 0.000000
-23.455000 0.000000
-23.371500 0.000000
-23.287900 0.000000
-23.204400 0.000000
-23.120800 0.000000
-23.037200 0.000000
-22.953700 0.000000
-22.870100 0.000000
-22.786600 0.000000
-22.703000 0.000000
-22.619500 0.000000
-22.535900 0.000000
-22.452400 0.000000
-22.368800 0.000000
-22.285300 0.000000
-22.201700 0.000000
-22.118100 0.000000
-22.034600 0.000000
-21.951000 0.000000
-21.867500 0.000000
-21.783900 0.000000
-21.700400 0.000000
-21.616800 0.000000
-21.533300 0.000000
-21.449700 0.000000
-21.366200 0.000000
-21.282600 0.000000
-21.199000 0.000000
-21.115500 0.000000
-21.031900 0.000000
-20.948400 0.000000
-20.864800 0.000000
-20.781300 0.000000
-20.697700 0.000000
-20.614200 0.000000
-20.530600 0.000000
-20.447100 0.000000
-20.363500 0.000000
-20.279900 0.000000
-20.196400 0.000000
-20.112800 0.000000
-20.029300 0.000000
-19.945700 0.000000
-19.862200 0.000000
-19.778600 0.000000
-19.695100 0.000000
-19.611500 0.000000
-19.528000 0.000000
-19.444400 0.000000
-19.360800 0.000000
-19.277300 0.000000
-19.193700 0.000000
-19.110200 0.000000
-19.026600 0.000000
-18.943100 0.000000
-18.859500 0.000000
-18.776000 0.000000
-18.692400 0.000000
-18.608900 0.000000
-18.525300 0.000000
-18.441700 0.000000
-18.358200 0.000000
-18.274600 0.000000
-18.191100 0.000000
-18.107500 0.000000
-18.024000 0.000000
-17.940400 0.000000
-17.856900 0.000000
-17.773300 0.000000
-17.689800 0.000000
-17.606200 0.000000
-17.522600 0.000000
-17.439100 0.000000
-17.355500 0.000000
-17.272000 0.000000
-17.188400 0.000000
-17.104900 0.000000
-17.021300 0.000000
-16.937800 0.000000
-16.854200 0.000000
-16.770600 0.000000
-16.687100 0.000000
-16.603500 0.000000
-16.520000 0.000000
-16.436400 0.000000
-16.352900 0.000000
-16.269300 0.000000
-16.185800 0.000000
-16.102200 0.000000
-16.018700 0.000000
-15.935100 0.000000
-15.851500 0.000000
-15.768000 0.000000
-15.684400 0.000000
-15.600900 0.000000
-15.517300 0.000000
-15.433800 0.000000
-15.350200 0.000000
-15.266700 0.000000
-15.183100 0.000000
-15.099600 0.000000
-15.016000 0.000000
-14.932400 0.000000
-14.848900 0.000000
-14.765300 0.000000
-14.681800 0.000000
-14.598200 0.000000
-14.514700 0.000000
-14.431100 0.000000
-14.347600 0.000000
-14.264000 0.000000
-14.180500 0.000000
-14.096900 0.000000
-14.013300 0.000000
-13.929800 0.000000
-13.846200 0.000000
-13.762700 0.000000
-13.679100 0.000000
-13.595600 0.000000
-13.512000 0.000000
-13.428500 0.000000
-13.344900 0.000000
-13.261400 0.000000
-13.177800 0.000000
-13.094200 0.000000
-13.010700 0.000000
-12.927100 0.000000
-12.843600 0.000000
-12.760000 0.000000
-12.676500 0.000000
-12.592900 0.000000
-12.509400 0.000000
-12.425800 0.000000
-12.342300 0.000000
-12.258700 0.000000
-12.175100 0.000000
-12.091600 0.000000
-12.008000 0.000000
-11.924500 0.000000
-11.840900 0.000000
-11.757400 0.000000
-11.673800 0.000000
-11.590300 0.000000
-11.506700 0.000000
-11.423200 0.000000
-11.339600 0.000000
-11.256000 0.000000
-11.172500 0.000000
-11.088900 0.000000
-11.005400 0.000000
-10.921800 0.000000
-10.838300 0.000000
-10.754700 0.000000
-10.671200 0.000000
-10.587600 0.000000
-10.504100 0.000000
-10.420500 0.000000
-10.336900 0.000000
-10.253400 0.000000
-10.169800 0.000000
-10.086300 0.000000
-10.002700 0.000000
-9.919200 0.000000
-9.835600 0.000000
-9.752100 0.000000
-9.668500 0.000000
-9.585000 0.000000
-9.501400 0.000000
-9.417800 0.000000
-9.334300 0.000000
-9.250700 0.000000
-9.167200 0.000000
-9.083600 0.000000
-9.000100 0.000000
-8.916500 0.000000
-8.833000 0.000000
-8.749400 0.000000
-8.665900 0.000000
-8.582300 0.000000
-8.498700 0.000000
-8.415200 0.000000
-8.331600 0.000000
-8.248100 0.000000
-8.164500 0.000000
-8.081000 0.000000
-7.997400 0.000000
-7.913900 0.000000
-7.830300 0.000000
-7.746700 0.000000
-7.663200 0.000000
-7.579600 0.000000
-7.496100 0.000000
-7.412500 0.000000
-7.329000 0.000000
-7.245400 0.000000
-7.161900 0.000000
-7.078300 0.000000
-6.994800 0.000000
-6.911200 0.000000
-6.827600 0.000000
-6.744100 0.000000
-6.660500 0.000000
-6.577000 0.000000
-6.493400 0.000000
-6.409900 0.000000
-6.326300 0.000000
-6.242800 0.000000
-6.159200 0.000000
-6.075700 0.000000
-5.992100 0.000000
-5.908500 0.000000
-5.825000 0.000000
-5.741400 0.000000
-5.657900 0.000000
-5.574300 0.000000
-5.490800 0.000000
-5.407200 0.000000
-5.323700 0.000000
-5.240100 0.000000
-5.156600 0.000000
-5.073000 0.000000
-4.989400 0.000000
-4.905900 0.000000
-4.822300 0.000000
-4.738800 0.000000
-4.655200 0.000000
-4.571700 0.000000
-4.488100 0.000000
-4.404600 0.000000
-4.321000 0.000000
-4.237500 0.000000
-4.153900 0.000000
-4.070300 0.000000
-3.986800 0.000000
-3.903200 0.000000
-3.819700 0.000000
-3.736100 0.000000
-3.652600 0.000000
-3.569000 0.000000
-3.485500 0.000000
-3.401900 0.000000
-3.318400 0.000000
-3.234800 0.000000
-3.151200 0.000000
-3.067700 0.000000
-2.984100 0.000000
-2.900600 0.000000
-2.817000 0.000000
-2.733500 0.000000
-2.649900 0.000000
-2.566400 0.000000
-2.482800 0.000000
-2.399300 0.000000
-2.315700 0.000000
-2.232100 0.000000
-2.148600 0.000000
-2.065000 0.000000
-1.981500 0.000000
-1.897900 0.000000
-1.814400 0.000000
-1.730800 0.000000
-1.647300 0.000000
-1.563700 0.000000
-1.480200 0.000000
-1.396600 0.000000
-1.313000 0.000000
-1.229500 0.000000
-1.145900 0.000000
-1.062400 0.000000
-0.978800 0.000700
-0.895300 0.019200
-0.811700 0.072300
-0.728200 0.111200
-0.644600 0.092700
-0.561100 0.204500
-0.477500 0.193200
-0.393900 0.085500
-0.310400 0.239000
-0.226800 0.341900
-0.143300 0.134500
-0.059700 0.232500
0.023800 0.371100
0.107400 0.163000
0.190900 0.375800
0.274500 0.334200
0.358000 0.208800
0.441600 0.460600
0.525200 0.480700
0.608700 0.185800
0.692300 0.288900
0.775800 0.539500
0.859400 0.349300
0.942900 0.659400
1.026500 0.337500
1.110000 0.443400
1.193600 0.549800
1.277200 0.302700
1.360700 0.519300
1.444300 0.667900
1.527800 0.704700
1.611400 0.616800
1.694900 0.480600
1.778500 0.561800
1.862000 0.739000
1.945600 0.664400
2.029100 0.700700
2.112700 0.813500
2.196300 0.989100
2.279800 0.644300
2.363400 0.941500
2.446900 0.971800
2.530500 1.039900
2.614000 1.054100
2.697600 1.283400
2.781100 1.134300
2.864700 1.160000
2.948200 1.717300
3.031800 1.848200
3.115400 2.285100
3.198900 2.763300
3.282500 3.067400
3.366000 3.247100
3.449600 2.941300
3.533100 3.199800
3.616700 4.401900
3.700200 4.206900
3.783800 4.044400
3.867300 4.331200
3.950900 4.597200
4.034500 5.441000
4.118000 6.402500
4.201600 7.354500
4.285100 7.388500
4.368700 7.684100
4.452200 6.959700
4.535800 6.911500
4.619300 6.729600
4.702900 6.780400
4.786400 6.796300
4.870000 6.625900
4.953600 6.041800
5.037100 5.776600
5.120700 6.256100
5.204200 7.554100
5.287800 8.486100
5.371300 8.748800
5.454900 8.729900
5.538400 9.493100
5.622000 9.190700
5.705500 9.567100
5.789100 9.887100
5.872700 12.000100
5.956200 10.241600
6.039800 9.462800
6.123300 10.874200
6.206900 8.783600
6.290400 8.488100
6.374000 9.403200
6.457500 9.713400
6.541100 10.115400
6.624600 11.840600
6.708200 9.736000
6.791800 8.696900
6.875300 6.764300
6.958900 6.883000
7.042400 5.825000
7.126000 6.092700
7.209500 6.946700
7.293100 8.126400
7.376600 8.063600
7.460200 5.665800
7.543700 3.762900
7.627300 3.967400
7.710900 3.116500
7.794400 2.421000
7.878000 2.382100
7.961500 2.746800
8.045100 3.230600
8.128600 3.311700
8.212200 4.084700
8.295700 4.143500
8.379300 3.696700
8.462800 4.521300
8.546400 5.730000
8.630000 6.683000
8.713500 8.923900
8.797100 8.002000
8.880600 7.064800
8.964200 7.822500
9.047700 6.122000
9.131300 4.215100
9.214800 2.210700
9.298400 2.909300
9.381900 3.450900
9.465500 2.717100
9.549100 2.803200
9.632600 2.048300
9.716200 1.823900
9.799700 1.094400
9.883300 1.147300
9.966800 1.819100
10.050400 1.360900
10.133900 1.211000
10.217500 1.133400
10.301100 1.012000
10.384600 1.525300
10.468200 0.993400
10.551700 1.102100
10.635300 1.325200
10.718800 1.087000
10.802400 1.180100
10.885900 0.948300
10.969500 1.213700
11.053000 1.159700
11.136600 1.316700
11.220200 1.738800
11.303700 0.901200
11.387300 1.234500
11.470800 1.469000
11.554400 1.340200
11.637900 1.099700
11.721500 0.989900
11.805000 1.217200
11.888600 1.134600
11.972100 1.163100
12.055700 0.786200
12.139300 0.930700
12.222800 1.161200
12.306400 1.004000
12.389900 0.649800
12.473500 0.669100
12.557000 0.710500
12.640600 0.483300
12.724100 0.890500
12.807700 0.732400
12.891200 0.293600
12.974800 0.429900
13.058400 0.703700
13.141900 0.577600
13.225500 0.876200
13.309000 1.099000
13.392600 0.763700
13.476100 1.012600
13.559700 0.708700
13.643200 0.472000
13.726800 0.729700
13.810300 0.574600
13.893900 0.514800
13.977500 0.471300
14.061000 0.576800
14.144600 0.629800
14.228100 0.642100
14.311700 0.414800
14.395200 0.394900
14.478800 0.281800
14.562300 0.402300
14.645900 0.283400
14.729400 0.527900
14.813000 1.282700
14.896600 1.603200
14.980100 1.524000
15.063700 1.023600
15.147200 0.822900
15.230800 1.328000
15.314300 1.211000
15.397900 1.514900
15.481400 1.173700
15.565000 2.071800
15.648500 1.728700
15.732100 1.174100
15.815700 1.115600
15.899200 0.719000
15.982800 1.101700
16.066300 0.862600
16.149900 1.561800
16.233400 1.697900
16.317000 1.241200
16.400500 0.973900
16.484100 0.878700
16.567600 0.893800
16.651200 0.750100
16.734800 1.303400
16.818300 0.943200
16.901900 0.834500
16.985400 1.127500
17.069000 1.412700
17.152500 1.137400
17.236100 0.911600
17.319600 0.504800
17.403200 0.889600
17.486700 1.076500
17.570300 0.827100
17.653900 0.964500
17.737400 1.214000
17.821000 1.061600
17.904500 0.973600
17.988100 1.117000
18.071600 1.050900
18.155200 1.175700
18.238700 1.450300
18.322300 1.557000
18.405800 1.481200
18.489400 1.388600
18.573000 1.404000
18.656500 1.649200
18.740100 2.196400
18.823600 1.654500
18.907200 2.037200
18.990700 1.661600
19.074300 1.462200
19.157800 1.302700
19.241400 1.413300
19.325000 1.501200
19.408500 1.158700
19.492100 0.937700
19.575600 1.715600
19.659200 1.463000
19.742700 1.807600
19.826300 2.043000
19.909800 2.068000
19.993400 1.429200
20.076900 1.168700
20.160500 1.595600
20.244100 1.567500
20.327600 1.752400
20.411200 1.468500
20.494700 0.819300
20.578300 1.481400
20.661800 1.535100
20.745400 1.616600
20.828900 1.417400
