set title 'mp-1215431 - Density of States'
set xlabel 'Energy (eV)'
set ylabel 'DOS (states/eV)'
set grid
set xrange [-10:10]
set yrange [0:21.251]
set xzeroaxis lt -1
set terminal png size 800,600
set output 'mp-1215431_dos_gnuplot.png'
plot '-' using 1:2 with lines title 'DOS'
-8.513100 0.000000
-8.479800 0.000000
-8.446400 0.000000
-8.413100 0.000000
-8.379800 0.000000
-8.346500 0.000000
-8.313200 0.000000
-8.279900 0.000000
-8.246600 0.000000
-8.213300 0.000000
-8.179900 0.000000
-8.146600 0.000000
-8.113300 0.000000
-8.080000 0.000000
-8.046700 0.000000
-8.013400 0.000000
-7.980100 0.000000
-7.946800 0.000000
-7.913500 0.000000
-7.880100 0.000000
-7.846800 0.000000
-7.813500 0.000000
-7.780200 0.000000
-7.746900 0.000000
-7.713600 0.000000
-7.680300 0.000000
-7.647000 0.000000
-7.613600 0.000000
-7.580300 0.000000
-7.547000 0.000000
-7.513700 0.000000
-7.480400 0.000000
-7.447100 0.000000
-7.413800 0.000000
-7.380500 0.000000
-7.347100 0.000000
-7.313800 0.000000
-7.280500 0.000000
-7.247200 0.000000
-7.213900 0.000000
-7.180600 0.000000
-7.147300 0.000000
-7.114000 0.000000
-7.080600 0.000000
-7.047300 0.000000
-7.014000 0.000000
-6.980700 0.000000
-6.947400 0.000000
-6.914100 0.000000
-6.880800 0.000000
-6.847500 0.000000
-6.814100 0.000000
-6.780800 0.000000
-6.747500 0.000000
-6.714200 0.000000
-6.680900 0.000000
-6.647600 0.000000
-6.614300 0.000000
-6.581000 0.000000
-6.547700 0.000000
-6.514300 0.000000
-6.481000 0.000000
-6.447700 0.000000
-6.414400 0.000000
-6.381100 0.000000
-6.347800 0.000000
-6.314500 0.000000
-6.281200 0.000000
-6.247800 0.000000
-6.214500 0.000000
-6.181200 0.000000
-6.147900 0.000000
-6.114600 0.000000
-6.081300 0.000000
-6.048000 0.000000
-6.014700 0.000000
-5.981300 0.000000
-5.948000 0.000000
-5.914700 0.000000
-5.881400 0.000000
-5.848100 0.000000
-5.814800 0.000000
-5.781500 0.000000
-5.748200 0.000000
-5.714800 0.000000
-5.681500 0.000000
-5.648200 0.000000
-5.614900 0.000000
-5.581600 0.000000
-5.548300 0.000000
-5.515000 0.000000
-5.481700 0.000100
-5.448300 0.019900
-5.415000 0.064100
-5.381700 0.087000
-5.348400 0.096300
-5.315100 0.115800
-5.281800 0.134700
-5.248500 0.154400
-5.215200 0.174400
-5.181900 0.200700
-5.148500 0.233600
-5.115200 0.236300
-5.081900 0.228200
-5.048600 0.233500
-5.015300 0.238400
-4.982000 0.242300
-4.948700 0.243600
-4.915400 0.241200
-4.882000 0.239900
-4.848700 0.242200
-4.815400 0.244300
-4.782100 0.246200
-4.748800 0.248100
-4.715500 0.250200
-4.682200 0.251600
-4.648900 0.251800
-4.615500 0.254600
-4.582200 0.257600
-4.548900 0.260900
-4.515600 0.263900
-4.482300 0.266700
-4.449000 0.270200
-4.415700 0.274100
-4.382400 0.278200
-4.349000 0.282600
-4.315700 0.287300
-4.282400 0.292300
-4.249100 0.298900
-4.215800 0.306800
-4.182500 0.315000
-4.149200 0.323600
-4.115900 0.332700
-4.082500 0.343000
-4.049200 0.357700
-4.015900 0.375400
-3.982600 0.399800
-3.949300 0.433600
-3.916000 0.478400
-3.882700 3.411300
-3.849400 3.117500
-3.816100 3.692800
-3.782700 4.310400
-3.749400 3.645600
-3.716100 2.837700
-3.682800 2.735700
-3.649500 2.437300
-3.616200 2.172100
-3.582900 2.145500
-3.549600 2.319200
-3.516200 2.397500
-3.482900 2.565200
-3.449600 2.837900
-3.416300 8.488000
-3.383000 6.510100
-3.349700 6.336000
-3.316400 6.630500
-3.283100 7.750800
-3.249700 11.998600
-3.216400 8.907500
-3.183100 6.074200
-3.149800 7.715000
-3.116500 8.192400
-3.083200 5.499000
-3.049900 2.517200
-3.016600 3.348700
-2.983200 4.694500
-2.949900 8.232300
-2.916600 9.215100
-2.883300 8.545300
-2.850000 7.536100
-2.816700 7.783000
-2.783400 8.722000
-2.750100 11.278900
-2.716700 19.319100
-2.683400 9.950200
-2.650100 12.471900
-2.616800 9.849100
-2.583500 12.229100
-2.550200 8.936500
-2.516900 2.941900
-2.483600 8.054800
-2.450300 7.598100
-2.416900 2.675300
-2.383600 2.601300
-2.350300 2.340800
-2.317000 2.276000
-2.283700 2.147800
-2.250400 1.944600
-2.217100 2.024100
-2.183800 1.834100
-2.150400 1.697200
-2.117100 0.481600
-2.083800 0.480400
-2.050500 0.481300
-2.017200 0.484100
-1.983900 0.487200
-1.950600 0.490700
-1.917300 0.494600
-1.883900 0.494200
-1.850600 0.484200
-1.817300 0.478900
-1.784000 0.474200
-1.750700 0.470400
-1.717400 0.466900
-1.684100 0.463400
-1.650800 0.465400
-1.617400 0.468900
-1.584100 0.473000
-1.550800 0.477700
-1.517500 0.483000
-1.484200 0.488500
-1.450900 0.494000
-1.417600 0.499500
-1.384300 0.504600
-1.351000 0.509700
-1.317600 0.514600
-1.284300 0.519500
-1.251000 0.524900
-1.217700 0.530400
-1.184400 0.534300
-1.151100 0.537400
-1.117800 0.541100
-1.084500 0.544900
-1.051100 0.549400
-1.017800 0.554200
-0.984500 0.558600
-0.951200 0.564400
-0.917900 0.570900
-0.884600 0.577100
-0.851300 0.582800
-0.818000 0.587700
-0.784600 0.594100
-0.751300 0.600800
-0.718000 0.607600
-0.684700 0.616000
-0.651400 0.629600
-0.618100 0.642100
-0.584800 0.655000
-0.551500 0.667300
-0.518100 0.677500
-0.484800 0.687300
-0.451500 0.697300
-0.418200 0.707200
-0.384900 0.717100
-0.351600 0.728200
-0.318300 0.740200
-0.285000 0.753300
-0.251600 0.767700
-0.218300 0.783400
-0.185000 0.800900
-0.151700 0.818900
-0.118400 0.837500
-0.085100 0.856800
-0.051800 0.877700
-0.018500 0.899800
0.014800 0.923200
0.048200 0.948300
0.081500 0.982300
0.114800 1.017500
0.148100 1.053500
0.181400 1.089900
0.214700 1.127100
0.248000 1.168100
0.281300 1.218700
0.314700 1.283700
0.348000 1.353500
0.381300 1.426700
0.414600 1.504200
0.447900 1.926400
0.481200 1.657300
0.514500 1.756500
0.547800 1.797200
0.581200 1.828700
0.614500 1.843600
0.647800 1.887000
0.681100 1.998900
0.714400 2.190300
0.747700 2.377300
0.781000 2.596500
0.814300 2.925300
0.847700 2.821200
0.881000 2.626500
0.914300 2.470500
0.947600 2.353200
0.980900 2.277000
1.014200 2.252100
1.047500 2.373000
1.080800 2.581100
1.114200 2.737900
1.147500 2.803900
1.180800 2.987600
1.214100 4.360100
1.247400 4.501300
1.280700 4.476200
1.314000 4.347200
1.347300 3.431000
1.380600 3.609500
1.414000 3.832000
1.447300 4.039400
1.480600 3.700500
1.513900 3.738100
1.547200 3.854500
1.580500 4.160600
1.613800 4.586700
1.647100 5.098700
1.680500 5.869100
1.713800 5.061100
1.747100 4.022500
1.780400 3.504600
1.813700 3.285300
1.847000 3.138100
1.880300 3.002600
1.913600 3.013200
1.947000 3.224700
1.980300 3.220200
2.013600 2.981700
2.046900 2.852900
2.080200 3.025800
2.113500 3.296800
2.146800 3.506500
2.180100 3.699900
2.213500 3.246900
2.246800 3.467500
2.280100 3.213100
2.313400 3.165300
2.346700 3.264700
2.380000 3.428200
2.413300 4.029500
2.446600 5.066100
2.480000 4.650100
2.513300 3.627800
2.546600 3.486700
2.579900 3.627500
2.613200 3.850400
2.646500 4.213100
2.679800 4.464800
2.713100 5.718000
2.746400 6.271500
2.779800 6.612600
2.813100 7.107100
2.846400 8.800500
2.879700 8.411800
2.913000 9.031600
2.946300 10.654300
2.979600 9.917700
3.012900 7.335500
3.046300 9.248300
3.079600 9.761400
3.112900 8.152200
3.146200 8.654800
3.179500 8.493500
3.212800 6.939900
3.246100 4.691000
3.279400 6.439800
3.312800 8.019000
3.346100 4.342600
3.379400 3.245300
3.412700 2.838000
3.446000 2.834200
3.479300 2.829200
3.512600 2.785100
3.545900 2.672600
3.579300 2.583500
3.612600 2.614200
3.645900 2.627700
3.679200 3.118900
3.712500 3.906500
3.745800 3.726200
3.779100 3.614500
3.812400 3.604700
3.845800 3.826500
3.879100 4.585600
3.912400 6.899000
3.945700 6.524000
3.979000 5.497500
4.012300 6.631100
4.045600 6.310600
4.078900 6.067200
4.112200 6.210400
4.145600 5.929400
4.178900 5.843600
4.212200 5.628300
4.245500 5.251200
4.278800 5.553100
4.312100 6.439900
4.345400 6.179400
4.378700 5.716000
4.412100 5.168800
4.445400 4.802800
4.478700 4.886700
4.512000 3.602100
4.545300 3.559300
4.578600 17.876900
4.611900 7.444600
4.645200 4.722400
4.678600 4.851300
4.711900 3.510200
4.745200 3.053900
4.778500 3.042900
4.811800 3.163300
4.845100 2.667300
4.878400 2.479400
4.911700 2.326000
4.945100 2.219600
4.978400 2.146200
5.011700 2.090900
5.045000 2.037500
5.078300 1.984200
5.111600 1.932300
5.144900 1.882500
5.178200 1.818000
5.211600 1.756900
5.244900 1.690100
5.278200 1.639300
5.311500 1.583500
5.344800 1.542000
5.378100 1.514000
5.411400 1.494800
5.444700 1.477500
5.478000 1.442000
5.511400 1.399800
5.544700 1.357200
5.578000 1.322200
5.611300 1.280500
5.644600 1.243100
5.677900 1.216600
5.711200 1.194800
5.744500 1.174100
5.777900 1.141700
5.811200 1.108500
5.844500 1.079200
5.877800 1.056300
5.911100 1.035800
5.944400 1.007200
5.977700 0.958500
6.011000 0.908000
6.044400 0.894000
6.077700 0.879000
6.111000 0.855700
6.144300 0.830200
6.177600 0.811000
6.210900 0.799200
6.244200 0.793500
6.277500 0.787400
6.310900 0.781600
6.344200 0.782200
6.377500 0.788700
6.410800 0.797800
6.444100 0.810400
6.477400 0.830700
6.510700 0.885300
6.544000 0.898400
6.577400 0.941700
6.610700 0.967300
6.644000 0.972400
6.677300 0.992300
6.710600 0.939500
6.743900 0.919900
6.777200 0.893400
6.810500 0.872700
6.843800 0.863600
6.877200 0.868700
6.910500 0.877800
6.943800 0.897600
6.977100 0.925000
7.010400 0.959700
7.043700 0.920600
7.077000 0.900900
7.110300 0.889600
7.143700 0.892000
7.177000 1.019800
7.210300 0.858900
7.243600 0.810100
7.276900 0.774500
7.310200 0.758000
7.343500 0.742100
7.376800 0.726800
7.410200 0.712300
7.443500 0.698700
7.476800 0.685500
7.510100 0.673300
7.543400 0.661400
7.576700 0.649800
7.610000 0.638300
7.643300 0.626800
7.676700 0.615300
7.710000 0.605600
7.743300 0.595000
7.776600 0.581500
7.809900 0.565000
7.843200 0.546100
7.876500 0.531200
7.909800 0.519600
7.943200 0.508300
7.976500 0.498900
8.009800 0.493300
8.043100 0.547200
8.076400 0.592000
8.109700 0.570900
8.143000 0.585800
8.176300 0.607000
8.209600 0.625900
8.243000 0.665500
8.276300 0.713200
8.309600 0.764100
8.342900 0.813500
8.376200 0.862000
8.409500 0.840300
8.442800 0.828800
8.476100 0.819300
8.509500 0.813600
8.542800 0.808300
8.576100 0.791700
8.609400 0.762500
8.642700 0.731800
8.676000 0.713100
8.709300 0.708700
8.742600 0.713900
8.776000 0.717900
8.809300 0.753200
8.842600 0.777200
8.875900 0.787000
8.909200 0.788300
8.942500 0.811700
8.975800 0.807800
9.009100 0.777900
9.042500 0.783900
9.075800 0.787400
9.109100 0.792200
9.142400 0.799100
9.175700 0.802700
9.209000 0.806300
9.242300 0.814900
9.275600 0.828900
9.309000 0.857500
9.342300 0.861200
9.375600 0.843200
9.408900 0.845900
9.442200 0.886800
9.475500 0.874900
9.508800 0.858500
9.542100 0.849600
9.575400 0.844000
9.608800 0.837100
9.642100 0.830000
9.675400 0.825200
9.708700 0.819800
9.742000 0.811900
9.775300 0.821000
9.808600 0.765000
9.841900 0.746500
9.875300 0.725300
9.908600 0.707600
9.941900 0.732800
9.975200 0.747600
10.008500 0.750800
10.041800 0.817500
10.075100 0.821400
10.108400 0.819100
10.141800 0.797900
10.175100 0.798000
10.208400 0.801700
10.241700 0.796500
10.275000 0.784300
10.308300 0.771400
10.341600 0.758800
10.374900 0.758900
10.408300 0.753800
10.441600 0.749400
10.474900 0.733900
10.508200 0.713600
10.541500 0.693500
10.574800 0.673600
10.608100 0.654700
10.641400 0.635400
10.674800 0.614600
10.708100 0.595100
10.741400 0.577200
10.774700 0.555800
10.808000 0.542800
10.841300 0.531000
10.874600 0.520200
10.907900 0.510900
10.941200 0.501500
10.974600 0.493100
11.007900 0.504200
11.041200 0.525600
11.074500 0.541900
11.107800 0.527300
11.141100 0.522100
11.174400 0.520400
11.207700 0.549000
11.241100 0.607200
11.274400 0.671800
11.307700 0.733200
11.341000 0.801200
11.374300 0.850000
11.407600 0.885200
11.440900 0.959800
11.474200 0.920200
11.507600 0.939000
11.540900 0.959000
11.574200 0.969000
11.607500 0.972600
11.640800 0.970100
11.674100 0.963500
11.707400 0.960000
11.740700 0.958000
11.774100 0.944000
11.807400 0.933300
11.840700 0.923200
11.874000 0.912800
11.907300 0.906700
11.940600 0.902500
11.973900 0.904600
12.007200 0.911300
12.040600 0.924700
12.073900 0.955700
12.107200 1.042700
12.140500 1.036400
12.173800 1.059300
12.207100 1.060500
12.240400 1.064100
12.273700 1.076800
12.307000 1.054300
12.340400 1.043700
12.373700 1.032400
12.407000 1.020100
12.440300 1.006600
12.473600 0.994500
12.506900 0.995500
12.540200 0.995100
12.573500 0.984600
12.606900 0.991500
12.640200 1.007900
12.673500 1.020600
12.706800 1.028900
12.740100 1.032800
12.773400 1.033700
12.806700 1.029400
12.840000 1.026400
12.873400 1.025900
12.906700 1.032600
12.940000 1.045100
12.973300 1.060500
13.006600 1.100600
13.039900 1.133100
13.073200 1.151500
13.106500 1.177800
13.139900 1.210600
13.173200 1.211100
13.206500 1.182900
13.239800 1.198900
13.273100 1.217500
13.306400 1.231900
13.339700 1.247500
13.373000 1.268300
13.406400 1.282200
13.439700 1.286700
13.473000 1.281000
13.506300 1.264200
13.539600 1.182900
13.572900 1.148900
13.606200 1.119300
13.639500 1.088200
13.672800 1.060900
13.706200 1.054200
13.739500 1.054200
13.772800 1.053600
13.806100 1.054100
13.839400 1.030600
13.872700 1.043000
13.906000 1.054400
13.939300 1.023600
13.972700 1.000400
14.006000 0.978500
14.039300 0.965700
14.072600 0.941300
14.105900 0.928800
14.139200 0.934100
14.172500 0.908700
14.205800 0.902800
14.239200 0.895700
14.272500 0.889700
14.305800 0.883600
14.339100 0.881500
14.372400 0.890100
14.405700 0.897900
14.439000 0.899600
14.472300 0.885600
14.505700 0.874400
14.539000 0.869800
14.572300 0.872700
14.605600 0.875900
14.638900 0.883000
14.672200 0.892800
14.705500 0.904200
14.738800 0.933400
14.772200 0.989800
14.805500 1.043600
14.838800 1.071000
14.872100 1.088500
14.905400 1.104000
14.938700 1.104200
14.972000 1.113100
15.005300 1.110300
15.038600 1.111900
15.072000 1.106300
15.105300 1.097200
15.138600 1.098100
15.171900 1.092600
15.205200 1.091800
15.238500 1.072700
15.271800 1.056300
15.305100 1.044500
15.338500 1.031900
15.371800 1.016500
15.405100 1.005300
15.438400 0.980300
15.471700 0.980600
15.505000 0.988000
15.538300 0.992800
15.571600 0.985700
15.605000 0.984200
15.638300 0.987100
15.671600 0.989300
15.704900 0.998000
15.738200 1.015200
15.771500 1.037800
15.804800 1.042500
15.838100 1.051900
15.871500 1.063800
15.904800 1.068000
15.938100 1.061700
15.971400 1.058100
16.004700 1.063000
16.038000 1.069100
16.071300 1.078900
16.104600 1.091400
16.138000 1.108000
16.171300 1.132700
16.204600 1.167300
16.237900 1.229000
16.271200 1.290900
16.304500 1.307100
16.337800 1.311200
16.371100 1.326600
16.404400 1.324700
16.437800 1.302600
16.471100 1.297700
16.504400 1.303300
16.537700 1.310100
16.571000 1.313600
16.604300 1.315500
16.637600 1.311800
16.670900 1.302100
16.704300 1.304300
16.737600 1.313500
16.770900 1.314200
16.804200 1.309100
16.837500 1.311000
16.870800 1.307100
16.904100 1.301500
16.937400 1.283500
16.970800 1.279500
17.004100 1.277700
17.037400 1.276800
17.070700 1.275600
17.104000 1.272800
17.137300 1.271600
17.170600 1.271600
17.203900 1.271800
17.237300 1.266400
17.270600 1.263500
17.303900 1.263400
17.337200 1.263400
17.370500 1.251600
17.403800 1.236000
17.437100 1.224500
17.470400 1.226200
17.503800 1.230400
17.537100 1.233400
17.570400 1.234100
17.603700 1.233000
17.637000 1.232500
17.670300 1.232300
17.703600 1.233300
17.736900 1.236500
17.770200 1.240500
17.803600 1.246400
17.836900 1.253400
17.870200 1.260300
17.903500 1.264100
17.936800 1.268400
17.970100 1.269300
18.003400 1.267100
18.036700 1.268400
18.070100 1.267000
18.103400 1.265700
18.136700 1.260000
18.170000 1.241800
18.203300 1.239800
18.236600 1.238900
18.269900 1.241000
18.303200 1.244600
18.336600 1.242500
18.369900 1.246000
18.403200 1.255700
18.436500 1.263900
18.469800 1.284300
18.503100 1.294200
18.536400 1.295800
18.569700 1.295500
18.603100 1.294700
18.636400 1.290200
18.669700 1.281700
18.703000 1.270700
18.736300 1.259200
18.769600 1.249800
18.802900 1.243800
18.836200 1.258800
18.869500 1.252900
18.902900 1.247500
18.936200 1.243300
18.969500 1.239400
19.002800 1.236600
19.036100 1.234100
19.069400 1.233100
19.102700 1.235200
19.136000 1.237000
19.169400 1.237100
19.202700 1.233400
19.236000 1.237400
19.269300 1.231400
19.302600 1.235700
19.335900 1.239400
19.369200 1.240600
19.402500 1.242700
19.435900 1.245400
19.469200 1.247600
19.502500 1.248100
19.535800 1.246600
19.569100 1.244400
19.602400 1.243100
19.635700 1.242600
19.669000 1.244200
19.702400 1.247700
19.735700 1.254800
19.769000 1.273800
19.802300 1.272200
19.835600 1.268800
19.868900 1.264200
19.902200 1.259500
19.935500 1.255300
19.968900 1.248900
20.002200 1.242900
20.035500 1.236000
20.068800 1.231000
20.102100 1.217700
20.135400 1.212700
20.168700 1.206100
20.202000 1.200800
20.235300 1.203700
20.268700 1.208900
20.302000 1.212100
20.335300 1.207700
20.368600 1.200300
20.401900 1.196200
20.435200 1.191100
20.468500 1.184200
20.501800 1.177300
20.535200 1.171100
20.568500 1.169400
20.601800 1.165600
20.635100 1.175000
20.668400 1.168900
20.701700 1.165400
20.735000 1.164800
20.768300 1.163800
20.801700 1.154600
20.835000 1.147300
20.868300 1.152100
20.901600 1.148800
20.934900 1.127800
20.968200 1.089100
21.001500 1.054000
21.034800 1.033600
21.068200 1.023700
21.101500 1.016100
21.134800 1.009200
21.168100 1.001000
21.201400 0.989100
21.234700 0.978800
21.268000 0.963200
21.301300 0.949500
21.334700 0.937600
21.368000 0.927700
21.401300 0.919000
21.434600 0.910600
21.467900 0.902600
21.501200 0.891500
21.534500 0.884700
21.567800 0.879500
21.601100 0.879700
21.634500 0.884800
21.667800 0.896200
21.701100 0.926600
21.734400 0.952500
21.767700 0.970300
21.801000 0.990800
21.834300 1.011700
21.867600 1.026500
21.901000 1.028300
21.934300 1.033000
21.967600 1.039400
22.000900 1.045500
22.034200 1.050900
22.067500 1.041200
22.100800 1.059500
22.134100 1.074100
22.167500 1.090800
22.200800 1.102800
22.234100 1.105300
22.267400 1.119400
22.300700 1.132500
22.334000 1.144400
22.367300 1.155700
22.400600 1.165600
22.434000 1.176100
22.467300 1.177200
22.500600 1.181300
22.533900 1.190100
22.567200 1.191400
22.600500 1.189900
22.633800 1.187700
22.667100 1.190100
22.700500 1.193100
22.733800 1.197200
22.767100 1.212700
22.800400 1.249400
22.833700 1.234500
22.867000 1.224400
22.900300 1.220600
22.933600 1.222200
22.966900 1.203800
23.000300 1.190000
23.033600 1.166500
23.066900 1.149200
23.100200 1.140500
23.133500 1.133000
23.166800 1.126900
23.200100 1.122700
23.233400 1.122700
23.266800 1.124600
23.300100 1.129800
23.333400 1.136000
23.366700 1.142400
23.400000 1.151700
23.433300 1.159900
23.466600 1.163300
23.499900 1.165900
23.533300 1.168900
23.566600 1.166400
23.599900 1.159100
23.633200 1.149600
23.666500 1.144100
23.699800 1.141800
23.733100 1.142600
23.766400 1.146800
23.799800 1.151200
23.833100 1.156000
23.866400 1.164000
23.899700 1.173500
23.933000 1.184300
23.966300 1.193600
23.999600 1.200300
24.032900 1.205200
24.066300 1.208700
24.099600 1.214300
24.132900 1.219800
24.166200 1.226000
24.199500 1.234200
24.232800 1.252200
24.266100 1.277500
24.299400 1.312000
24.332700 1.348800
24.366100 1.383800
24.399400 1.417300
24.432700 1.441400
24.466000 1.448400
24.499300 1.456100
24.532600 1.463400
24.565900 1.473800
24.599200 1.466300
24.632600 1.409100
24.665900 1.364200
24.699200 1.361300
24.732500 1.345200
24.765800 1.348100
24.799100 1.358100
24.832400 1.370500
24.865700 1.379200
24.899100 1.398700
24.932400 1.432500
24.965700 1.458300
24.999000 1.487500
25.032300 1.515300
25.065600 1.532700
25.098900 1.546400
25.132200 1.556600
25.165600 1.562100
25.198900 1.573400
25.232200 1.587000
25.265500 1.600500
25.298800 1.610200
25.332100 1.647500
25.365400 1.644200
25.398700 1.650300
25.432100 1.659500
25.465400 1.643900
25.498700 1.661000
25.532000 1.641900
25.565300 1.587900
25.598600 1.533600
25.631900 1.487100
25.665200 1.452100
25.698500 1.419300
25.731900 1.401900
25.765200 1.392900
25.798500 1.394700
25.831800 1.437500
25.865100 1.418800
25.898400 1.402100
25.931700 1.416300
25.965000 1.440300
25.998400 1.473900
26.031700 1.517100
26.065000 1.572800
26.098300 1.634200
26.131600 1.699200
26.164900 1.725100
26.198200 1.736000
26.231500 1.722500
26.264900 1.716300
26.298200 1.717800
26.331500 1.702100
26.364800 1.682900
26.398100 1.636900
26.431400 1.602900
26.464700 1.594800
26.498000 1.607500
26.531400 1.634100
