set title 'mp-1183665 - Density of States'
set xlabel 'Energy (eV)'
set ylabel 'DOS (states/eV)'
set grid
set xrange [-10:10]
set yrange [0:53.612]
set xzeroaxis lt -1
set terminal png size 800,600
set output 'mp-1183665_dos_gnuplot.png'
plot '-' using 1:2 with lines title 'DOS'
-12.517000 0.000000
-12.498000 0.000000
-12.479100 0.000000
-12.460200 0.000000
-12.441300 0.000000
-12.422300 0.000000
-12.403400 0.000000
-12.384500 0.000000
-12.365600 0.000000
-12.346600 0.000000
-12.327700 0.000000
-12.308800 0.000000
-12.289900 0.000000
-12.270900 0.000000
-12.252000 0.000000
-12.233100 0.000000
-12.214200 0.000000
-12.195200 0.000000
-12.176300 0.000000
-12.157400 0.000000
-12.138500 0.000000
-12.119500 0.000000
-12.100600 0.000000
-12.081700 0.000000
-12.062800 0.000000
-12.043800 0.000000
-12.024900 0.000000
-12.006000 0.000000
-11.987100 0.000000
-11.968100 0.000000
-11.949200 0.000000
-11.930300 0.000000
-11.911400 0.000000
-11.892400 0.000000
-11.873500 0.000000
-11.854600 0.000000
-11.835700 0.000000
-11.816700 0.000000
-11.797800 0.000000
-11.778900 0.000000
-11.760000 0.000000
-11.741100 0.000000
-11.722100 0.000000
-11.703200 0.000000
-11.684300 0.000000
-11.665400 0.000000
-11.646400 0.000000
-11.627500 0.000000
-11.608600 0.000000
-11.589700 0.000000
-11.570700 0.000000
-11.551800 0.000000
-11.532900 0.000000
-11.514000 0.000000
-11.495000 0.000000
-11.476100 0.000000
-11.457200 0.000000
-11.438300 0.000000
-11.419300 0.000000
-11.400400 0.000000
-11.381500 0.000000
-11.362600 0.000000
-11.343600 0.000000
-11.324700 0.000000
-11.305800 0.000000
-11.286900 0.000000
-11.267900 0.000000
-11.249000 0.000000
-11.230100 0.000000
-11.211200 0.000000
-11.192200 0.000000
-11.173300 0.000000
-11.154400 0.000000
-11.135500 0.000000
-11.116500 0.000000
-11.097600 0.000000
-11.078700 0.000000
-11.059800 0.000000
-11.040800 0.000000
-11.021900 0.000000
-11.003000 0.000000
-10.984100 0.000000
-10.965100 0.000000
-10.946200 0.000000
-10.927300 0.000000
-10.908400 0.000300
-10.889400 0.001700
-10.870500 0.007700
-10.851600 0.028300
-10.832700 0.084100
-10.813700 0.207300
-10.794800 0.430100
-10.775900 0.759900
-10.757000 1.147700
-10.738000 1.484400
-10.719100 1.655500
-10.700200 1.643300
-10.681300 1.587000
-10.662400 1.698000
-10.643400 2.048600
-10.624500 2.442000
-10.605600 2.569100
-10.586700 2.336800
-10.567700 1.992400
-10.548800 1.891200
-10.529900 2.197800
-10.511000 2.810600
-10.492000 3.463900
-10.473100 3.888700
-10.454200 4.003500
-10.435300 4.057600
-10.416300 4.589500
-10.397400 6.080200
-10.378500 8.368600
-10.359600 10.389200
-10.340600 10.813700
-10.321700 9.172500
-10.302800 6.264200
-10.283900 3.417600
-10.264900 1.478800
-10.246000 0.503800
-10.227100 0.134200
-10.208200 0.027800
-10.189200 0.004400
-10.170300 0.000500
-10.151400 0.000100
-10.132500 0.000000
-10.113500 0.000000
-10.094600 0.000000
-10.075700 0.000000
-10.056800 0.000000
-10.037800 0.000000
-10.018900 0.000000
-10.000000 0.000000
-9.981100 0.000000
-9.962100 0.000000
-9.943200 0.000000
-9.924300 0.000000
-9.905400 0.000000
-9.886400 0.000000
-9.867500 0.000000
-9.848600 0.000000
-9.829700 0.000000
-9.810700 0.000000
-9.791800 0.000000
-9.772900 0.000000
-9.754000 0.000000
-9.735000 0.000000
-9.716100 0.000000
-9.697200 0.000000
-9.678300 0.000000
-9.659300 0.000000
-9.640400 0.000000
-9.621500 0.000000
-9.602600 0.000000
-9.583700 0.000000
-9.564700 0.000000
-9.545800 0.000000
-9.526900 0.000000
-9.508000 0.000000
-9.489000 0.000000
-9.470100 0.000000
-9.451200 0.000000
-9.432300 0.000000
-9.413300 0.000000
-9.394400 0.000000
-9.375500 0.000000
-9.356600 0.000000
-9.337600 0.000000
-9.318700 0.000000
-9.299800 0.000000
-9.280900 0.000000
-9.261900 0.000000
-9.243000 0.000000
-9.224100 0.000000
-9.205200 0.000000
-9.186200 0.000000
-9.167300 0.000000
-9.148400 0.000000
-9.129500 0.000000
-9.110500 0.000000
-9.091600 0.000000
-9.072700 0.000000
-9.053800 0.000000
-9.034800 0.000000
-9.015900 0.000000
-8.997000 0.000000
-8.978100 0.000000
-8.959100 0.000000
-8.940200 0.000000
-8.921300 0.000000
-8.902400 0.000000
-8.883400 0.000000
-8.864500 0.000000
-8.845600 0.000000
-8.826700 0.000000
-8.807700 0.000000
-8.788800 0.000000
-8.769900 0.000000
-8.751000 0.000000
-8.732000 0.000000
-8.713100 0.000000
-8.694200 0.000000
-8.675300 0.000000
-8.656300 0.000000
-8.637400 0.000000
-8.618500 0.000000
-8.599600 0.000000
-8.580600 0.000000
-8.561700 0.000000
-8.542800 0.000000
-8.523900 0.000000
-8.504900 0.000000
-8.486000 0.000000
-8.467100 0.000000
-8.448200 0.000000
-8.429300 0.000000
-8.410300 0.000000
-8.391400 0.000000
-8.372500 0.000000
-8.353600 0.000000
-8.334600 0.000000
-8.315700 0.000000
-8.296800 0.000000
-8.277900 0.000000
-8.258900 0.000000
-8.240000 0.000000
-8.221100 0.000000
-8.202200 0.000000
-8.183200 0.000000
-8.164300 0.000000
-8.145400 0.000000
-8.126500 0.000000
-8.107500 0.000000
-8.088600 0.000000
-8.069700 0.000000
-8.050800 0.000000
-8.031800 0.000000
-8.012900 0.000000
-7.994000 0.000000
-7.975100 0.000000
-7.956100 0.000000
-7.937200 0.000000
-7.918300 0.000000
-7.899400 0.000000
-7.880400 0.000000
-7.861500 0.000000
-7.842600 0.000000
-7.823700 0.000000
-7.804700 0.000000
-7.785800 0.000000
-7.766900 0.000000
-7.748000 0.000000
-7.729000 0.000000
-7.710100 0.000000
-7.691200 0.000000
-7.672300 0.000000
-7.653300 0.000000
-7.634400 0.000000
-7.615500 0.000000
-7.596600 0.000300
-7.577600 0.002100
-7.558700 0.010000
-7.539800 0.037200
-7.520900 0.111800
-7.501900 0.276300
-7.483000 0.570900
-7.464100 0.992000
-7.445200 1.442800
-7.426200 1.747000
-7.407300 1.791800
-7.388400 1.705800
-7.369500 1.826800
-7.350600 2.366300
-7.331600 3.086600
-7.312700 3.454000
-7.293800 3.210300
-7.274900 2.716100
-7.255900 2.651300
-7.237000 3.415400
-7.218100 4.831900
-7.199200 6.382000
-7.180200 7.623400
-7.161300 8.336700
-7.142400 8.474000
-7.123500 8.201000
-7.104500 7.849100
-7.085600 7.621800
-7.066700 7.470500
-7.047800 7.320600
-7.028800 7.209100
-7.009900 7.150100
-6.991000 7.058300
-6.972100 6.924100
-6.953100 7.003000
-6.934200 7.668000
-6.915300 8.973700
-6.896400 10.498600
-6.877400 11.760600
-6.858500 12.674100
-6.839600 13.507900
-6.820700 14.609900
-6.801700 16.295200
-6.782800 18.682600
-6.763900 21.375800
-6.745000 23.526800
-6.726000 24.436500
-6.707100 24.056400
-6.688200 23.000800
-6.669300 22.188800
-6.650300 22.266600
-6.631400 23.235300
-6.612500 24.839100
-6.593600 27.320900
-6.574600 31.360500
-6.555700 36.981100
-6.536800 42.850800
-6.517900 47.106900
-6.498900 48.737900
-6.480000 48.005300
-6.461100 45.938400
-6.442200 43.692400
-6.423200 42.011200
-6.404300 40.893400
-6.385400 39.776700
-6.366500 38.222400
-6.347500 36.404000
-6.328600 34.846500
-6.309700 33.806000
-6.290800 32.988100
-6.271800 31.754300
-6.252900 29.597800
-6.234000 26.653900
-6.215100 23.881100
-6.196200 22.572200
-6.177200 23.439900
-6.158300 25.994100
-6.139400 28.722800
-6.120500 29.999700
-6.101500 29.013200
-6.082600 26.000000
-6.063700 21.857900
-6.044800 17.687100
-6.025800 14.448800
-6.006900 12.602200
-5.988000 11.862600
-5.969100 11.430500
-5.950100 10.574800
-5.931200 9.021900
-5.912300 6.939200
-5.893400 4.758200
-5.874400 2.967400
-5.855500 1.854400
-5.836600 1.351000
-5.817700 1.178000
-5.798700 1.163000
-5.779800 1.354000
-5.760900 1.791600
-5.742000 2.269100
-5.723000 2.439800
-5.704100 2.141800
-5.685200 1.527200
-5.666300 0.897900
-5.647300 0.488700
-5.628400 0.384700
-5.609500 0.543000
-5.590600 0.829900
-5.571600 1.082700
-5.552700 1.214900
-5.533800 1.240400
-5.514900 1.176600
-5.495900 1.007300
-5.477000 0.763100
-5.458100 0.530400
-5.439200 0.358900
-5.420200 0.233900
-5.401300 0.134700
-5.382400 0.063100
-5.363500 0.023000
-5.344500 0.006400
-5.325600 0.001400
-5.306700 0.000200
-5.287800 0.000000
-5.268800 0.000000
-5.249900 0.000000
-5.231000 0.000000
-5.212100 0.000000
-5.193100 0.000000
-5.174200 0.000000
-5.155300 0.000000
-5.136400 0.000000
-5.117500 0.000000
-5.098500 0.000000
-5.079600 0.000000
-5.060700 0.000000
-5.041800 0.000000
-5.022800 0.000000
-5.003900 0.000000
-4.985000 0.000000
-4.966100 0.000000
-4.947100 0.000000
-4.928200 0.000000
-4.909300 0.000000
-4.890400 0.000000
-4.871400 0.000000
-4.852500 0.000000
-4.833600 0.000000
-4.814700 0.000000
-4.795700 0.000000
-4.776800 0.000000
-4.757900 0.000000
-4.739000 0.000000
-4.720000 0.000000
-4.701100 0.000000
-4.682200 0.000000
-4.663300 0.000000
-4.644300 0.000000
-4.625400 0.000000
-4.606500 0.000000
-4.587600 0.000000
-4.568600 0.000000
-4.549700 0.000000
-4.530800 0.000000
-4.511900 0.000000
-4.492900 0.000000
-4.474000 0.000100
-4.455100 0.000600
-4.436200 0.002600
-4.417200 0.008000
-4.398300 0.018800
-4.379400 0.033700
-4.360500 0.048000
-4.341500 0.059000
-4.322600 0.071700
-4.303700 0.095200
-4.284800 0.133200
-4.265800 0.183200
-4.246900 0.240400
-4.228000 0.293200
-4.209100 0.323600
-4.190100 0.319000
-4.171200 0.278700
-4.152300 0.215200
-4.133400 0.159000
-4.114400 0.150300
-4.095500 0.209500
-4.076600 0.309400
-4.057700 0.388100
-4.038800 0.403800
-4.019800 0.370200
-4.000900 0.324700
-3.982000 0.286000
-3.963100 0.267200
-3.944100 0.303300
-3.925200 0.425200
-3.906300 0.610100
-3.887400 0.777400
-3.868400 0.842500
-3.849500 0.777100
-3.830600 0.628800
-3.811700 0.489200
-3.792700 0.438900
-3.773800 0.495100
-3.754900 0.585200
-3.736000 0.598700
-3.717000 0.499100
-3.698100 0.364400
-3.679200 0.303000
-3.660300 0.363300
-3.641300 0.530800
-3.622400 0.756300
-3.603500 0.961000
-3.584600 1.062700
-3.565600 1.051000
-3.546700 1.015200
-3.527800 1.068500
-3.508900 1.258900
-3.489900 1.562700
-3.471000 1.926700
-3.452100 2.288300
-3.433200 2.576100
-3.414200 2.741400
-3.395300 2.798800
-3.376400 2.794900
-3.357500 2.733500
-3.338500 2.591400
-3.319600 2.398100
-3.300700 2.208600
-3.281800 2.003300
-3.262800 1.711000
-3.243900 1.332200
-3.225000 0.987600
-3.206100 0.860100
-3.187100 1.086300
-3.168200 1.622900
-3.149300 2.200200
-3.130400 2.507000
-3.111400 2.464000
-3.092500 2.249400
-3.073600 2.056100
-3.054700 1.904400
-3.035700 1.693100
-3.016800 1.362500
-2.997900 0.975600
-2.979000 0.660600
-2.960000 0.493600
-2.941100 0.440200
-2.922200 0.413500
-2.903300 0.378600
-2.884400 0.380500
-2.865400 0.471200
-2.846500 0.640700
-2.827600 0.823700
-2.808700 0.947300
-2.789700 0.976200
-2.770800 0.940900
-2.751900 0.926600
-2.733000 1.022900
-2.714000 1.268300
-2.695100 1.596000
-2.676200 1.827200
-2.657300 1.790100
-2.638300 1.496200
-2.619400 1.147800
-2.600500 0.930300
-2.581600 0.854900
-2.562600 0.831100
-2.543700 0.824900
-2.524800 0.884300
-2.505900 1.020400
-2.486900 1.128400
-2.468000 1.090100
-2.449100 0.928700
-2.430200 0.776800
-2.411200 0.703300
-2.392300 0.666900
-2.373400 0.636700
-2.354500 0.654700
-2.335500 0.753800
-2.316600 0.886800
-2.297700 0.966700
-2.278800 0.964800
-2.259800 0.964000
-2.240900 1.098000
-2.222000 1.397200
-2.203100 1.707000
-2.184100 1.812000
-2.165200 1.651400
-2.146300 1.367100
-2.127400 1.144200
-2.108400 1.058000
-2.089500 1.055600
-2.070600 1.024700
-2.051700 0.900100
-2.032700 0.743000
-2.013800 0.683900
-1.994900 0.761900
-1.976000 0.865300
-1.957000 0.869100
-1.938100 0.791800
-1.919200 0.766100
-1.900300 0.890000
-1.881300 1.152900
-1.862400 1.468600
-1.843500 1.739200
-1.824600 1.916800
-1.805700 2.027000
-1.786700 2.113400
-1.767800 2.178900
-1.748900 2.227600
-1.730000 2.339000
-1.711000 2.607300
-1.692100 2.967700
-1.673200 3.149400
-1.654300 2.907700
-1.635300 2.307800
-1.616400 1.678100
-1.597500 1.272700
-1.578600 1.090400
-1.559600 1.025200
-1.540700 1.041600
-1.521800 1.135300
-1.502900 1.226100
-1.483900 1.202300
-1.465000 1.064500
-1.446100 0.959800
-1.427200 1.046200
-1.408200 1.327700
-1.389300 1.648100
-1.370400 1.874000
-1.351500 2.048700
-1.332500 2.303500
-1.313600 2.641700
-1.294700 2.900600
-1.275800 2.944000
-1.256800 2.818200
-1.237900 2.669600
-1.219000 2.559000
-1.200100 2.430600
-1.181100 2.247600
-1.162200 2.078700
-1.143300 2.018600
-1.124400 2.059700
-1.105400 2.084200
-1.086500 1.977100
-1.067600 1.716400
-1.048700 1.379000
-1.029700 1.115200
-1.010800 1.075900
-0.991900 1.282300
-0.973000 1.580600
-0.954000 1.767800
-0.935100 1.757200
-0.916200 1.622600
-0.897300 1.506900
-0.878300 1.489700
-0.859400 1.514200
-0.840500 1.437200
-0.821600 1.181900
-0.802600 0.849200
-0.783700 0.649700
-0.764800 0.730200
-0.745900 1.084800
-0.726900 1.600200
-0.708000 2.137800
-0.689100 2.572900
-0.670200 2.812700
-0.651300 2.836500
-0.632300 2.731200
-0.613400 2.651400
-0.594500 2.708500
-0.575600 2.867000
-0.556600 2.953100
-0.537700 2.806500
-0.518800 2.435000
-0.499900 2.008300
-0.480900 1.720200
-0.462000 1.644200
-0.443100 1.678100
-0.424200 1.647400
-0.405200 1.489000
-0.386300 1.306400
-0.367400 1.225800
-0.348500 1.241500
-0.329500 1.240900
-0.310600 1.153600
-0.291700 1.031000
-0.272800 0.976400
-0.253800 1.039200
-0.234900 1.197100
-0.216000 1.395300
-0.197100 1.573100
-0.178100 1.709000
-0.159200 1.869000
-0.140300 2.137900
-0.121400 2.473800
-0.102400 2.709500
-0.083500 2.720200
-0.064600 2.513100
-0.045700 2.173500
-0.026700 1.824300
-0.007800 1.611500
0.011100 1.630600
0.030000 1.852500
0.049000 2.138200
0.067900 2.323700
0.086800 2.333200
0.105700 2.251200
0.124700 2.260800
0.143600 2.474800
0.162500 2.820500
0.181400 3.097800
0.200400 3.148200
0.219300 2.964700
0.238200 2.656400
0.257100 2.338900
0.276100 2.076900
0.295000 1.891700
0.313900 1.768700
0.332800 1.662700
0.351800 1.537500
0.370700 1.420600
0.389600 1.394600
0.408500 1.503200
0.427400 1.673100
0.446400 1.759700
0.465300 1.694700
0.484200 1.567100
0.503100 1.509500
0.522100 1.532300
0.541000 1.532400
0.559900 1.429300
0.578800 1.232300
0.597800 1.015300
0.616700 0.889600
0.635600 0.970900
0.654500 1.299700
0.673500 1.770500
0.692400 2.184100
0.711300 2.407700
0.730200 2.477300
0.749200 2.535300
0.768100 2.687100
0.787000 2.916900
0.805900 3.110300
0.824900 3.140900
0.843800 2.960800
0.862700 2.627100
0.881600 2.234500
0.900600 1.849800
0.919500 1.513400
0.938400 1.239800
0.957300 1.011100
0.976300 0.836600
0.995200 0.808400
1.014100 1.050000
1.033000 1.600500
1.052000 2.342600
1.070900 3.013000
1.089800 3.330600
1.108700 3.224000
1.127700 2.945900
1.146600 2.849300
1.165500 3.025300
1.184400 3.258700
1.203400 3.327100
1.222300 3.212400
1.241200 3.028000
1.260100 2.878500
1.279100 2.807500
1.298000 2.794100
1.316900 2.787200
1.335800 2.770600
1.354800 2.749700
1.373700 2.673800
1.392600 2.470700
1.411500 2.174100
1.430500 1.922100
1.449400 1.808400
1.468300 1.801600
1.487200 1.810000
1.506100 1.775800
1.525100 1.704100
1.544000 1.636400
1.562900 1.605900
1.581800 1.604000
1.600800 1.572600
1.619700 1.434000
1.638600 1.158400
1.657500 0.817400
1.676500 0.552200
1.695400 0.471500
1.714300 0.577500
1.733200 0.785300
1.752200 1.016900
1.771100 1.257500
1.790000 1.486100
1.808900 1.591100
1.827900 1.459800
1.846800 1.154800
1.865700 0.901900
1.884600 0.874500
1.903600 1.040500
1.922500 1.234700
1.941400 1.348600
1.960300 1.407500
1.979300 1.476900
1.998200 1.564600
2.017100 1.638300
2.036000 1.688100
2.055000 1.739100
2.073900 1.798500
2.092800 1.808700
2.111700 1.695200
2.130700 1.479200
2.149600 1.295100
2.168500 1.262300
2.187400 1.348800
2.206400 1.386500
2.225300 1.238400
2.244200 0.936400
2.263100 0.641400
2.282100 0.494600
2.301000 0.522900
2.319900 0.648700
2.338800 0.761600
2.357800 0.796600
2.376700 0.774700
2.395600 0.764000
2.414500 0.789200
2.433500 0.802100
2.452400 0.766700
2.471300 0.742300
2.490200 0.834700
2.509200 1.074900
2.528100 1.385500
2.547000 1.659800
2.565900 1.824900
2.584900 1.833300
2.603800 1.668200
2.622700 1.392200
2.641600 1.144200
2.660500 1.041600
2.679500 1.083000
2.698400 1.154500
2.717300 1.133600
2.736200 0.982100
2.755200 0.747300
2.774100 0.510600
2.793000 0.345500
2.811900 0.290200
2.830900 0.339200
2.849800 0.473600
2.868700 0.690400
2.887600 0.981200
2.906600 1.294500
2.925500 1.552800
2.944400 1.721100
2.963300 1.831700
2.982300 1.910800
3.001200 1.909700
3.020100 1.760800
3.039000 1.490700
3.058000 1.222900
3.076900 1.062600
3.095800 1.013000
3.114700 1.009600
3.133700 1.018700
3.152600 1.101700
3.171500 1.377800
3.190400 1.868900
3.209400 2.377300
3.228300 2.624000
3.247200 2.535800
3.266100 2.293700
3.285100 2.083000
3.304000 1.931800
3.322900 1.807000
3.341800 1.724500
3.360800 1.717500
3.379700 1.770800
3.398600 1.809900
3.417500 1.748600
3.436500 1.577300
3.455400 1.397100
3.474300 1.328900
3.493200 1.407300
3.512200 1.577400
3.531100 1.748300
3.550000 1.836800
3.568900 1.796800
3.587900 1.636400
3.606800 1.421300
3.625700 1.254000
3.644600 1.203000
3.663600 1.253900
3.682500 1.373500
3.701400 1.585500
3.720300 1.890000
3.739200 2.155000
3.758200 2.216300
3.777100 2.076300
3.796000 1.892800
3.814900 1.780100
3.833900 1.713700
3.852800 1.635300
3.871700 1.560100
3.890600 1.530000
3.909600 1.518700
3.928500 1.459400
3.947400 1.353100
3.966300 1.279000
3.985300 1.293300
4.004200 1.366500
4.023100 1.432000
4.042000 1.480500
4.061000 1.600900
4.079900 1.886500
4.098800 2.269900
4.117700 2.513700
4.136700 2.428300
4.155600 2.056200
4.174500 1.604200
4.193400 1.255900
4.212400 1.087700
4.231300 1.104400
4.250200 1.271200
4.269100 1.492700
4.288100 1.627100
4.307000 1.603100
4.325900 1.517500
4.344800 1.536200
4.363800 1.674300
4.382700 1.747400
4.401600 1.601700
4.420500 1.337600
4.439500 1.225400
4.458400 1.429700
4.477300 1.861500
4.496200 2.270300
4.515200 2.443900
4.534100 2.341800
4.553000 2.084900
4.571900 1.850700
4.590900 1.764000
4.609800 1.853100
4.628700 2.081400
4.647600 2.390000
4.666600 2.693300
4.685500 2.882900
4.704400 2.914800
4.723300 2.888200
4.742300 2.948300
4.761200 3.083500
4.780100 3.098200
4.799000 2.845900
4.817900 2.419700
4.836900 2.039400
4.855800 1.832800
4.874700 1.807600
4.893600 1.929700
4.912600 2.125500
4.931500 2.289100
4.950400 2.370800
4.969300 2.409500
4.988300 2.453000
5.007200 2.501900
5.026100 2.535200
5.045000 2.542400
5.064000 2.528900
5.082900 2.519900
5.101800 2.553300
5.120700 2.640900
5.139700 2.747200
5.158600 2.813100
5.177500 2.783100
5.196400 2.637800
5.215400 2.429400
5.234300 2.237400
5.253200 2.090500
5.272100 2.014300
5.291100 2.098000
5.310000 2.375400
5.328900 2.693300
5.347800 2.838300
5.366800 2.760700
5.385700 2.581000
5.404600 2.418700
5.423500 2.277400
5.442500 2.080400
5.461400 1.790800
5.480300 1.478400
5.499200 1.266600
5.518200 1.232000
5.537100 1.358200
5.556000 1.556800
5.574900 1.728100
5.593900 1.816100
5.612800 1.813900
5.631700 1.739800
5.650600 1.628700
5.669600 1.526600
5.688500 1.461200
5.707400 1.423300
5.726300 1.385700
5.745300 1.322800
5.764200 1.214700
5.783100 1.067500
5.802000 0.926000
5.821000 0.842900
5.839900 0.854100
5.858800 0.991800
5.877700 1.251900
5.896700 1.519500
5.915600 1.605000
5.934500 1.417200
5.953400 1.062900
5.972300 0.739100
5.991300 0.560900
6.010200 0.514100
6.029100 0.543700
6.048000 0.662700
6.067000 0.952900
6.085900 1.442500
6.104800 2.006400
6.123700 2.438800
6.142700 2.627600
6.161600 2.624000
6.180500 2.555000
6.199400 2.499800
6.218400 2.450700
6.237300 2.353900
6.256200 2.158000
6.275100 1.858400
6.294100 1.565200
6.313000 1.503000
6.331900 1.834200
6.350800 2.442700
6.369800 2.970400
6.388700 3.125100
6.407600 2.921300
6.426500 2.607500
6.445500 2.413100
6.464400 2.370400
6.483300 2.361300
6.502200 2.317800
6.521200 2.314900
6.540100 2.436800
6.559000 2.649400
6.577900 2.862700
6.596900 3.041400
6.615800 3.185100
6.634700 3.248700
6.653600 3.163000
6.672600 2.928200
6.691500 2.630000
6.710400 2.363400
6.729300 2.179400
6.748300 2.086400
6.767200 2.062000
6.786100 2.049100
6.805000 1.981400
6.824000 1.870700
6.842900 1.852200
6.861800 2.074800
6.880700 2.524000
6.899700 2.985700
6.918600 3.241600
6.937500 3.297900
6.956400 3.334000
6.975400 3.436300
6.994300 3.517100
7.013200 3.494200
7.032100 3.402400
7.051000 3.297500
7.070000 3.170300
7.088900 2.985900
7.107800 2.711800
7.126700 2.320700
7.145700 1.851800
7.164600 1.438300
7.183500 1.210500
7.202400 1.197200
7.221400 1.331800
7.240300 1.510200
7.259200 1.653100
7.278100 1.755200
7.297100 1.861500
