set title 'mp-999142 - Density of States'
set xlabel 'Energy (eV)'
set ylabel 'DOS (states/eV)'
set grid
set xrange [-10:10]
set yrange [0:5.422]
set xzeroaxis lt -1
set terminal png size 800,600
set output 'mp-999142_dos_gnuplot.png'
plot '-' using 1:2 with lines title 'DOS'
-17.180900 0.000000
-17.152700 0.000000
-17.124500 0.000000
-17.096400 0.000000
-17.068200 0.000000
-17.040100 0.000000
-17.011900 0.000000
-16.983800 0.000000
-16.955600 0.000000
-16.927400 0.000000
-16.899300 0.000000
-16.871100 0.000000
-16.843000 0.000000
-16.814800 0.000000
-16.786700 0.000000
-16.758500 0.000000
-16.730300 0.000000
-16.702200 0.000000
-16.674000 0.000000
-16.645900 0.000000
-16.617700 0.000000
-16.589600 0.000000
-16.561400 0.000000
-16.533200 0.000000
-16.505100 0.000000
-16.476900 0.000000
-16.448800 0.000000
-16.420600 0.000000
-16.392400 0.000000
-16.364300 0.000000
-16.336100 0.000000
-16.308000 0.000000
-16.279800 0.000000
-16.251700 0.000000
-16.223500 0.000000
-16.195300 0.000000
-16.167200 0.000000
-16.139000 0.000000
-16.110900 0.000000
-16.082700 0.000000
-16.054600 0.000000
-16.026400 0.000000
-15.998200 0.000000
-15.970100 0.000000
-15.941900 0.000000
-15.913800 0.000000
-15.885600 0.000000
-15.857400 0.000000
-15.829300 0.000000
-15.801100 0.000000
-15.773000 0.000000
-15.744800 0.000000
-15.716700 0.000000
-15.688500 0.000000
-15.660300 0.000000
-15.632200 0.000000
-15.604000 0.000000
-15.575900 0.000000
-15.547700 0.000000
-15.519600 0.000000
-15.491400 0.000000
-15.463200 0.000000
-15.435100 0.000000
-15.406900 0.000000
-15.378800 0.000000
-15.350600 0.000000
-15.322400 0.000000
-15.294300 0.000000
-15.266100 0.000000
-15.238000 0.000000
-15.209800 0.000000
-15.181700 0.000000
-15.153500 0.000000
-15.125300 0.000000
-15.097200 0.000000
-15.069000 0.000000
-15.040900 0.000000
-15.012700 0.000000
-14.984600 0.000000
-14.956400 0.000000
-14.928200 0.000000
-14.900100 0.000000
-14.871900 0.000000
-14.843800 0.000000
-14.815600 0.000000
-14.787500 0.000000
-14.759300 0.000000
-14.731100 0.000000
-14.703000 0.000000
-14.674800 0.000000
-14.646700 0.000000
-14.618500 1.105800
-14.590300 2.514300
-14.562200 3.766100
-14.534000 3.895900
-14.505900 4.204200
-14.477700 4.359600
-14.449600 6.032600
-14.421400 7.440900
-14.393200 9.187700
-14.365100 12.444900
-14.336900 16.084200
-14.308800 15.277400
-14.280600 23.501500
-14.252500 30.691400
-14.224300 45.502900
-14.196100 30.396100
-14.168000 47.644200
-14.139800 67.180500
-14.111700 86.384600
-14.083500 81.267800
-14.055300 70.186900
-14.027200 57.679600
-13.999000 27.096000
-13.970900 7.429100
-13.942700 8.124500
-13.914600 7.971000
-13.886400 3.354300
-13.858200 0.000000
-13.830100 0.000000
-13.801900 0.000000
-13.773800 0.000000
-13.745600 0.000000
-13.717500 0.000000
-13.689300 0.000000
-13.661100 0.000000
-13.633000 0.000000
-13.604800 0.000000
-13.576700 0.000000
-13.548500 0.000000
-13.520400 0.000000
-13.492200 0.000000
-13.464000 0.000000
-13.435900 0.000000
-13.407700 0.000000
-13.379600 0.000000
-13.351400 0.000000
-13.323200 0.000000
-13.295100 0.000000
-13.266900 0.000000
-13.238800 0.000000
-13.210600 0.000000
-13.182500 0.000000
-13.154300 0.000000
-13.126100 0.000000
-13.098000 0.000000
-13.069800 0.000000
-13.041700 0.000000
-13.013500 0.000000
-12.985400 0.000000
-12.957200 0.000000
-12.929000 0.000000
-12.900900 0.000000
-12.872700 0.000000
-12.844600 0.000000
-12.816400 0.000000
-12.788200 0.000000
-12.760100 0.000000
-12.731900 0.000000
-12.703800 0.000000
-12.675600 0.000000
-12.647500 0.000000
-12.619300 0.000000
-12.591100 0.000000
-12.563000 0.000000
-12.534800 0.000000
-12.506700 0.000000
-12.478500 0.000000
-12.450400 0.000000
-12.422200 0.000000
-12.394000 0.000000
-12.365900 0.000000
-12.337700 0.000000
-12.309600 0.000000
-12.281400 0.000000
-12.253300 0.000000
-12.225100 0.000000
-12.196900 0.000000
-12.168800 0.000000
-12.140600 0.000000
-12.112500 0.000000
-12.084300 0.000000
-12.056100 0.000000
-12.028000 0.000000
-11.999800 0.000000
-11.971700 0.000000
-11.943500 0.000000
-11.915400 0.000000
-11.887200 0.000000
-11.859000 0.000000
-11.830900 0.000000
-11.802700 0.000000
-11.774600 0.000000
-11.746400 0.000000
-11.718300 0.000000
-11.690100 0.000000
-11.661900 0.000000
-11.633800 0.000000
-11.605600 0.000000
-11.577500 0.000000
-11.549300 0.000000
-11.521100 0.000000
-11.493000 0.000000
-11.464800 0.000000
-11.436700 0.000000
-11.408500 0.000000
-11.380400 0.000000
-11.352200 0.000000
-11.324000 0.000000
-11.295900 0.000000
-11.267700 0.000000
-11.239600 0.000000
-11.211400 0.000000
-11.183300 0.000000
-11.155100 0.259900
-11.126900 0.743100
-11.098800 0.870800
-11.070600 1.086400
-11.042500 1.307500
-11.014300 1.424100
-10.986200 1.589200
-10.958000 1.803800
-10.929800 2.060500
-10.901700 2.218400
-10.873500 2.395700
-10.845400 2.655200
-10.817200 3.016100
-10.789000 4.404600
-10.760900 4.152100
-10.732700 4.405900
-10.704600 4.187900
-10.676400 4.280800
-10.648300 4.649300
-10.620100 5.192400
-10.591900 5.693600
-10.563800 5.408300
-10.535600 5.790200
-10.507500 5.895800
-10.479300 4.583100
-10.451200 4.032100
-10.423000 3.611300
-10.394800 3.246600
-10.366700 2.575400
-10.338500 2.608300
-10.310400 2.612100
-10.282200 2.619100
-10.254000 2.661200
-10.225900 2.686500
-10.197700 2.208100
-10.169600 2.116100
-10.141400 2.047200
-10.113300 1.978700
-10.085100 1.904700
-10.056900 1.840900
-10.028800 1.784100
-10.000600 1.748100
-9.972500 1.697400
-9.944300 1.639700
-9.916200 1.582500
-9.888000 1.535600
-9.859800 1.497300
-9.831700 1.498800
-9.803500 1.481200
-9.775400 1.405300
-9.747200 1.304000
-9.719000 1.152500
-9.690900 0.965400
-9.662700 0.833600
-9.634600 0.736100
-9.606400 0.549400
-9.578300 0.393900
-9.550100 0.281400
-9.521900 0.000000
-9.493800 0.000000
-9.465600 0.000000
-9.437500 0.000000
-9.409300 0.000000
-9.381200 0.000000
-9.353000 0.000000
-9.324800 0.000000
-9.296700 0.000000
-9.268500 0.000000
-9.240400 0.000000
-9.212200 0.000000
-9.184100 0.000000
-9.155900 0.000000
-9.127700 0.000000
-9.099600 0.000000
-9.071400 0.000000
-9.043300 0.000000
-9.015100 0.000000
-8.986900 0.000000
-8.958800 0.000000
-8.930600 0.000000
-8.902500 0.000000
-8.874300 0.000000
-8.846200 0.000000
-8.818000 0.000000
-8.789800 0.000000
-8.761700 0.000000
-8.733500 0.000000
-8.705400 0.000000
-8.677200 0.000000
-8.649100 0.000000
-8.620900 0.000000
-8.592700 0.000000
-8.564600 0.000000
-8.536400 0.000000
-8.508300 0.000000
-8.480100 0.000000
-8.451900 0.000000
-8.423800 0.000000
-8.395600 0.000000
-8.367500 0.000000
-8.339300 0.000000
-8.311200 0.000000
-8.283000 0.000000
-8.254800 0.000000
-8.226700 0.000000
-8.198500 0.000000
-8.170400 0.000000
-8.142200 0.000000
-8.114100 0.000000
-8.085900 0.000000
-8.057700 0.000000
-8.029600 0.000000
-8.001400 0.000000
-7.973300 0.000000
-7.945100 0.000000
-7.917000 0.000000
-7.888800 0.000000
-7.860600 0.000000
-7.832500 0.000000
-7.804300 0.000000
-7.776200 0.000000
-7.748000 0.000000
-7.719800 0.000000
-7.691700 0.000000
-7.663500 0.000000
-7.635400 0.000000
-7.607200 0.000000
-7.579100 0.000000
-7.550900 0.000000
-7.522700 0.000000
-7.494600 0.000000
-7.466400 0.000000
-7.438300 0.000000
-7.410100 0.000000
-7.382000 0.000000
-7.353800 0.000000
-7.325600 0.000000
-7.297500 0.000000
-7.269300 0.000000
-7.241200 0.000000
-7.213000 0.000000
-7.184800 0.000000
-7.156700 0.000000
-7.128500 0.000000
-7.100400 0.000000
-7.072200 0.000000
-7.044100 0.000000
-7.015900 0.000000
-6.987700 0.000000
-6.959600 0.000000
-6.931400 0.000000
-6.903300 0.000000
-6.875100 0.000000
-6.847000 0.000000
-6.818800 0.000000
-6.790600 0.000000
-6.762500 0.000000
-6.734300 0.000000
-6.706200 0.000000
-6.678000 0.000000
-6.649900 0.000000
-6.621700 0.000000
-6.593500 0.000000
-6.565400 0.000000
-6.537200 0.000000
-6.509100 0.000000
-6.480900 0.000000
-6.452700 0.000000
-6.424600 0.000000
-6.396400 0.000000
-6.368300 0.000000
-6.340100 0.000000
-6.312000 0.000000
-6.283800 0.000000
-6.255600 0.000000
-6.227500 0.000000
-6.199300 0.000000
-6.171200 0.000000
-6.143000 0.000000
-6.114900 0.000000
-6.086700 0.000000
-6.058500 0.000000
-6.030400 0.000000
-6.002200 0.000000
-5.974100 0.000000
-5.945900 0.000000
-5.917700 0.000000
-5.889600 0.000000
-5.861400 0.000000
-5.833300 0.000000
-5.805100 0.000000
-5.777000 0.000000
-5.748800 0.000000
-5.720600 0.000000
-5.692500 0.000000
-5.664300 0.000000
-5.636200 0.000000
-5.608000 0.000000
-5.579900 0.000000
-5.551700 0.000000
-5.523500 0.000000
-5.495400 0.000000
-5.467200 0.000000
-5.439100 0.000000
-5.410900 0.000000
-5.382700 0.000000
-5.354600 0.000000
-5.326400 0.000000
-5.298300 0.000000
-5.270100 0.000000
-5.242000 0.000000
-5.213800 0.000000
-5.185600 0.000000
-5.157500 0.000000
-5.129300 0.000000
-5.101200 0.000000
-5.073000 0.000000
-5.044900 0.000000
-5.016700 0.000000
-4.988500 0.000000
-4.960400 0.000000
-4.932200 0.000000
-4.904100 0.000000
-4.875900 0.000000
-4.847800 0.000000
-4.819600 0.000000
-4.791400 0.000000
-4.763300 0.000000
-4.735100 0.000000
-4.707000 0.000000
-4.678800 0.000000
-4.650600 0.000000
-4.622500 0.000000
-4.594300 0.000000
-4.566200 0.000000
-4.538000 0.000000
-4.509900 0.000000
-4.481700 0.000000
-4.453500 0.000000
-4.425400 0.000000
-4.397200 0.000000
-4.369100 0.000000
-4.340900 0.000000
-4.312800 0.000000
-4.284600 0.000000
-4.256400 0.000000
-4.228300 0.000000
-4.200100 0.000000
-4.172000 0.000000
-4.143800 0.000000
-4.115600 0.000000
-4.087500 0.000000
-4.059300 0.000000
-4.031200 0.000000
-4.003000 0.000000
-3.974900 0.000000
-3.946700 0.000000
-3.918500 0.000000
-3.890400 0.000000
-3.862200 0.000000
-3.834100 0.000000
-3.805900 0.000000
-3.777800 0.000000
-3.749600 0.000000
-3.721400 0.000000
-3.693300 0.000000
-3.665100 0.000000
-3.637000 0.000000
-3.608800 0.000000
-3.580700 0.000000
-3.552500 0.000000
-3.524300 0.000000
-3.496200 0.000000
-3.468000 0.000000
-3.439900 0.000000
-3.411700 0.000000
-3.383500 0.000000
-3.355400 0.000000
-3.327200 0.000000
-3.299100 0.000000
-3.270900 0.000000
-3.242800 0.000000
-3.214600 0.000000
-3.186400 0.000000
-3.158300 0.000000
-3.130100 0.000000
-3.102000 0.000000
-3.073800 0.000000
-3.045700 0.000000
-3.017500 0.000000
-2.989300 0.000000
-2.961200 0.000000
-2.933000 0.000000
-2.904900 0.000000
-2.876700 0.000000
-2.848500 0.000000
-2.820400 0.000000
-2.792200 0.000000
-2.764100 0.000000
-2.735900 0.000000
-2.707800 0.000000
-2.679600 0.000000
-2.651400 0.000000
-2.623300 0.000000
-2.595100 0.000000
-2.567000 0.000000
-2.538800 0.000000
-2.510700 0.000000
-2.482500 0.000000
-2.454300 0.000000
-2.426200 0.000000
-2.398000 0.000000
-2.369900 0.000000
-2.341700 0.000000
-2.313600 0.000000
-2.285400 0.000000
-2.257200 0.000000
-2.229100 0.000000
-2.200900 0.000000
-2.172800 0.000000
-2.144600 0.000000
-2.116400 0.000000
-2.088300 0.000000
-2.060100 0.000000
-2.032000 0.140200
-2.003800 0.193600
-1.975700 0.253200
-1.947500 0.304300
-1.919300 0.348200
-1.891200 0.381800
-1.863000 0.421300
-1.834900 0.433700
-1.806700 0.456100
-1.778600 0.481900
-1.750400 0.507200
-1.722200 0.531800
-1.694100 0.560100
-1.665900 0.588700
-1.637800 0.617300
-1.609600 0.640800
-1.581400 0.664700
-1.553300 0.688400
-1.525100 0.707400
-1.497000 0.731700
-1.468800 0.754700
-1.440700 0.776300
-1.412500 0.799500
-1.384300 0.822400
-1.356200 0.845000
-1.328000 0.867400
-1.299900 0.890500
-1.271700 0.914900
-1.243600 0.940500
-1.215400 0.971200
-1.187200 1.001500
-1.159100 1.032900
-1.130900 1.070700
-1.102800 1.104300
-1.074600 1.137500
-1.046500 1.171100
-1.018300 1.204900
-0.990100 1.239400
-0.962000 1.274800
-0.933800 1.310700
-0.905700 1.432700
-0.877500 1.476000
-0.849300 1.514000
-0.821200 1.607200
-0.793000 1.566000
-0.764900 1.569600
-0.736700 1.543800
-0.708600 1.544800
-0.680400 1.554100
-0.652200 1.561500
-0.624100 1.558200
-0.595900 1.549600
-0.567800 1.538700
-0.539600 1.536500
-0.511500 1.536800
-0.483300 1.528400
-0.455100 1.526700
-0.427000 1.525400
-0.398800 1.525400
-0.370700 1.526000
-0.342500 1.522600
-0.314300 1.534300
-0.286200 1.537000
-0.258000 1.544800
-0.229900 1.552400
-0.201700 1.562900
-0.173600 1.573100
-0.145400 1.583600
-0.117200 1.593100
-0.089100 1.632400
-0.060900 1.659300
-0.032800 1.659500
-0.004600 1.656300
0.023500 1.651300
0.051700 1.621900
0.079900 1.604100
0.108000 1.570900
0.136200 1.561000
0.164300 1.550300
0.192500 1.541400
0.220700 1.531000
0.248800 1.519800
0.277000 1.506000
0.305100 1.481700
0.333300 1.462000
0.361400 1.447200
0.389600 1.432300
0.417800 1.412100
0.445900 1.395100
0.474100 1.377700
0.502200 1.359800
0.530400 1.362700
0.558500 1.359000
0.586700 1.310300
0.614900 1.263200
0.643000 1.238100
0.671200 1.213900
0.699300 1.190500
0.727500 1.156100
0.755600 1.133200
0.783800 1.120300
0.812000 1.107300
0.840100 1.083500
0.868300 1.067300
0.896400 1.160900
0.924600 1.185900
0.952800 1.179600
0.980900 1.199700
1.009100 1.220300
1.037200 2.407800
1.065400 1.100100
1.093500 1.086200
1.121700 1.078000
1.149900 1.051400
1.178000 1.038500
1.206200 1.037000
1.234300 1.026800
1.262500 1.016300
1.290600 1.009200
1.318800 1.004600
1.347000 1.003100
1.375100 0.997500
1.403300 0.993800
1.431400 1.013600
1.459600 1.050600
1.487800 1.045800
1.515900 1.041300
1.544100 1.009300
1.572200 1.020800
1.600400 1.028900
1.628500 1.111900
1.656700 1.060500
1.684900 1.006400
1.713000 0.878300
1.741200 0.892900
1.769300 0.902900
1.797500 0.910700
1.825600 0.908400
1.853800 0.927000
1.882000 1.045300
1.910100 1.053500
1.938300 1.009000
1.966400 1.012800
1.994600 1.013200
2.022700 1.017600
2.050900 1.036200
2.079100 1.043900
2.107200 1.025400
2.135400 1.014100
2.163500 1.094200
2.191700 1.114500
2.219900 1.124000
2.248000 1.133800
2.276200 1.312900
2.304300 1.306200
2.332500 1.351000
2.360600 1.398700
2.388800 1.420700
2.417000 1.458800
2.445100 1.492500
2.473300 1.523500
2.501400 1.586600
2.529600 1.620500
2.557700 1.555300
2.585900 1.597700
2.614100 1.634500
2.642200 1.673900
2.670400 1.715300
2.698500 1.775800
2.726700 1.895600
2.754900 2.085400
2.783000 1.938600
2.811200 1.931900
2.839300 1.951500
2.867500 2.019900
2.895600 2.047100
2.923800 2.085000
2.952000 2.208800
2.980100 2.333100
3.008300 2.330000
3.036400 2.316100
3.064600 2.325300
3.092700 2.299600
3.120900 2.376400
3.149100 2.332800
3.177200 2.495500
3.205400 2.658000
3.233500 2.745200
3.261700 2.799000
3.289800 3.007500
3.318000 2.574700
3.346200 2.505600
3.374300 2.648000
3.402500 2.946700
3.430600 2.939400
3.458800 3.033000
3.487000 3.127400
3.515100 3.217900
3.543300 3.204200
3.571400 3.249500
3.599600 3.211800
3.627700 3.046200
3.655900 2.854400
3.684100 2.853400
3.712200 2.950600
3.740400 3.004300
3.768500 3.162000
3.796700 3.015700
3.824800 2.918900
3.853000 2.899500
3.881200 2.829400
3.909300 2.814700
3.937500 2.771700
3.965600 2.750300
3.993800 2.786900
4.022000 2.948800
4.050100 2.951200
4.078300 2.989000
4.106400 3.155400
4.134600 3.233600
4.162700 3.193100
4.190900 3.136100
4.219100 2.956600
4.247200 2.791700
4.275400 2.727900
4.303500 2.676100
4.331700 2.677700
4.359800 2.499300
4.388000 2.671000
4.416200 2.435200
4.444300 2.314400
4.472500 2.246200
4.500600 2.517400
4.528800 2.125200
4.557000 1.998500
4.585100 1.852100
4.613300 1.665700
4.641400 1.635600
4.669600 1.629800
4.697700 1.621100
4.725900 1.624200
4.754100 1.636400
4.782200 1.655400
4.810400 1.674600
4.838500 1.690500
4.866700 1.715900
4.894800 1.727200
4.923000 1.767700
4.951200 1.808400
4.979300 1.844800
5.007500 1.873700
5.035600 1.881700
5.063800 1.870500
5.091900 1.878700
5.120100 1.903500
5.148300 1.965200
5.176400 2.019800
5.204600 2.089300
5.232700 2.185700
5.260900 2.412100
5.289100 2.449600
5.317200 2.488100
5.345400 2.578700
5.373500 2.693600
5.401700 2.698200
5.429800 2.836600
5.458000 2.950700
5.486200 3.003200
5.514300 3.050800
5.542500 3.042300
5.570600 3.144100
5.598800 2.988000
5.626900 2.950400
5.655100 3.192300
5.683300 2.994900
5.711400 4.928800
5.739600 2.736100
5.767700 3.512600
5.795900 2.894900
5.824100 2.078400
5.852200 2.077300
5.880400 2.102600
5.908500 2.110900
5.936700 2.117800
5.964800 2.125600
5.993000 2.124500
6.021200 2.141300
6.049300 2.168800
6.077500 2.203100
6.105600 2.326300
6.133800 2.297300
6.161900 2.343000
6.190100 2.530500
6.218300 2.586600
6.246400 2.741500
6.274600 2.829800
6.302700 2.859300
6.330900 2.921100
6.359000 3.012800
6.387200 3.072600
6.415400 3.183800
6.443500 3.544200
6.471700 3.330300
6.499800 2.755500
6.528000 2.642500
6.556200 2.639900
6.584300 2.648600
6.612500 2.730200
6.640600 2.055800
6.668800 1.698500
6.696900 1.422800
6.725100 1.283300
6.753300 0.972200
6.781400 0.860800
6.809600 0.754200
6.837700 0.666500
6.865900 0.588600
6.894000 0.586500
6.922200 0.638600
6.950400 0.557200
6.978500 0.530000
7.006700 0.493600
7.034800 0.473700
7.063000 0.396600
7.091200 0.372600
7.119300 0.369000
7.147500 0.338300
7.175600 0.252400
7.203800 0.255700
7.231900 0.289700
7.260100 0.249600
7.288300 0.247300
7.316400 0.256100
7.344600 0.283000
7.372700 0.296900
7.400900 0.312700
7.429000 0.362100
7.457200 0.374800
7.485400 0.356300
7.513500 0.364900
7.541700 0.383500
7.569800 0.398600
7.598000 0.413700
7.626100 0.428800
7.654300 0.443800
7.682500 0.476300
7.710600 0.486500
7.738800 0.495700
7.766900 0.517500
7.795100 0.529400
7.823300 0.510000
7.851400 0.526600
7.879600 0.542400
7.907700 0.557100
7.935900 0.570400
7.964000 0.584000
7.992200 0.592700
8.020400 0.603700
8.048500 0.606400
8.076700 0.609600
8.104800 0.617300
8.133000 0.683600
8.161100 0.693700
8.189300 0.740700
8.217500 0.754800
8.245600 0.742400
8.273800 0.738900
8.301900 0.790500
8.330100 0.807400
8.358300 0.824100
8.386400 0.840300
8.414600 0.856000
8.442700 0.875600
8.470900 0.862600
8.499000 0.880300
8.527200 0.882600
8.555400 0.888400
8.583500 0.897200
8.611700 0.905700
8.639800 0.914600
8.668000 0.919400
8.696100 0.929100
8.724300 0.937200
8.752500 0.948000
8.780600 0.962900
8.808800 0.975000
8.836900 0.987000
8.865100 0.999300
8.893200 1.011300
8.921400 1.017300
8.949600 1.025700
8.977700 1.037900
9.005900 1.057800
9.034000 1.079400
9.062200 1.098800
9.090400 1.113600
9.118500 1.163500
9.146700 1.197200
9.174800 1.212100
9.203000 1.225400
9.231100 1.229600
9.259300 1.246500
9.287500 1.179200
9.315600 1.158200
9.343800 1.137400
9.371900 1.123200
9.400100 1.131700
9.428200 1.118800
9.456400 1.124500
9.484600 1.079600
9.512700 1.092000
9.540900 1.104400
9.569000 1.115900
9.597200 1.126300
9.625400 1.146800
9.653500 1.162800
9.681700 1.121500
9.709800 1.080100
9.738000 1.062800
9.766100 1.055900
9.794300 1.049500
9.822500 1.043700
9.850600 1.038700
9.878800 1.039400
9.906900 1.030100
9.935100 1.021700
9.963200 1.015400
9.991400 0.984800
10.019600 0.989600
10.047700 0.996000
10.075900 1.002100
10.104000 1.008800
10.132200 1.043200
10.160400 1.046300
10.188500 1.092300
10.216700 1.121000
10.244800 1.128500
10.273000 1.120100
10.301100 1.090200
10.329300 1.093100
10.357500 1.103800
10.385600 1.117500
10.413800 1.131900
10.441900 1.146900
10.470100 1.151900
10.498200 1.161700
10.526400 1.175000
10.554600 1.186500
10.582700 1.218100
10.610900 1.227300
10.639000 1.229000
10.667200 1.332300
10.695300 1.273900
10.723500 1.260900
10.751700 1.268200
10.779800 1.262100
10.808000 1.260300
10.836100 1.260100
10.864300 1.248600
10.892500 1.244600
10.920600 1.236700
10.948800 1.197800
10.976900 1.152100
11.005100 1.161100
11.033200 1.165000
11.061400 1.170400
11.089600 1.197100
11.117700 1.200900
11.145900 1.202300
11.174000 1.199600
11.202200 1.215700
11.230300 1.238700
11.258500 1.249200
11.286700 1.193400
11.314800 1.203300
11.343000 1.210900
11.371100 1.221500
11.399300 1.231900
11.427500 1.242200
11.455600 1.252000
11.483800 1.252100
11.511900 1.260100
11.540100 1.306500
11.568200 1.314100
11.596400 1.329500
11.624600 1.346600
11.652700 1.376700
11.680900 1.417000
11.709000 1.453600
11.737200 1.489500
11.765300 1.533000
11.793500 1.530400
11.821700 1.546300
11.849800 1.572800
11.878000 1.587300
11.906100 1.597500
11.934300 1.607600
11.962400 1.616000
11.990600 1.624000
12.018800 1.620900
12.046900 1.663000
12.075100 1.651100
12.103200 1.705100
12.131400 3.028200
