set title 'mp-2755 - Density of States'
set xlabel 'Energy (eV)'
set ylabel 'DOS (states/eV)'
set grid
set xrange [-10:10]
set yrange [0:6.248]
set xzeroaxis lt -1
set terminal png size 800,600
set output 'mp-2755_dos_gnuplot.png'
plot '-' using 1:2 with lines title 'DOS'
-9.076600 0.000000
-9.063700 0.000000
-9.050900 0.000000
-9.038100 0.000000
-9.025300 0.000000
-9.012500 0.000000
-8.999700 0.000000
-8.986900 0.000000
-8.974100 0.000000
-8.961300 0.000000
-8.948500 0.000000
-8.935700 0.000000
-8.922900 0.000000
-8.910100 0.000000
-8.897300 0.000000
-8.884500 0.000000
-8.871700 0.000000
-8.858900 0.000000
-8.846100 0.000000
-8.833300 0.000000
-8.820500 0.000000
-8.807700 0.000000
-8.794900 0.000000
-8.782000 0.000000
-8.769200 0.000000
-8.756400 0.000000
-8.743600 0.000000
-8.730800 0.000000
-8.718000 0.000000
-8.705200 0.000000
-8.692400 0.000000
-8.679600 0.000000
-8.666800 0.000000
-8.654000 0.000000
-8.641200 0.000000
-8.628400 0.000000
-8.615600 0.000000
-8.602800 0.000000
-8.590000 0.000000
-8.577200 0.000000
-8.564400 0.000000
-8.551600 0.000000
-8.538800 0.000000
-8.526000 0.000000
-8.513200 0.000000
-8.500300 0.000000
-8.487500 0.000000
-8.474700 0.000000
-8.461900 0.000000
-8.449100 0.000000
-8.436300 0.000000
-8.423500 0.000000
-8.410700 0.000000
-8.397900 0.000000
-8.385100 0.000000
-8.372300 0.000000
-8.359500 0.000000
-8.346700 0.000000
-8.333900 0.000000
-8.321100 0.000000
-8.308300 0.000000
-8.295500 0.000000
-8.282700 0.000000
-8.269900 0.000000
-8.257100 0.000000
-8.244300 0.000000
-8.231500 0.000000
-8.218600 0.000000
-8.205800 0.000000
-8.193000 0.000000
-8.180200 0.000000
-8.167400 0.000000
-8.154600 0.000000
-8.141800 0.000000
-8.129000 0.000000
-8.116200 0.000000
-8.103400 0.000000
-8.090600 0.000000
-8.077800 0.000000
-8.065000 0.000000
-8.052200 0.000000
-8.039400 0.000000
-8.026600 0.000000
-8.013800 0.000000
-8.001000 0.000000
-7.988200 0.000000
-7.975400 0.000000
-7.962600 0.000000
-7.949800 0.000000
-7.936900 0.000000
-7.924100 0.000000
-7.911300 0.000600
-7.898500 0.065200
-7.885700 0.188000
-7.872900 0.356400
-7.860100 0.401600
-7.847300 0.507000
-7.834500 0.594900
-7.821700 0.625000
-7.808900 0.562800
-7.796100 0.588400
-7.783300 0.612900
-7.770500 0.623700
-7.757700 0.624600
-7.744900 0.617300
-7.732100 0.608000
-7.719300 0.594000
-7.706500 0.585400
-7.693700 0.583200
-7.680900 0.590400
-7.668100 0.599600
-7.655300 0.608900
-7.642400 0.618100
-7.629600 0.627300
-7.616800 0.629100
-7.604000 0.625300
-7.591200 0.622400
-7.578400 0.618400
-7.565600 0.609400
-7.552800 0.602700
-7.540000 0.601400
-7.527200 0.601100
-7.514400 0.602200
-7.501600 0.604300
-7.488800 0.607400
-7.476000 0.611900
-7.463200 0.616900
-7.450400 0.621900
-7.437600 0.626800
-7.424800 0.631800
-7.412000 0.636200
-7.399200 0.636700
-7.386400 0.634700
-7.373600 0.630500
-7.360700 0.626300
-7.347900 0.621200
-7.335100 0.617900
-7.322300 0.616600
-7.309500 0.618100
-7.296700 0.619600
-7.283900 0.621100
-7.271100 0.622600
-7.258300 0.624200
-7.245500 0.626000
-7.232700 0.628200
-7.219900 0.630700
-7.207100 0.633400
-7.194300 0.636600
-7.181500 0.639900
-7.168700 0.643200
-7.155900 0.646500
-7.143100 0.649900
-7.130300 0.649500
-7.117500 0.648900
-7.104700 0.648000
-7.091900 0.646300
-7.079000 0.642300
-7.066200 0.641400
-7.053400 0.640800
-7.040600 0.640800
-7.027800 0.641300
-7.015000 0.642300
-7.002200 0.643900
-6.989400 0.645800
-6.976600 0.647800
-6.963800 0.649800
-6.951000 0.651800
-6.938200 0.653800
-6.925400 0.655800
-6.912600 0.657800
-6.899800 0.659800
-6.887000 0.662000
-6.874200 0.664300
-6.861400 0.666700
-6.848600 0.669200
-6.835800 0.671900
-6.823000 0.674300
-6.810200 0.675400
-6.797300 0.675600
-6.784500 0.675400
-6.771700 0.675000
-6.758900 0.674500
-6.746100 0.674600
-6.733300 0.675600
-6.720500 0.676900
-6.707700 0.678300
-6.694900 0.679600
-6.682100 0.681000
-6.669300 0.682500
-6.656500 0.684300
-6.643700 0.686200
-6.630900 0.688300
-6.618100 0.690600
-6.605300 0.692900
-6.592500 0.695300
-6.579700 0.697600
-6.566900 0.699900
-6.554100 0.702200
-6.541300 0.704600
-6.528500 0.706900
-6.515600 0.709200
-6.502800 0.711600
-6.490000 0.714000
-6.477200 0.716400
-6.464400 0.718900
-6.451600 0.720900
-6.438800 0.723100
-6.426000 0.725300
-6.413200 0.727400
-6.400400 0.729500
-6.387600 0.731900
-6.374800 0.734400
-6.362000 0.737100
-6.349200 0.739800
-6.336400 0.742700
-6.323600 0.745600
-6.310800 0.748500
-6.298000 0.751500
-6.285200 0.754400
-6.272400 0.757300
-6.259600 0.760300
-6.246800 0.763300
-6.233900 0.766500
-6.221100 0.769800
-6.208300 0.773300
-6.195500 0.830900
-6.182700 0.942600
-6.169900 1.002300
-6.157100 1.059000
-6.144300 1.104800
-6.131500 1.151100
-6.118700 1.207300
-6.105900 1.264800
-6.093100 1.315100
-6.080300 1.363000
-6.067500 1.414100
-6.054700 1.503200
-6.041900 1.624000
-6.029100 1.663900
-6.016300 1.641200
-6.003500 1.668200
-5.990700 1.693000
-5.977900 1.706100
-5.965100 1.716100
-5.952300 1.715900
-5.939400 1.718800
-5.926600 1.730800
-5.913800 1.747800
-5.901000 1.764900
-5.888200 1.781300
-5.875400 1.797400
-5.862600 1.813000
-5.849800 1.825300
-5.837000 1.836100
-5.824200 1.853300
-5.811400 1.871400
-5.798600 1.893600
-5.785800 1.917800
-5.773000 1.943400
-5.760200 1.969000
-5.747400 1.994400
-5.734600 2.019500
-5.721800 2.044600
-5.709000 2.069700
-5.696200 2.104900
-5.683400 2.258900
-5.670600 2.343700
-5.657700 2.429900
-5.644900 2.467000
-5.632100 2.434600
-5.619300 2.405800
-5.606500 2.668500
-5.593700 2.823900
-5.580900 2.653800
-5.568100 2.667500
-5.555300 2.219100
-5.542500 2.026000
-5.529700 2.007700
-5.516900 1.990300
-5.504100 1.973200
-5.491300 1.956400
-5.478500 1.940300
-5.465700 1.924400
-5.452900 1.914000
-5.440100 1.906400
-5.427300 1.918300
-5.414500 2.001000
-5.401700 2.145400
-5.388900 2.366500
-5.376000 2.300600
-5.363200 2.240000
-5.350400 2.139200
-5.337600 2.230100
-5.324800 2.751000
-5.312000 3.558400
-5.299200 3.775300
-5.286400 3.787200
-5.273600 3.893200
-5.260800 4.217700
-5.248000 5.086400
-5.235200 5.367000
-5.222400 5.587100
-5.209600 5.680200
-5.196800 5.554900
-5.184000 5.204700
-5.171200 3.797600
-5.158400 3.551000
-5.145600 3.386700
-5.132800 3.269500
-5.120000 3.180900
-5.107200 3.180100
-5.094300 3.163300
-5.081500 4.477700
-5.068700 4.758500
-5.055900 3.883400
-5.043100 3.205800
-5.030300 1.960300
-5.017500 1.147500
-5.004700 0.000000
-4.991900 0.000000
-4.979100 0.000000
-4.966300 0.000000
-4.953500 0.000000
-4.940700 0.000000
-4.927900 0.000000
-4.915100 0.000000
-4.902300 0.000000
-4.889500 0.000000
-4.876700 0.000000
-4.863900 0.000000
-4.851100 0.000000
-4.838300 0.000000
-4.825500 0.000000
-4.812600 0.000000
-4.799800 0.000000
-4.787000 0.000000
-4.774200 0.000000
-4.761400 0.000000
-4.748600 0.000000
-4.735800 0.000000
-4.723000 0.000000
-4.710200 0.000000
-4.697400 0.000000
-4.684600 0.000000
-4.671800 0.000000
-4.659000 0.000000
-4.646200 0.000000
-4.633400 0.000000
-4.620600 0.000000
-4.607800 0.000000
-4.595000 0.000000
-4.582200 0.000000
-4.569400 0.000000
-4.556600 0.000000
-4.543800 0.000000
-4.530900 0.000000
-4.518100 0.000000
-4.505300 0.000000
-4.492500 0.000000
-4.479700 0.000000
-4.466900 0.000000
-4.454100 0.000000
-4.441300 0.000000
-4.428500 0.000000
-4.415700 0.000000
-4.402900 0.000000
-4.390100 0.000000
-4.377300 0.000000
-4.364500 0.000000
-4.351700 0.000000
-4.338900 0.000000
-4.326100 0.000000
-4.313300 0.000000
-4.300500 0.000000
-4.287700 0.000000
-4.274900 0.000000
-4.262100 0.000000
-4.249300 0.000000
-4.236400 0.000000
-4.223600 0.000000
-4.210800 0.000000
-4.198000 0.000000
-4.185200 0.000000
-4.172400 0.000000
-4.159600 0.000000
-4.146800 0.000000
-4.134000 0.000000
-4.121200 0.000000
-4.108400 0.000000
-4.095600 0.000000
-4.082800 0.000000
-4.070000 0.000000
-4.057200 0.000000
-4.044400 0.000000
-4.031600 0.000000
-4.018800 0.000000
-4.006000 0.000000
-3.993200 0.000000
-3.980400 0.000000
-3.967600 0.000000
-3.954700 0.000000
-3.941900 0.000000
-3.929100 0.000000
-3.916300 0.000000
-3.903500 0.000000
-3.890700 0.000000
-3.877900 0.000000
-3.865100 0.000000
-3.852300 0.000000
-3.839500 0.000000
-3.826700 0.000000
-3.813900 0.000000
-3.801100 0.000000
-3.788300 0.000000
-3.775500 0.000000
-3.762700 0.000000
-3.749900 0.000000
-3.737100 0.000000
-3.724300 0.000000
-3.711500 0.000000
-3.698700 0.000000
-3.685900 0.000000
-3.673000 0.000000
-3.660200 0.000000
-3.647400 0.000000
-3.634600 0.000000
-3.621800 0.000000
-3.609000 0.000000
-3.596200 0.000000
-3.583400 0.000000
-3.570600 0.000000
-3.557800 0.000000
-3.545000 0.000000
-3.532200 0.000000
-3.519400 0.000000
-3.506600 0.000000
-3.493800 0.000000
-3.481000 0.000000
-3.468200 0.000000
-3.455400 0.000000
-3.442600 0.000000
-3.429800 0.000000
-3.417000 0.000000
-3.404200 0.000000
-3.391300 0.000000
-3.378500 0.000000
-3.365700 0.000000
-3.352900 0.000000
-3.340100 0.000000
-3.327300 0.000000
-3.314500 0.000000
-3.301700 0.000000
-3.288900 0.000000
-3.276100 0.000000
-3.263300 0.000000
-3.250500 0.000000
-3.237700 0.000000
-3.224900 0.000000
-3.212100 0.000000
-3.199300 0.000000
-3.186500 0.000000
-3.173700 0.000000
-3.160900 0.000000
-3.148100 0.000000
-3.135300 0.000000
-3.122500 0.000000
-3.109600 0.000000
-3.096800 0.000000
-3.084000 0.000000
-3.071200 0.000000
-3.058400 0.000000
-3.045600 0.000000
-3.032800 0.000000
-3.020000 0.000000
-3.007200 0.000000
-2.994400 0.000000
-2.981600 0.000000
-2.968800 0.000000
-2.956000 0.000000
-2.943200 0.000000
-2.930400 0.000000
-2.917600 0.000000
-2.904800 0.000000
-2.892000 0.000000
-2.879200 0.000000
-2.866400 0.000000
-2.853600 0.000000
-2.840800 0.000000
-2.827900 0.000000
-2.815100 0.000000
-2.802300 0.000000
-2.789500 0.000000
-2.776700 0.000000
-2.763900 0.000000
-2.751100 0.000000
-2.738300 0.000000
-2.725500 0.000000
-2.712700 0.000000
-2.699900 0.000000
-2.687100 0.000000
-2.674300 0.000000
-2.661500 0.000000
-2.648700 0.000000
-2.635900 0.000000
-2.623100 0.586200
-2.610300 0.436200
-2.597500 0.493000
-2.584700 0.549700
-2.571900 0.606500
-2.559100 0.663200
-2.546300 0.720000
-2.533400 0.776700
-2.520600 0.833500
-2.507800 0.813300
-2.495000 0.693700
-2.482200 0.918600
-2.469400 0.890300
-2.456600 0.862600
-2.443800 0.835500
-2.431000 0.813300
-2.418200 0.845500
-2.405400 0.914100
-2.392600 1.016300
-2.379800 1.121200
-2.367000 1.225900
-2.354200 1.375000
-2.341400 2.098400
-2.328600 2.080300
-2.315800 2.281200
-2.303000 2.230300
-2.290200 2.486500
-2.277400 2.006500
-2.264600 1.971900
-2.251700 1.885800
-2.238900 1.623400
-2.226100 1.493800
-2.213300 1.415900
-2.200500 1.352000
-2.187700 1.296600
-2.174900 1.248100
-2.162100 1.206200
-2.149300 1.171400
-2.136500 1.145600
-2.123700 1.120200
-2.110900 1.094900
-2.098100 1.069500
-2.085300 1.044200
-2.072500 1.020200
-2.059700 0.997900
-2.046900 0.977300
-2.034100 0.958700
-2.021300 0.942000
-2.008500 0.926600
-1.995700 0.911700
-1.982900 0.897400
-1.970000 0.883700
-1.957200 0.870400
-1.944400 0.857000
-1.931600 0.843300
-1.918800 0.828900
-1.906000 0.813300
-1.893200 0.796400
-1.880400 0.779500
-1.867600 0.766100
-1.854800 0.758300
-1.842000 0.751500
-1.829200 0.745300
-1.816400 0.739300
-1.803600 0.733700
-1.790800 0.728300
-1.778000 0.723200
-1.765200 0.718600
-1.752400 0.714000
-1.739600 0.709500
-1.726800 0.705000
-1.714000 0.700400
-1.701200 0.695900
-1.688300 0.691300
-1.675500 0.686800
-1.662700 0.682300
-1.649900 0.677700
-1.637100 0.673300
-1.624300 0.669200
-1.611500 0.665200
-1.598700 0.661400
-1.585900 0.658000
-1.573100 0.654800
-1.560300 0.651700
-1.547500 0.648700
-1.534700 0.645800
-1.521900 0.643000
-1.509100 0.640300
-1.496300 0.638300
-1.483500 0.636000
-1.470700 0.633400
-1.457900 0.630100
-1.445100 0.628100
-1.432300 0.626400
-1.419500 0.624800
-1.406600 0.623100
-1.393800 0.621500
-1.381000 0.619800
-1.368200 0.618600
-1.355400 0.617700
-1.342600 0.617100
-1.329800 0.616700
-1.317000 0.616600
-1.304200 0.616700
-1.291400 0.617000
-1.278600 0.617600
-1.265800 0.618600
-1.253000 0.619700
-1.240200 0.620700
-1.227400 0.621700
-1.214600 0.622800
-1.201800 0.624300
-1.189000 0.628100
-1.176200 0.633400
-1.163400 0.639700
-1.150600 0.647700
-1.137800 0.656800
-1.125000 0.664000
-1.112100 0.670500
-1.099300 0.676900
-1.086500 0.683400
-1.073700 0.689500
-1.060900 0.695000
-1.048100 0.699900
-1.035300 0.704500
-1.022500 0.708400
-1.009700 0.712100
-0.996900 0.744700
-0.984100 0.828600
-0.971300 0.907700
-0.958500 0.998000
-0.945700 1.098200
-0.932900 1.217700
-0.920100 1.324800
-0.907300 1.438000
-0.894500 1.611500
-0.881700 2.055800
-0.868900 2.075900
-0.856100 1.865800
-0.843300 1.527300
-0.830400 1.251500
-0.817600 1.173500
-0.804800 1.148300
-0.792000 1.123200
-0.779200 1.097400
-0.766400 1.065100
-0.753600 1.030600
-0.740800 0.992700
-0.728000 0.948700
-0.715200 0.901000
-0.702400 0.866400
-0.689600 0.837900
-0.676800 0.812600
-0.664000 0.788700
-0.651200 0.766300
-0.638400 0.745500
-0.625600 0.726700
-0.612800 0.710300
-0.600000 0.694200
-0.587200 0.682800
-0.574400 0.676100
-0.561600 0.682000
-0.548700 0.697100
-0.535900 0.719200
-0.523100 0.693300
-0.510300 0.677500
-0.497500 0.656300
-0.484700 0.618200
-0.471900 0.580400
-0.459100 0.542900
-0.446300 0.529600
-0.433500 0.542300
-0.420700 1.075200
-0.407900 0.000000
-0.395100 0.000000
-0.382300 0.000000
-0.369500 0.000000
-0.356700 0.000000
-0.343900 0.000000
-0.331100 0.000000
-0.318300 0.000000
-0.305500 0.000000
-0.292700 0.000000
-0.279900 0.000000
-0.267000 0.000000
-0.254200 0.000000
-0.241400 0.000000
-0.228600 0.000000
-0.215800 0.000000
-0.203000 0.000000
-0.190200 0.000000
-0.177400 0.000000
-0.164600 0.000000
-0.151800 0.000000
-0.139000 0.000000
-0.126200 0.000000
-0.113400 0.000000
-0.100600 0.000000
-0.087800 0.000000
-0.075000 0.000000
-0.062200 0.000000
-0.049400 0.000000
-0.036600 0.000000
-0.023800 0.000000
-0.011000 0.000000
0.001800 0.000000
0.014700 0.000000
0.027500 0.000000
0.040300 0.000000
0.053100 0.461600
0.065900 0.304100
0.078700 0.370300
0.091500 0.411900
0.104300 0.474900
0.117100 0.547500
0.129900 0.626000
0.142700 0.712700
0.155500 0.805400
0.168300 0.882100
0.181100 0.948200
0.193900 1.138100
0.206700 1.147000
0.219500 1.111400
0.232300 1.146300
0.245100 1.179700
0.257900 1.210600
0.270700 1.238900
0.283500 1.263100
0.296400 1.281100
0.309200 1.294300
0.322000 1.281400
0.334800 1.301400
0.347600 1.323900
0.360400 1.348200
0.373200 1.377300
0.386000 1.408800
0.398800 1.442200
0.411600 1.477900
0.424400 1.515800
0.437200 1.556100
0.450000 1.598000
0.462800 1.641000
0.475600 1.687400
0.488400 1.738000
0.501200 1.870100
0.514000 2.040200
0.526800 2.129400
0.539600 2.197200
0.552400 2.232700
0.565200 2.243300
0.578000 2.234400
0.590900 2.204600
0.603700 2.180400
0.616500 2.161400
0.629300 2.168300
0.642100 2.051600
0.654900 1.929600
0.667700 1.786700
0.680500 1.628800
0.693300 1.498500
0.706100 1.396300
0.718900 1.327800
0.731700 1.285300
0.744500 1.251800
0.757300 1.227700
0.770100 1.204900
0.782900 1.188800
0.795700 1.149900
0.808500 1.111800
0.821300 1.063600
0.834100 1.033000
0.846900 1.002800
0.859700 0.973100
0.872600 0.943200
0.885400 0.906800
0.898200 0.869200
0.911000 0.908600
0.923800 0.896500
0.936600 0.913500
0.949400 0.811600
0.962200 0.814600
0.975000 0.823400
0.987800 0.839100
1.000600 0.856800
1.013400 0.876500
1.026200 0.897600
1.039000 0.920200
1.051800 0.944300
1.064600 0.969900
1.077400 1.029300
1.090200 1.071400
1.103000 1.109100
1.115800 1.062500
1.128600 1.072400
1.141400 1.081700
1.154300 1.090300
1.167100 1.098100
1.179900 1.104900
1.192700 1.110500
1.205500 1.114700
1.218300 1.117600
1.231100 1.118900
1.243900 1.116800
1.256700 1.111000
1.269500 1.102400
1.282300 1.092100
1.295100 1.088100
1.307900 1.172900
1.320700 1.188000
1.333500 1.184000
1.346300 1.197300
1.359100 1.211300
1.371900 1.227300
1.384700 1.250800
1.397500 1.278000
1.410300 1.314300
1.423100 1.415800
1.436000 1.482500
1.448800 1.411200
1.461600 1.407400
1.474400 1.401200
1.487200 1.406200
1.500000 1.445100
1.512800 1.510100
1.525600 1.602800
1.538400 1.714900
1.551200 1.715400
1.564000 1.712500
1.576800 1.708900
1.589600 1.692300
1.602400 1.660300
1.615200 1.632300
1.628000 1.619600
1.640800 1.611000
1.653600 1.603000
1.666400 1.596500
1.679200 1.592000
1.692000 1.590000
1.704800 1.589900
1.717700 1.591900
1.730500 1.591900
1.743300 1.590400
1.756100 1.587800
1.768900 1.589000
1.781700 1.593700
1.794500 1.600100
1.807300 1.611600
1.820100 1.637800
1.832900 1.652500
1.845700 1.660300
1.858500 1.677700
1.871300 1.702300
1.884100 1.722100
1.896900 1.742800
1.909700 1.766000
1.922500 1.792700
1.935300 1.823700
1.948100 1.861700
1.960900 1.901500
1.973700 1.941000
1.986500 1.982000
1.999400 2.083400
2.012200 2.276700
2.025000 2.540100
2.037800 2.482800
2.050600 2.471200
2.063400 2.472000
2.076200 2.462300
2.089000 2.451900
2.101800 2.435400
2.114600 2.445900
2.127400 2.486000
2.140200 2.563000
2.153000 2.589200
2.165800 2.619300
2.178600 2.675500
2.191400 2.738400
2.204200 2.711000
2.217000 2.641600
2.229800 2.562600
2.242600 2.481100
2.255400 2.435000
2.268200 2.402800
2.281000 2.372800
2.293900 2.344200
2.306700 2.321600
2.319500 2.304800
2.332300 2.291300
2.345100 2.280900
2.357900 2.269900
2.370700 2.257900
2.383500 2.246700
2.396300 2.238400
2.409100 2.232000
2.421900 2.226200
2.434700 2.226500
2.447500 2.239500
2.460300 2.255400
2.473100 2.363600
2.485900 2.404600
2.498700 2.458300
2.511500 2.467100
2.524300 2.435500
2.537100 2.402000
2.549900 2.369500
2.562700 2.326800
2.575600 2.280800
2.588400 2.240500
2.601200 2.205800
2.614000 2.176900
2.626800 2.152400
2.639600 2.128400
2.652400 2.105700
2.665200 2.086400
2.678000 2.069500
2.690800 2.061000
2.703600 2.062900
2.716400 2.070200
2.729200 2.079400
2.742000 2.015800
2.754800 1.953900
2.767600 1.862500
2.780400 1.734400
2.793200 1.683200
2.806000 1.629900
2.818800 1.578300
2.831600 1.537000
2.844400 1.503900
2.857300 1.484400
2.870100 1.524600
2.882900 1.600400
2.895700 1.577200
2.908500 1.599500
2.921300 1.636700
2.934100 1.674600
2.946900 1.590500
2.959700 1.537000
2.972500 1.482300
2.985300 1.432000
2.998100 1.396000
3.010900 1.380300
3.023700 1.383900
3.036500 1.384400
3.049300 1.395800
3.062100 1.396600
3.074900 1.394600
3.087700 1.387700
3.100500 1.377100
3.113300 1.362800
3.126100 1.344800
3.139000 1.305700
3.151800 1.250200
3.164600 1.234100
3.177400 1.269800
3.190200 1.416000
3.203000 1.634400
3.215800 1.742700
3.228600 1.569700
3.241400 1.426800
3.254200 1.435400
3.267000 1.443800
3.279800 1.454600
3.292600 1.467400
3.305400 1.482800
3.318200 1.500800
3.331000 1.521700
3.343800 1.546100
3.356600 1.569800
3.369400 1.578900
3.382200 1.589000
3.395000 1.602700
3.407800 1.618700
3.420700 1.636100
3.433500 1.655100
3.446300 1.683900
3.459100 1.719400
3.471900 1.747500
3.484700 1.775100
3.497500 1.786600
3.510300 1.798300
3.523100 1.808300
3.535900 1.820200
3.548700 1.835600
3.561500 1.849300
3.574300 1.889500
3.587100 1.906100
3.599900 1.930300
3.612700 1.956400
3.625500 1.989000
3.638300 2.044700
3.651100 2.104200
3.663900 2.149700
3.676700 2.213200
3.689500 2.367200
3.702400 2.473500
3.715200 2.600500
3.728000 2.749200
3.740800 3.135800
3.753600 3.043600
3.766400 3.056400
3.779200 3.033700
3.792000 2.997900
3.804800 2.965000
3.817600 2.959100
3.830400 2.943100
3.843200 2.925100
3.856000 2.938800
3.868800 2.944300
3.881600 2.972100
3.894400 3.014500
3.907200 3.058400
3.920000 3.110300
3.932800 3.138900
3.945600 3.078500
3.958400 2.981300
3.971200 2.937900
3.984000 2.889800
3.996900 2.842000
4.009700 2.806700
4.022500 2.790500
4.035300 2.792100
4.048100 2.834200
4.060900 2.819900
4.073700 2.787700
4.086500 2.756300
4.099300 2.745900
4.112100 2.774400
4.124900 2.862100
4.137700 2.925600
4.150500 2.941600
4.163300 2.939300
4.176100 2.821000
4.188900 2.727500
4.201700 2.504200
4.214500 2.337800
4.227300 2.261500
4.240100 2.272400
4.252900 2.294900
4.265700 2.282500
4.278600 2.249800
4.291400 2.242300
4.304200 2.213300
4.317000 2.252800
4.329800 2.291400
4.342600 2.330900
4.355400 2.419500
4.368200 2.505900
4.381000 2.581000
4.393800 2.650400
4.406600 2.582000
4.419400 2.654800
4.432200 2.741200
