set title 'mp-16220 - Density of States'
set xlabel 'Energy (eV)'
set ylabel 'DOS (states/eV)'
set grid
set xrange [-10:10]
set yrange [0:262.319]
set xzeroaxis lt -1
set terminal png size 800,600
set output 'mp-16220_dos_gnuplot.png'
plot '-' using 1:2 with lines title 'DOS'
-8.532600 0.000000
-8.522200 0.000000
-8.511800 0.000000
-8.501400 0.000000
-8.491000 0.000000
-8.480600 0.000000
-8.470200 0.000000
-8.459800 0.000000
-8.449400 0.000000
-8.439000 0.000000
-8.428600 0.000000
-8.418200 0.000000
-8.407800 0.000000
-8.397400 0.000000
-8.387000 0.000000
-8.376600 0.000000
-8.366200 0.000000
-8.355800 0.000000
-8.345400 0.000000
-8.335000 0.000000
-8.324600 0.000000
-8.314200 0.000000
-8.303800 0.000000
-8.293400 0.000000
-8.283000 0.000000
-8.272700 0.000000
-8.262300 0.000000
-8.251900 0.000000
-8.241500 0.000000
-8.231100 0.000000
-8.220700 0.000000
-8.210300 0.000000
-8.199900 0.000000
-8.189500 0.000000
-8.179100 0.000000
-8.168700 0.000000
-8.158300 0.000000
-8.147900 0.000000
-8.137500 0.000000
-8.127100 0.000000
-8.116700 0.000000
-8.106300 0.000000
-8.095900 0.000000
-8.085500 0.000000
-8.075100 0.000000
-8.064700 0.000000
-8.054300 0.000000
-8.043900 0.000000
-8.033500 0.000000
-8.023100 0.000000
-8.012700 0.000000
-8.002300 0.000000
-7.991900 0.000000
-7.981500 0.000000
-7.971100 0.000000
-7.960700 0.000000
-7.950300 0.000000
-7.939900 0.000000
-7.929500 0.000000
-7.919100 0.000000
-7.908700 0.000000
-7.898300 0.000000
-7.887900 0.000000
-7.877500 0.000000
-7.867100 0.000000
-7.856700 0.000000
-7.846300 0.000000
-7.835900 0.000000
-7.825500 0.000000
-7.815100 0.000000
-7.804700 0.000000
-7.794300 0.000000
-7.783900 0.000000
-7.773500 0.000000
-7.763100 0.000000
-7.752700 0.000000
-7.742300 0.000000
-7.731900 0.000000
-7.721500 0.000000
-7.711100 0.000000
-7.700700 0.000000
-7.690300 0.000000
-7.679900 0.000000
-7.669500 0.000000
-7.659100 0.000000
-7.648700 0.000000
-7.638300 0.000000
-7.627900 0.000000
-7.617500 0.000000
-7.607100 0.000000
-7.596700 0.000000
-7.586300 0.000100
-7.575900 0.018500
-7.565500 0.068100
-7.555100 0.148800
-7.544700 0.260700
-7.534300 0.403800
-7.523900 0.578000
-7.513500 0.783300
-7.503100 1.019900
-7.492700 1.287600
-7.482300 1.586400
-7.471900 1.916400
-7.461500 2.277500
-7.451100 2.669900
-7.440700 3.093300
-7.430300 3.548000
-7.419900 3.979300
-7.409500 4.297600
-7.399100 4.647500
-7.388700 5.029000
-7.378300 5.442100
-7.367900 5.886800
-7.357500 6.411700
-7.347200 7.142400
-7.336800 7.768200
-7.326400 8.289100
-7.316000 8.704900
-7.305600 9.015700
-7.295200 9.221600
-7.284800 9.322400
-7.274400 9.318300
-7.264000 9.209200
-7.253600 8.995100
-7.243200 8.676000
-7.232800 8.251900
-7.222400 7.722800
-7.212000 7.088800
-7.201600 6.349700
-7.191200 5.505700
-7.180800 0.000000
-7.170400 0.000000
-7.160000 0.000000
-7.149600 0.000000
-7.139200 0.000000
-7.128800 0.000000
-7.118400 0.000000
-7.108000 0.000000
-7.097600 0.000000
-7.087200 0.000000
-7.076800 0.000000
-7.066400 0.000000
-7.056000 0.000000
-7.045600 0.000000
-7.035200 0.000000
-7.024800 0.000000
-7.014400 0.000000
-7.004000 0.000000
-6.993600 0.000000
-6.983200 0.000000
-6.972800 0.000000
-6.962400 0.000000
-6.952000 5.394700
-6.941600 7.583500
-6.931200 9.372700
-6.920800 10.762300
-6.910400 11.752300
-6.900000 12.342700
-6.889600 12.533500
-6.879200 12.324600
-6.868800 11.716200
-6.858400 10.708100
-6.848000 9.356300
-6.837600 8.406700
-6.827200 7.513200
-6.816800 11.351100
-6.806400 10.819300
-6.796000 10.311400
-6.785600 9.827300
-6.775200 9.367200
-6.764800 8.930900
-6.754400 8.518600
-6.744000 8.130100
-6.733600 7.765500
-6.723200 7.424900
-6.712800 7.108100
-6.702400 6.873600
-6.692000 6.698500
-6.681600 6.493200
-6.671200 6.257700
-6.660800 5.992000
-6.650400 5.696000
-6.640000 5.369900
-6.629600 5.013500
-6.619200 6.498500
-6.608800 9.300600
-6.598400 12.573300
-6.588000 16.316700
-6.577600 20.530600
-6.567200 25.215200
-6.556800 12.451900
-6.546400 12.399700
-6.536000 12.308600
-6.525600 12.178800
-6.515200 12.010100
-6.504800 11.802500
-6.494400 11.556100
-6.484000 11.270800
-6.473600 10.946700
-6.463200 10.583800
-6.452800 10.182000
-6.442400 9.741400
-6.432000 9.261900
-6.421600 8.743600
-6.411300 8.186400
-6.400900 7.590400
-6.390500 6.955500
-6.380100 6.281800
-6.369700 3.477500
-6.359300 1.427100
-6.348900 0.275000
-6.338500 0.000000
-6.328100 0.000000
-6.317700 0.000000
-6.307300 0.000000
-6.296900 0.000000
-6.286500 0.000000
-6.276100 0.000000
-6.265700 0.000000
-6.255300 0.000000
-6.244900 0.000000
-6.234500 0.389200
-6.224100 0.950700
-6.213700 1.683500
-6.203300 2.587800
-6.192900 3.663500
-6.182500 4.910600
-6.172100 6.329100
-6.161700 7.919000
-6.151300 9.680400
-6.140900 11.613100
-6.130500 13.717300
-6.120100 15.992900
-6.109700 18.439900
-6.099300 24.157100
-6.088900 31.944600
-6.078500 25.033400
-6.068100 5.261400
-6.057700 5.856700
-6.047300 6.366600
-6.036900 6.791100
-6.026500 7.130200
-6.016100 7.384000
-6.005700 7.552300
-5.995300 7.635200
-5.984900 7.632800
-5.974500 7.544900
-5.964100 7.371700
-5.953700 7.113100
-5.943300 6.769000
-5.932900 6.722800
-5.922500 7.152900
-5.912100 7.660600
-5.901700 8.090900
-5.891300 8.443800
-5.880900 8.719100
-5.870500 8.917100
-5.860100 9.037500
-5.849700 9.080500
-5.839300 9.046100
-5.828900 8.934100
-5.818500 8.744800
-5.808100 8.477900
-5.797700 2.095100
-5.787300 3.022300
-5.776900 3.866100
-5.766500 4.626800
-5.756100 5.304100
-5.745700 5.898100
-5.735300 6.408800
-5.724900 6.836400
-5.714500 7.185400
-5.704100 7.459300
-5.693700 7.658100
-5.683300 7.781700
-5.672900 7.830100
-5.662500 7.803400
-5.652100 7.701500
-5.641700 12.483600
-5.631300 11.433600
-5.620900 10.441900
-5.610500 9.508400
-5.600100 8.633100
-5.589700 7.816100
-5.579300 7.057200
-5.568900 6.356700
-5.558500 5.714300
-5.548100 5.130200
-5.537700 4.604300
-5.527300 4.136600
-5.516900 3.727200
-5.506500 3.376000
-5.496100 3.083000
-5.485700 2.848300
-5.475400 2.671700
-5.465000 2.560300
-5.454600 2.768300
-5.444200 2.984500
-5.433800 3.208800
-5.423400 3.441200
-5.413000 3.681700
-5.402600 3.930400
-5.392200 4.187200
-5.381800 4.452100
-5.371400 4.725200
-5.361000 238.471500
-5.350600 48.275900
-5.340200 52.943800
-5.329800 37.541400
-5.319400 0.000000
-5.309000 0.000000
-5.298600 0.000000
-5.288200 0.000000
-5.277800 0.000000
-5.267400 0.000000
-5.257000 0.000000
-5.246600 0.000000
-5.236200 0.000000
-5.225800 0.000000
-5.215400 0.000000
-5.205000 0.000000
-5.194600 0.000000
-5.184200 0.000000
-5.173800 0.000000
-5.163400 0.000000
-5.153000 0.000000
-5.142600 0.000000
-5.132200 0.000000
-5.121800 0.000000
-5.111400 0.000000
-5.101000 0.000000
-5.090600 0.016700
-5.080200 0.066900
-5.069800 0.150500
-5.059400 0.267600
-5.049000 0.418000
-5.038600 0.601900
-5.028200 0.819200
-5.017800 1.069900
-5.007400 1.354100
-4.997000 1.671700
-4.986600 2.022700
-4.976200 2.407200
-4.965800 24.494300
-4.955400 18.769300
-4.945000 18.809500
-4.934600 16.845200
-4.924200 14.987000
-4.913800 13.234700
-4.903400 11.588500
-4.893000 10.048200
-4.882600 8.614000
-4.872200 7.285800
-4.861800 6.063600
-4.851400 5.028100
-4.841000 4.349200
-4.830600 4.032300
-4.820200 4.077400
-4.809800 4.484500
-4.799400 5.253600
-4.789000 6.384700
-4.778600 7.877800
-4.768200 9.695600
-4.757800 10.694000
-4.747400 10.656600
-4.737000 10.001200
-4.726600 9.828100
-4.716200 10.064800
-4.705800 10.711000
-4.695400 11.677600
-4.685000 12.542600
-4.674600 13.299400
-4.664200 13.948200
-4.653800 14.488800
-4.643400 14.921400
-4.633000 15.245900
-4.622600 15.462200
-4.612200 15.570500
-4.601800 15.570700
-4.591400 15.462800
-4.581000 15.246800
-4.570600 14.922700
-4.560200 14.490500
-4.549900 13.950200
-4.539500 13.301800
-4.529100 12.545300
-4.518700 11.680700
-4.508300 10.708000
-4.497900 6.461300
-4.487500 6.045600
-4.477100 5.580700
-4.466700 5.066700
-4.456300 1.200300
-4.445900 1.263000
-4.435500 1.327300
-4.425100 16.378900
-4.414700 26.396000
-4.404300 31.903700
-4.393900 32.902000
-4.383500 29.390900
-4.373100 20.123800
-4.362700 9.054500
-4.352300 2.285200
-4.341900 0.000000
-4.331500 0.000000
-4.321100 0.000000
-4.310700 0.000000
-4.300300 0.000000
-4.289900 0.000000
-4.279500 0.000000
-4.269100 0.000000
-4.258700 0.000000
-4.248300 0.000000
-4.237900 0.000000
-4.227500 0.000000
-4.217100 0.000000
-4.206700 0.000000
-4.196300 0.000000
-4.185900 0.000000
-4.175500 0.100200
-4.165100 1.307400
-4.154700 3.068400
-4.144300 5.383200
-4.133900 8.251700
-4.123500 11.674000
-4.113100 15.650100
-4.102700 20.180000
-4.092300 25.263700
-4.081900 30.901200
-4.071500 2.094400
-4.061100 4.238700
-4.050700 6.184700
-4.040300 7.932400
-4.029900 9.481900
-4.019500 10.833100
-4.009100 11.986100
-3.998700 12.940900
-3.988300 13.697400
-3.977900 14.255600
-3.967500 14.615600
-3.957100 17.543500
-3.946700 20.208500
-3.936300 21.832300
-3.925900 22.414700
-3.915500 21.955800
-3.905100 5.167700
-3.894700 5.955700
-3.884300 6.854400
-3.873900 7.863700
-3.863500 8.983500
-3.853100 10.213900
-3.842700 11.554900
-3.832300 13.006500
-3.821900 14.568700
-3.811500 16.241400
-3.801100 12.382900
-3.790700 13.359100
-3.780300 13.655500
-3.769900 13.272200
-3.759500 12.209200
-3.749100 10.466500
-3.738700 7.429900
-3.728300 1.762900
-3.717900 0.000000
-3.707500 0.000000
-3.697100 0.000000
-3.686700 0.000000
-3.676300 0.000000
-3.665900 0.000000
-3.655500 0.000000
-3.645100 0.000000
-3.634700 0.000000
-3.624300 0.000000
-3.614000 0.000000
-3.603600 0.000000
-3.593200 0.000000
-3.582800 0.000000
-3.572400 0.000000
-3.562000 0.000000
-3.551600 0.000000
-3.541200 0.000000
-3.530800 0.000000
-3.520400 14.672000
-3.510000 14.549000
-3.499600 13.947700
-3.489200 12.868300
-3.478800 11.310700
-3.468400 9.274900
-3.458000 7.322300
-3.447600 7.185400
-3.437200 7.042000
-3.426800 6.892000
-3.416400 12.246500
-3.406000 12.789800
-3.395600 13.237600
-3.385200 13.590000
-3.374800 16.182000
-3.364400 16.998400
-3.354000 17.665800
-3.343600 18.184300
-3.333200 18.553900
-3.322800 18.774500
-3.312400 18.846300
-3.302000 18.769100
-3.291600 18.543000
-3.281200 18.168000
-3.270800 17.644100
-3.260400 16.492500
-3.250000 14.548100
-3.239600 13.539700
-3.229200 13.604800
-3.218800 14.728600
-3.208400 15.680800
-3.198000 15.477100
-3.187600 14.117300
-3.177200 11.601500
-3.166800 7.929600
-3.156400 5.174700
-3.146000 5.561000
-3.135600 5.816500
-3.125200 5.941100
-3.114800 5.935000
-3.104400 5.798000
-3.094000 5.530300
-3.083600 5.131700
-3.073200 4.602300
-3.062800 4.004200
-3.052400 3.445800
-3.042000 2.929000
-3.031600 2.453800
-3.021200 2.020300
-3.010800 1.628400
-3.000400 1.278200
-2.990000 0.969600
-2.979600 0.702600
-2.969200 0.477300
-2.958800 0.293600
-2.948400 0.151600
-2.938000 0.051200
-2.927600 0.064600
-2.917200 0.464100
-2.906800 0.931300
-2.896400 1.466200
-2.886000 2.068800
-2.875600 2.739100
-2.865200 3.477000
-2.854800 4.282700
-2.844400 5.156000
-2.834000 6.097000
-2.823600 7.105700
-2.813200 8.182100
-2.802800 9.326100
-2.792400 10.537800
-2.782000 11.817300
-2.771600 13.164400
-2.761200 8.384900
-2.750800 8.624100
-2.740400 8.762100
-2.730000 8.798900
-2.719600 8.734400
-2.709200 8.568700
-2.698800 8.301700
-2.688500 7.933500
-2.678100 14.142400
-2.667700 18.288600
-2.657300 20.491800
-2.646900 20.697300
-2.636500 18.290700
-2.626100 13.100500
-2.615700 9.858700
-2.605300 9.176000
-2.594900 8.519000
-2.584500 7.887700
-2.574100 7.282000
-2.563700 6.702000
-2.553300 6.147600
-2.542900 5.618900
-2.532500 5.115900
-2.522100 4.705500
-2.511700 5.233900
-2.501300 5.729000
-2.490900 6.190800
-2.480500 6.619300
-2.470100 7.014500
-2.459700 7.376400
-2.449300 7.705000
-2.438900 8.000200
-2.428500 8.262200
-2.418100 8.490900
-2.407700 8.686300
-2.397300 8.848300
-2.386900 9.046000
-2.376500 9.374100
-2.366100 10.194100
-2.355700 10.835200
-2.345300 11.297300
-2.334900 11.580400
-2.324500 11.684600
-2.314100 11.609700
-2.303700 11.355800
-2.293300 10.923000
-2.282900 10.311200
-2.272500 9.520300
-2.262100 1.062700
-2.251700 0.997000
-2.241300 0.933400
-2.230900 0.871900
-2.220500 2.456500
-2.210100 8.913400
-2.199700 18.357600
-2.189300 30.789100
-2.178900 46.207800
-2.168500 36.630900
-2.158100 26.591900
-2.147700 3.447200
-2.137300 3.124300
-2.126900 2.817400
-2.116500 2.526300
-2.106100 8.414500
-2.095700 9.291200
-2.085300 10.024800
-2.074900 10.615400
-2.064500 11.062800
-2.054100 11.367200
-2.043700 11.528400
-2.033300 11.546600
-2.022900 11.421600
-2.012500 11.153600
-2.002100 10.742400
-1.991700 10.188200
-1.981300 15.452800
-1.970900 18.587300
-1.960500 19.070000
-1.950100 19.347700
-1.939700 19.711100
-1.929300 19.981400
-1.918900 20.148600
-1.908500 20.100700
-1.898100 19.414000
-1.887700 18.554100
-1.877300 17.520900
-1.866900 16.314400
-1.856500 14.934600
-1.846100 13.381500
-1.835700 11.655200
-1.825300 15.163300
-1.814900 15.277200
-1.804500 10.362700
-1.794100 6.029300
-1.783700 3.748000
-1.773300 3.363600
-1.762900 3.361600
-1.752600 3.357800
-1.742200 3.352500
-1.731800 3.345400
-1.721400 3.336700
-1.711000 3.326300
-1.700600 3.314300
-1.690200 3.300600
-1.679800 3.285300
-1.669400 3.268300
-1.659000 3.249600
-1.648600 3.229200
-1.638200 3.207300
-1.627800 3.183600
-1.617400 3.158300
-1.607000 3.131300
-1.596600 3.102600
-1.586200 3.109000
-1.575800 3.131400
-1.565400 3.145200
-1.555000 3.150500
-1.544600 3.147200
-1.534200 3.165100
-1.523800 3.733100
-1.513400 4.409600
-1.503000 5.194600
-1.492600 6.088100
-1.482200 7.090000
-1.471800 8.200400
-1.461400 9.419300
-1.451000 10.746700
-1.440600 12.182500
-1.430200 13.726800
-1.419800 15.379500
-1.409400 17.140800
-1.399000 19.010500
-1.388600 12.839100
-1.378200 13.080800
-1.367800 13.201800
-1.357400 13.202200
-1.347000 13.082000
-1.336600 12.841100
-1.326200 12.479600
-1.315800 11.997400
-1.305400 11.394600
-1.295000 10.671200
-1.284600 9.827100
-1.274200 8.862300
-1.263800 7.944300
-1.253400 7.196000
-1.243000 6.540400
-1.232600 5.965700
-1.222200 5.471900
-1.211800 5.059100
-1.201400 4.727300
-1.191000 4.476300
-1.180600 4.306300
-1.170200 4.217200
-1.159800 4.209000
-1.149400 4.255400
-1.139000 4.308100
-1.128600 4.366100
-1.118200 4.429300
-1.107800 4.498200
-1.097400 4.598200
-1.087000 4.744500
-1.076600 4.936900
-1.066200 5.175600
-1.055800 5.460500
-1.045400 5.791600
-1.035000 6.168900
-1.024600 6.592500
-1.014200 7.062200
-1.003800 7.578200
-0.993400 7.827000
-0.983000 7.825000
-0.972600 7.810200
-0.962200 7.782700
-0.951800 7.742300
-0.941400 7.689100
-0.931000 7.623200
-0.920600 7.544500
-0.910200 7.452900
-0.899800 7.348600
-0.889400 5.909000
-0.879000 6.054800
-0.868600 6.200100
-0.858200 6.344800
-0.847800 6.488900
-0.837400 6.632800
-0.827100 6.813300
-0.816700 7.055100
-0.806300 7.358300
-0.795900 7.722700
-0.785500 8.148400
-0.775100 8.635500
-0.764700 9.183800
-0.754300 9.793500
-0.743900 10.155200
-0.733500 10.372200
-0.723100 10.587700
-0.712700 11.395300
-0.702300 12.187000
-0.691900 12.889800
-0.681500 13.503400
-0.671100 14.028000
-0.660700 14.463600
-0.650300 14.810100
-0.639900 15.067500
-0.629500 15.235900
-0.619100 15.315200
-0.608700 15.305400
-0.598300 15.206600
-0.587900 8.367400
-0.577500 8.395200
-0.567100 8.401100
-0.556700 8.384800
-0.546300 8.346500
-0.535900 8.286200
-0.525500 8.203800
-0.515100 8.099300
-0.504700 7.972700
-0.494300 3.923900
-0.483900 3.982600
-0.473500 4.040400
-0.463100 4.097400
-0.452700 4.153600
-0.442300 4.208800
-0.431900 4.440500
-0.421500 5.000100
-0.411100 5.495500
-0.400700 5.926700
-0.390300 6.293600
-0.379900 6.596300
-0.369500 6.834800
-0.359100 7.009100
-0.348700 7.119100
-0.338300 7.164900
-0.327900 7.146500
-0.317500 7.063800
-0.307100 6.916900
-0.296700 3.397200
-0.286300 6.133800
-0.275900 8.370400
-0.265500 10.106900
-0.255100 11.343300
-0.244700 12.079600
-0.234300 12.315900
-0.223900 12.052000
-0.213500 11.288100
-0.203100 10.024100
-0.192700 13.132500
-0.182300 19.656300
-0.171900 24.016600
-0.161500 26.213300
-0.151100 26.246500
-0.140700 24.116200
-0.130300 27.376900
-0.119900 29.445300
-0.109500 26.063000
-0.099100 22.928000
-0.088700 20.044100
-0.078300 17.411200
-0.067900 15.029300
-0.057500 12.898500
-0.047100 11.028700
-0.036700 9.426700
-0.026300 8.092500
-0.015900 7.026100
-0.005500 6.279200
0.004900 6.114100
0.015300 6.002700
0.025700 5.871400
0.036100 5.730400
0.046500 5.996500
0.056900 6.256200
0.067300 6.509600
0.077700 6.756600
0.088100 6.997300
0.098500 7.231600
0.108800 7.459600
0.119200 7.681200
0.129600 7.896500
0.140000 8.105400
0.150400 8.307900
0.160800 8.504100
0.171200 8.694000
0.181600 8.877500
0.192000 9.054600
0.202400 9.225400
0.212800 9.389900
0.223200 9.548000
0.233600 9.699700
0.244000 9.845100
0.254400 9.984100
0.264800 10.116800
0.275200 10.243100
0.285600 10.363100
0.296000 10.476700
0.306400 10.667100
0.316800 15.328400
0.327200 16.982000
0.337600 15.628000
0.348000 11.775800
0.358400 2.623900
0.368800 3.518700
0.379200 4.306700
0.389600 4.987800
0.400000 5.563100
0.410400 6.037600
0.420800 6.412000
0.431200 6.686200
0.441600 6.860300
0.452000 6.934300
0.462400 6.908100
0.472800 6.781800
0.483200 6.555400
0.493600 9.434000
0.504000 8.926300
0.514400 8.443200
0.524800 7.984700
0.535200 7.550800
0.545600 7.141500
0.556000 6.756800
0.566400 6.396700
0.576800 6.061300
0.587200 5.750400
0.597600 5.464100
0.608000 5.202400
0.618400 4.965300
0.628800 4.752800
0.639200 4.565000
0.649600 4.401700
0.660000 4.263000
0.670400 4.148900
0.680800 9.965300
0.691200 18.673800
0.701600 23.772400
0.712000 27.848100
0.722400 30.900900
0.732800 32.930700
0.743200 33.937600
0.753600 33.921600
0.764000 32.917700
0.774400 30.967100
0.784800 27.975700
0.795200 22.776100
0.805600 17.450800
0.816000 12.887200
0.826400 9.085300
0.836800 6.045200
0.847200 28.224100
0.857600 37.381400
0.868000 27.292900
0.878400 21.231300
0.888800 16.835100
0.899200 12.938000
0.909600 48.259800
0.920000 42.316600
0.930400 34.488200
0.940800 24.774800
0.951200 15.007500
0.961600 7.627600
0.972000 3.015800
0.982400 0.340000
0.992800 0.631100
1.003200 2.789300
1.013600 6.461300
1.024000 9.372100
1.034300 10.346000
1.044700 11.147800
1.055100 11.777400
1.065500 12.235000
1.075900 12.520400
1.086300 12.633600
1.096700 12.574800
1.107100 12.343800
1.117500 11.940800
1.127900 11.762200
1.138300 11.949400
1.148700 12.371800
1.159100 13.029300
1.169500 13.922000
1.179900 15.049900
1.190300 12.949800
1.200700 17.964400
1.211100 25.143800
1.221500 34.007700
1.231900 38.605300
1.242300 37.471300
1.252700 30.819600
1.263100 12.823500
1.273500 13.464100
1.283900 14.468900
1.294300 15.806600
1.304700 17.477300
1.315100 19.480900
1.325500 21.817400
1.335900 24.486800
1.346300 27.489200
1.356700 30.824500
1.367100 34.492700
1.377500 38.204100
1.387900 40.430000
1.398300 40.951100
1.408700 39.761300
1.419100 36.823600
1.429500 32.132100
1.439900 22.677800
1.450300 17.247000
1.460700 16.863500
1.471100 16.318900
1.481500 15.613100
1.491900 14.746300
1.502300 13.718300
1.512700 12.529200
1.523100 8.707700
1.533500 9.157000
1.543900 9.648500
1.554300 10.182000
1.564700 10.757600
1.575100 11.918700
1.585500 12.682100
1.595900 12.742500
1.606300 12.035900
1.616700 10.167400
1.627100 7.069400
1.637500 2.741900
1.647900 6.940200
1.658300 19.429400
1.668700 21.747300
1.679100 20.397200
1.689500 17.418500
1.699900 15.022300
1.710300 13.506300
1.720700 12.870400
1.731100 13.102700
1.741500 13.580200
1.751900 13.950700
1.762300 14.214000
1.772700 14.370300
1.783100 14.419700
1.793500 14.371100
1.803900 14.229400
1.814300 13.994500
1.824700 13.666600
1.835100 13.245600
1.845500 12.731400
1.855900 12.124100
1.866300 11.423700
1.876700 6.738500
1.887100 6.855600
1.897500 6.968900
1.907900 7.078400
1.918300 7.184200
1.928700 7.286300
1.939100 7.384500
1.949500 7.479000
1.959900 7.569700
1.970200 7.656700
1.980600 7.739900
1.991000 7.819300
2.001400 10.347900
2.011800 20.498900
2.022200 26.611600
2.032600 25.803900
2.043000 27.884600
2.053400 27.084400
2.063800 26.113600
2.074200 24.972300
2.084600 23.660300
2.095000 26.340300
2.105400 38.003100
2.115800 38.886600
2.126200 35.868200
2.136600 35.198600
2.147000 31.014900
2.157400 27.137200
