set title 'mp-1219463 - Density of States'
set xlabel 'Energy (eV)'
set ylabel 'DOS (states/eV)'
set grid
set xrange [-10:10]
set yrange [0:3.555]
set xzeroaxis lt -1
set terminal png size 800,600
set output 'mp-1219463_dos_gnuplot.png'
plot '-' using 1:2 with lines title 'DOS'
-8.618600 0.000000
-8.592000 0.000000
-8.565400 0.000000
-8.538800 0.000000
-8.512200 0.000000
-8.485600 0.000000
-8.459000 0.000000
-8.432500 0.000000
-8.405900 0.000000
-8.379300 0.000000
-8.352700 0.000000
-8.326100 0.000000
-8.299500 0.000000
-8.272900 0.000000
-8.246300 0.000000
-8.219800 0.000000
-8.193200 0.000000
-8.166600 0.000000
-8.140000 0.000000
-8.113400 0.000000
-8.086800 0.000000
-8.060200 0.000000
-8.033600 0.000000
-8.007000 0.000000
-7.980500 0.000000
-7.953900 0.000000
-7.927300 0.000000
-7.900700 0.000000
-7.874100 0.000000
-7.847500 0.000000
-7.820900 0.000000
-7.794300 0.000000
-7.767800 0.000000
-7.741200 0.000000
-7.714600 0.000000
-7.688000 0.000000
-7.661400 0.000000
-7.634800 0.000000
-7.608200 0.000000
-7.581600 0.000000
-7.555100 0.000000
-7.528500 0.000000
-7.501900 0.000000
-7.475300 0.000000
-7.448700 0.000000
-7.422100 0.000000
-7.395500 0.000000
-7.368900 0.000000
-7.342300 0.000000
-7.315800 0.000000
-7.289200 0.000000
-7.262600 0.000000
-7.236000 0.000000
-7.209400 0.000000
-7.182800 0.000000
-7.156200 0.000000
-7.129600 0.000000
-7.103100 0.000000
-7.076500 0.000000
-7.049900 0.000000
-7.023300 0.000000
-6.996700 0.000000
-6.970100 0.000000
-6.943500 0.000000
-6.916900 0.000000
-6.890400 0.000000
-6.863800 0.000000
-6.837200 0.000000
-6.810600 0.000000
-6.784000 0.000000
-6.757400 0.000000
-6.730800 0.000000
-6.704200 0.000000
-6.677600 0.000000
-6.651100 0.000000
-6.624500 0.000000
-6.597900 0.000000
-6.571300 0.000000
-6.544700 0.000000
-6.518100 0.000000
-6.491500 0.000000
-6.464900 0.000000
-6.438400 0.000000
-6.411800 0.000000
-6.385200 0.000000
-6.358600 0.000000
-6.332000 0.000000
-6.305400 0.000000
-6.278800 0.000000
-6.252200 0.000000
-6.225700 0.000000
-6.199100 0.005600
-6.172500 0.068800
-6.145900 0.134700
-6.119300 0.158100
-6.092700 0.177200
-6.066100 0.198800
-6.039500 0.224000
-6.013000 0.250500
-5.986400 0.272200
-5.959800 0.289100
-5.933200 0.301600
-5.906600 0.313000
-5.880000 0.329000
-5.853400 0.346300
-5.826800 0.363900
-5.800200 0.381800
-5.773700 0.400000
-5.747100 0.415500
-5.720500 0.426600
-5.693900 0.439600
-5.667300 0.453000
-5.640700 0.466500
-5.614100 0.480500
-5.587500 0.495000
-5.561000 0.510000
-5.534400 0.525700
-5.507800 0.541700
-5.481200 0.558000
-5.454600 0.574000
-5.428000 0.589600
-5.401400 0.604800
-5.374800 0.620100
-5.348300 0.636300
-5.321700 0.653200
-5.295100 0.670700
-5.268500 0.688700
-5.241900 0.707000
-5.215300 0.725600
-5.188700 0.744800
-5.162100 0.765200
-5.135500 0.789100
-5.109000 0.815700
-5.082400 0.843600
-5.055800 0.873800
-5.029200 0.907600
-5.002600 0.956500
-4.976000 1.007100
-4.949400 1.034600
-4.922800 1.038800
-4.896300 1.081500
-4.869700 1.113100
-4.843100 1.122700
-4.816500 1.140200
-4.789900 1.164500
-4.763300 1.193300
-4.736700 1.220800
-4.710100 1.249600
-4.683600 1.279700
-4.657000 1.313900
-4.630400 1.363900
-4.603800 1.422600
-4.577200 1.492700
-4.550600 1.571700
-4.524000 1.664600
-4.497400 1.778400
-4.470800 1.933500
-4.444300 2.255400
-4.417700 2.461300
-4.391100 2.474300
-4.364500 2.799800
-4.337900 2.591200
-4.311300 2.773700
-4.284700 3.231800
-4.258100 2.088500
-4.231600 1.826800
-4.205000 1.604200
-4.178400 1.502300
-4.151800 1.179900
-4.125200 0.000000
-4.098600 0.000000
-4.072000 0.000000
-4.045400 0.000000
-4.018900 0.000000
-3.992300 0.000000
-3.965700 0.000000
-3.939100 0.000000
-3.912500 0.000000
-3.885900 0.000000
-3.859300 0.000000
-3.832700 0.000000
-3.806100 0.000000
-3.779600 0.000000
-3.753000 0.000000
-3.726400 0.000000
-3.699800 0.000000
-3.673200 0.000000
-3.646600 0.000000
-3.620000 0.000000
-3.593400 0.000000
-3.566900 0.000000
-3.540300 0.000000
-3.513700 0.000000
-3.487100 0.000000
-3.460500 0.000000
-3.433900 0.000000
-3.407300 0.000000
-3.380700 0.000000
-3.354200 0.000000
-3.327600 0.000000
-3.301000 0.000000
-3.274400 0.049200
-3.247800 0.062600
-3.221200 0.077100
-3.194600 0.092800
-3.168000 0.109700
-3.141400 0.127800
-3.114900 0.138800
-3.088300 0.144700
-3.061700 0.154500
-3.035100 0.163800
-3.008500 0.172500
-2.981900 0.180700
-2.955300 0.189000
-2.928700 0.199200
-2.902200 0.211300
-2.875600 0.224500
-2.849000 0.238800
-2.822400 0.254200
-2.795800 0.270400
-2.769200 0.283300
-2.742600 0.296000
-2.716000 0.308500
-2.689500 0.320600
-2.662900 0.333500
-2.636300 0.352400
-2.609700 0.394900
-2.583100 0.486000
-2.556500 0.618800
-2.529900 0.784600
-2.503300 0.985300
-2.476700 1.094300
-2.450200 1.224700
-2.423600 1.302400
-2.397000 1.388700
-2.370400 1.511400
-2.343800 1.518700
-2.317200 1.532500
-2.290600 1.548400
-2.264000 1.631700
-2.237500 1.732100
-2.210900 1.860200
-2.184300 2.160400
-2.157700 2.098000
-2.131100 2.025100
-2.104500 1.916800
-2.077900 1.746600
-2.051300 1.601300
-2.024800 1.486000
-1.998200 1.410900
-1.971600 1.371700
-1.945000 1.330200
-1.918400 1.296500
-1.891800 1.262700
-1.865200 1.218700
-1.838600 1.183600
-1.812000 1.156100
-1.785500 1.132000
-1.758900 1.117100
-1.732300 1.120000
-1.705700 1.100200
-1.679100 1.071200
-1.652500 1.043400
-1.625900 1.009600
-1.599300 0.977900
-1.572800 0.971400
-1.546200 1.034200
-1.519600 1.027800
-1.493000 0.913600
-1.466400 0.745700
-1.439800 0.643100
-1.413200 0.583300
-1.386600 0.562700
-1.360100 0.542600
-1.333500 0.523100
-1.306900 0.504100
-1.280300 0.485300
-1.253700 0.466700
-1.227100 0.447600
-1.200500 0.428300
-1.173900 0.408500
-1.147300 0.382900
-1.120800 0.364800
-1.094200 0.352400
-1.067600 0.340800
-1.041000 0.328900
-1.014400 0.316600
-0.987800 0.305700
-0.961200 0.297000
-0.934600 0.288400
-0.908100 0.280000
-0.881500 0.271600
-0.854900 0.263200
-0.828300 0.254700
-0.801700 0.246300
-0.775100 0.237800
-0.748500 0.229300
-0.721900 0.220800
-0.695400 0.211400
-0.668800 0.201900
-0.642200 0.193500
-0.615600 0.185900
-0.589000 0.178800
-0.562400 0.171900
-0.535800 0.165300
-0.509200 0.159100
-0.482700 0.153000
-0.456100 0.147000
-0.429500 0.141000
-0.402900 0.135100
-0.376300 0.129200
-0.349700 0.123800
-0.323100 0.118300
-0.296500 0.112700
-0.269900 0.107000
-0.243400 0.102400
-0.216800 0.098000
-0.190200 0.090300
-0.163600 0.081900
-0.137000 0.073700
-0.110400 0.065800
-0.083800 0.058200
-0.057200 0.051000
-0.030700 0.044000
-0.004100 0.037300
0.022500 0.066600
0.049100 0.000000
0.075700 0.000000
0.102300 0.000000
0.128900 0.000000
0.155500 0.000000
0.182000 0.000000
0.208600 0.000000
0.235200 0.000000
0.261800 0.000000
0.288400 0.000000
0.315000 0.000000
0.341600 0.000000
0.368200 0.000000
0.394800 0.000000
0.421300 0.000000
0.447900 0.000000
0.474500 0.000000
0.501100 0.000000
0.527700 0.000000
0.554300 0.000000
0.580900 0.000000
0.607500 0.000000
0.634000 0.000000
0.660600 0.000000
0.687200 0.000000
0.713800 0.000000
0.740400 0.000000
0.767000 0.000000
0.793600 0.000000
0.820200 0.000000
0.846700 0.000000
0.873300 0.000000
0.899900 0.000000
0.926500 0.000000
0.953100 0.000000
0.979700 0.000000
1.006300 0.000000
1.032900 0.000000
1.059500 0.000000
1.086000 0.000000
1.112600 0.000000
1.139200 0.000000
1.165800 0.000000
1.192400 0.045600
1.219000 0.091000
1.245600 0.137700
1.272200 0.196600
1.298700 0.238500
1.325300 0.292300
1.351900 0.312700
1.378500 0.300200
1.405100 0.303900
1.431700 0.324400
1.458300 0.353800
1.484900 0.389000
1.511400 0.428400
1.538000 0.466000
1.564600 0.520000
1.591200 0.513100
1.617800 0.498500
1.644400 0.491800
1.671000 0.505800
1.697600 0.531900
1.724200 0.557700
1.750700 0.583200
1.777300 0.608300
1.803900 0.633200
1.830500 0.659200
1.857100 0.688600
1.883700 0.732200
1.910300 0.932000
1.936900 0.792200
1.963400 0.787700
1.990000 0.765800
2.016600 0.774000
2.043200 0.776200
2.069800 0.777500
2.096400 0.801500
2.123000 0.826500
2.149600 0.849200
2.176100 0.860200
2.202700 0.874100
2.229300 0.892800
2.255900 0.913700
2.282500 0.936300
2.309100 0.960300
2.335700 1.005500
2.362300 1.161100
2.388900 1.338700
2.415400 1.454000
2.442000 1.552700
2.468600 1.664800
2.495200 1.737300
2.521800 1.760300
2.548400 1.769700
2.575000 1.743600
2.601600 1.724300
2.628100 1.713300
2.654700 1.688900
2.681300 1.580600
2.707900 1.559300
2.734500 1.553500
2.761100 1.551500
2.787700 1.555600
2.814300 1.560700
2.840800 1.566100
2.867400 1.574700
2.894000 1.589300
2.920600 1.587200
2.947200 1.556100
2.973800 1.537100
3.000400 1.526600
3.027000 1.516200
3.053600 1.508000
3.080100 1.510300
3.106700 1.613900
3.133300 1.627200
3.159900 1.665500
3.186500 1.703000
3.213100 1.837200
3.239700 1.927300
3.266300 1.838400
3.292800 1.712500
3.319400 1.741300
3.346000 1.645300
3.372600 1.576300
3.399200 1.530800
3.425800 1.508000
3.452400 1.473300
3.479000 1.349500
3.505500 1.257400
3.532100 1.205300
3.558700 1.155700
3.585300 1.109400
3.611900 1.066900
3.638500 1.028900
3.665100 0.997600
3.691700 1.027000
3.718300 1.148200
3.744800 1.299200
3.771400 1.496800
3.798000 1.469800
3.824600 1.433100
3.851200 1.428900
3.877800 1.434400
3.904400 1.445100
3.931000 1.457100
3.957500 1.464100
3.984100 1.465500
4.010700 1.460900
4.037300 1.453700
4.063900 1.444900
4.090500 1.436700
4.117100 1.427700
4.143700 1.423000
4.170200 1.423500
4.196800 1.423900
4.223400 1.424300
4.250000 1.423700
4.276600 1.426500
4.303200 1.427900
4.329800 1.429400
4.356400 1.433400
4.383000 1.439900
4.409500 1.453900
4.436100 1.474500
4.462700 1.487600
4.489300 1.507700
4.515900 1.527200
4.542500 1.543400
4.569100 1.558300
4.595700 1.628300
4.622200 1.618600
4.648800 1.607000
4.675400 1.655700
4.702000 1.672100
4.728600 1.669700
4.755200 1.657500
4.781800 1.643700
4.808400 1.643500
4.834900 1.657200
4.861500 1.678700
4.888100 1.708800
4.914700 1.688800
4.941300 1.661300
4.967900 1.646500
4.994500 1.643700
5.021100 1.655200
5.047600 1.655600
5.074200 1.656500
5.100800 1.654400
5.127400 1.629600
5.154000 1.642300
5.180600 1.684700
5.207200 1.710100
5.233800 1.723300
5.260400 1.735600
5.286900 1.763400
5.313500 1.772100
5.340100 1.752700
5.366700 1.715600
5.393300 1.668100
5.419900 1.574500
5.446500 1.453300
5.473100 1.385000
5.499600 1.361200
5.526200 1.299800
5.552800 1.294700
5.579400 1.226000
5.606000 1.204800
5.632600 1.187500
5.659200 1.167200
5.685800 1.142300
5.712300 1.113500
5.738900 1.086000
5.765500 1.077400
5.792100 1.084200
5.818700 1.061000
5.845300 1.043600
5.871900 1.038500
5.898500 1.024800
5.925100 0.983900
5.951600 0.936100
5.978200 0.891500
6.004800 0.877900
6.031400 0.794500
6.058000 0.763500
6.084600 0.739600
6.111200 0.717000
6.137800 0.692900
6.164300 0.677600
6.190900 0.664500
6.217500 0.653700
6.244100 0.658100
6.270700 0.673100
6.297300 0.941500
6.323900 0.679100
6.350500 0.694700
6.377000 0.707100
6.403600 0.715300
6.430200 0.722000
6.456800 0.734700
6.483400 0.760700
6.510000 0.799600
6.536600 0.844600
6.563200 0.885100
6.589800 0.920200
6.616300 0.952600
6.642900 0.987000
6.669500 1.023900
6.696100 1.055100
6.722700 1.071500
6.749300 1.056600
6.775900 1.060000
6.802500 1.056600
6.829000 1.053200
6.855600 1.052600
6.882200 1.049700
6.908800 1.046900
6.935400 1.071800
6.962000 1.090400
6.988600 1.107700
7.015200 1.135900
7.041700 1.166200
7.068300 1.191500
7.094900 1.211600
7.121500 1.226500
7.148100 1.236300
7.174700 1.239600
7.201300 1.251800
7.227900 1.270300
7.254500 1.284300
7.281000 1.297900
7.307600 1.323100
7.334200 1.378400
7.360800 1.435700
7.387400 1.476800
7.414000 1.500600
7.440600 1.507000
7.467200 1.497800
7.493700 1.477400
7.520300 1.450300
7.546900 1.413800
7.573500 1.377800
7.600100 1.344900
7.626700 1.315000
7.653300 1.288200
7.679900 1.264400
7.706400 1.242800
7.733000 1.225100
7.759600 1.214500
7.786200 1.205300
7.812800 1.197400
7.839400 1.190700
7.866000 1.184200
7.892600 1.178900
7.919200 1.174600
7.945700 1.170800
7.972300 1.167500
7.998900 1.164700
8.025500 1.162300
8.052100 1.160300
8.078700 1.158400
8.105300 1.156700
8.131900 1.155300
8.158400 1.154200
8.185000 1.153400
8.211600 1.153000
8.238200 1.152700
8.264800 1.152600
8.291400 1.152900
8.318000 1.153800
8.344600 1.154900
8.371100 1.156000
8.397700 1.157200
8.424300 1.158500
8.450900 1.159900
8.477500 1.161700
8.504100 1.163900
8.530700 1.166500
8.557300 1.169700
8.583900 1.175000
8.610400 1.185000
8.637000 1.192200
8.663600 1.197700
8.690200 1.201600
8.716800 1.205200
8.743400 1.208900
8.770000 1.212600
8.796600 1.216600
8.823100 1.221300
8.849700 1.226600
8.876300 1.233400
8.902900 1.239900
8.929500 1.245400
8.956100 1.250500
8.982700 1.255300
9.009300 1.259900
9.035800 1.264500
9.062400 1.269400
9.089000 1.274500
9.115600 1.300300
9.142200 1.249500
9.168800 1.245500
9.195400 1.244500
9.222000 1.246800
9.248600 1.252700
9.275100 1.265100
9.301700 1.287400
9.328300 1.325200
9.354900 1.367300
9.381500 1.425800
9.408100 1.489100
9.434700 1.516200
9.461300 1.510900
9.487800 1.491500
9.514400 1.479900
9.541000 1.457000
9.567600 1.439700
9.594200 1.445400
9.620800 1.488500
9.647400 1.575400
9.674000 1.668800
9.700500 1.789300
9.727100 1.814200
9.753700 1.908500
9.780300 1.936600
9.806900 1.917800
9.833500 1.925800
9.860100 1.945900
9.886700 1.984200
9.913200 2.128700
9.939800 2.007400
9.966400 1.933700
9.993000 1.879800
10.019600 1.835700
10.046200 1.784400
10.072800 1.727100
10.099400 1.672000
10.126000 1.679300
10.152500 1.546500
10.179100 1.437200
10.205700 1.402100
10.232300 1.396900
10.258900 1.409000
10.285500 1.430800
10.312100 1.459200
10.338700 1.478700
10.365200 1.500000
10.391800 1.587900
10.418400 1.640900
10.445000 1.697400
10.471600 1.740000
10.498200 1.742500
10.524800 1.675800
10.551400 1.640700
10.577900 1.571600
10.604500 1.564400
10.631100 1.540000
10.657700 1.498600
10.684300 1.454800
10.710900 1.423500
10.737500 1.404200
10.764100 1.385300
10.790700 1.365300
10.817200 1.382100
10.843800 1.406600
10.870400 1.384200
10.897000 1.347600
10.923600 1.299500
10.950200 1.263600
10.976800 1.235900
11.003400 1.219400
11.029900 1.144600
11.056500 1.198800
11.083100 1.276100
11.109700 1.238400
11.136300 1.165500
11.162900 1.092200
11.189500 1.049900
11.216100 0.905300
11.242600 0.883700
11.269200 0.863300
11.295800 0.839000
11.322400 0.812900
11.349000 0.801700
11.375600 0.800800
11.402200 0.799800
11.428800 0.798600
11.455400 0.796900
11.481900 0.794800
11.508500 0.793200
11.535100 0.793100
11.561700 0.794500
11.588300 0.897100
11.614900 0.800900
11.641500 0.790700
11.668100 0.785300
11.694600 0.793200
11.721200 0.798900
11.747800 0.796200
11.774400 0.786600
11.801000 0.777200
11.827600 0.768000
11.854200 0.760800
11.880800 0.763900
11.907300 0.769000
11.933900 0.775800
11.960500 0.785500
11.987100 0.798000
12.013700 0.814400
12.040300 0.838100
12.066900 0.866100
12.093500 0.891700
12.120100 0.911600
12.146600 0.925800
12.173200 0.934100
12.199800 0.930800
12.226400 0.921800
12.253000 0.911200
12.279600 0.874600
12.306200 0.827000
12.332800 0.817100
12.359300 0.822000
12.385900 0.820200
12.412500 0.809200
12.439100 0.806300
12.465700 0.812200
12.492300 0.816400
12.518900 0.817600
12.545500 0.812500
12.572000 0.805700
12.598600 0.799600
12.625200 0.797000
12.651800 0.794100
12.678400 0.790500
12.705000 0.801500
12.731600 0.815800
12.758200 0.820400
12.784800 0.809400
12.811300 0.806100
12.837900 0.801500
12.864500 0.795500
12.891100 0.788100
12.917700 0.780100
12.944300 0.773100
12.970900 0.767800
12.997500 0.766200
13.024000 0.772400
13.050600 0.788900
13.077200 0.799500
13.103800 0.805000
13.130400 0.818500
13.157000 0.829600
13.183600 0.837700
13.210200 0.851700
13.236700 0.859200
13.263300 0.860200
13.289900 0.857500
13.316500 0.854600
13.343100 0.847200
13.369700 0.841000
13.396300 0.914000
13.422900 0.792900
13.449500 0.809500
13.476000 0.850300
13.502600 0.896300
13.529200 0.931200
13.555800 0.968700
13.582400 1.025800
13.609000 1.077100
13.635600 1.094900
13.662200 1.306000
13.688700 1.140500
13.715300 1.138600
13.741900 1.130900
13.768500 1.133400
13.795100 1.135800
13.821700 1.136800
13.848300 1.131100
13.874900 1.135900
13.901400 1.150000
13.928000 1.159000
13.954600 1.165200
13.981200 1.170500
14.007800 1.177800
14.034400 1.185500
14.061000 1.193400
14.087600 1.205400
14.114200 1.220800
14.140700 1.238100
14.167300 1.255400
14.193900 1.278800
14.220500 1.307500
14.247100 1.334200
14.273700 1.354200
14.300300 1.357500
14.326900 1.354900
14.353400 1.348500
14.380000 1.336900
14.406600 1.330800
14.433200 1.349400
14.459800 1.385500
14.486400 1.406200
14.513000 1.420000
14.539600 1.435300
14.566100 1.449300
14.592700 1.460600
14.619300 1.471700
14.645900 1.483100
14.672500 1.495300
14.699100 1.490700
14.725700 1.492700
14.752300 1.508000
14.778900 1.528300
14.805400 1.582700
14.832000 1.622100
14.858600 1.661700
14.885200 1.641500
14.911800 1.677200
14.938400 1.706900
14.965000 1.754400
14.991600 1.892200
15.018100 1.876300
15.044700 1.888700
15.071300 1.911800
15.097900 1.939400
15.124500 1.973300
15.151100 2.036600
15.177700 2.098700
15.204300 2.151800
15.230800 2.124700
15.257400 2.093200
15.284000 2.084300
15.310600 2.105600
15.337200 2.145700
15.363800 2.211300
15.390400 2.286900
15.417000 2.327600
15.443500 2.316700
15.470100 2.297700
15.496700 2.313000
15.523300 2.307700
15.549900 2.266500
15.576500 2.231000
15.603100 2.199700
15.629700 2.236000
15.656300 2.293500
15.682800 2.380900
15.709400 2.378200
15.736000 2.362600
15.762600 2.488000
15.789200 2.670800
15.815800 2.485600
15.842400 2.459600
15.869000 2.411900
15.895500 2.375600
15.922100 2.377700
15.948700 2.416500
15.975300 2.459600
16.001900 2.434100
16.028500 2.350600
16.055100 2.238600
16.081700 2.186200
16.108200 2.246500
16.134800 2.591100
16.161400 2.789100
16.188000 2.824500
16.214600 2.844300
16.241200 2.963500
16.267800 2.768500
16.294400 2.629400
16.321000 2.501600
16.347500 2.366400
16.374100 2.247200
16.400700 2.143600
16.427300 2.051700
16.453900 1.997200
16.480500 1.979200
16.507100 2.002800
16.533700 2.017600
16.560200 1.961100
16.586800 1.953400
16.613400 1.918500
16.640000 1.869800
16.666600 1.877500
16.693200 1.898700
16.719800 1.929100
16.746400 1.957400
16.772900 2.008800
16.799500 2.060100
16.826100 2.116200
16.852700 2.279000
16.879300 2.235900
16.905900 2.295300
16.932500 2.339000
16.959100 2.352600
16.985700 2.360600
17.012200 2.317500
17.038800 2.227400
17.065400 2.214600
17.092000 2.179700
17.118600 2.134400
17.145200 2.109400
17.171800 2.106500
17.198400 2.154200
17.224900 2.226100
17.251500 2.275100
17.278100 2.304700
17.304700 2.359400
17.331300 2.371100
17.357900 2.320900
17.384500 2.246400
17.411100 2.191500
17.437600 2.187100
17.464200 2.189000
17.490800 2.174900
17.517400 2.113000
17.544000 2.043100
17.570600 1.977400
17.597200 1.950500
17.623800 1.920700
17.650400 1.892200
17.676900 1.864100
17.703500 1.841300
17.730100 1.812300
17.756700 1.780900
17.783300 1.756000
17.809900 1.742700
17.836500 1.751500
17.863100 1.778300
17.889600 1.824300
17.916200 1.855100
17.942800 1.870500
17.969400 1.872500
17.996000 1.937800
18.022600 1.924600
18.049200 1.917100
18.075800 1.916600
18.102300 1.923900
18.128900 1.940600
18.155500 1.950700
18.182100 1.942500
18.208700 1.911200
18.235300 1.875500
18.261900 1.852500
18.288500 1.834100
18.315100 1.806900
18.341600 1.790600
18.368200 1.798500
18.394800 1.817800
18.421400 1.847900
18.448000 1.931800
18.474600 2.026100
18.501200 2.108900
18.527800 2.183500
18.554300 2.254400
18.580900 2.311200
18.607500 2.357500
18.634100 2.364400
18.660700 2.355200
18.687300 2.306100
18.713900 2.208200
18.740500 2.157000
18.767000 2.111300
18.793600 2.087100
18.820200 2.088900
18.846800 1.958800
18.873400 1.911800
18.900000 1.908100
18.926600 1.922300
18.953200 1.935200
18.979800 1.941700
19.006300 1.946000
19.032900 1.955100
19.059500 1.979100
19.086100 2.021400
19.112700 2.073000
19.139300 2.106800
19.165900 2.162000
19.192500 2.208200
19.219000 2.221000
19.245600 2.204800
19.272200 2.212300
19.298800 2.182300
19.325400 2.173400
19.352000 2.169400
19.378600 2.170100
19.405200 2.185800
19.431700 2.202000
19.458300 2.226200
