set title 'mp-1147625 - Density of States'
set xlabel 'Energy (eV)'
set ylabel 'DOS (states/eV)'
set grid
set xrange [-10:10]
set yrange [0:160.006]
set xzeroaxis lt -1
set terminal png size 800,600
set output 'mp-1147625_dos_gnuplot.png'
plot '-' using 1:2 with lines title 'DOS'
-10.211700 0.000000
-10.194800 0.000000
-10.177800 0.000000
-10.160900 0.000000
-10.143900 0.000000
-10.127000 0.000000
-10.110000 0.000000
-10.093100 0.000000
-10.076100 0.000000
-10.059200 0.000000
-10.042200 0.000000
-10.025300 0.000000
-10.008300 0.000000
-9.991400 0.000000
-9.974400 0.000000
-9.957500 0.000000
-9.940500 0.000000
-9.923600 0.000000
-9.906600 0.000000
-9.889700 0.000000
-9.872700 0.000000
-9.855800 0.000000
-9.838800 0.000000
-9.821900 0.000000
-9.804900 0.000000
-9.788000 0.000000
-9.771000 0.000000
-9.754100 0.000000
-9.737100 0.000000
-9.720200 0.000000
-9.703200 0.000000
-9.686300 0.000000
-9.669300 0.000000
-9.652400 0.000000
-9.635400 0.000000
-9.618500 0.000000
-9.601500 0.000000
-9.584600 0.000000
-9.567600 0.000000
-9.550700 0.000000
-9.533700 0.000000
-9.516800 0.000000
-9.499800 0.000000
-9.482900 0.000000
-9.465900 0.000000
-9.449000 0.000000
-9.432000 0.000000
-9.415100 0.000000
-9.398100 0.000000
-9.381200 0.000000
-9.364200 0.000000
-9.347300 0.000000
-9.330300 0.000000
-9.313400 0.000000
-9.296400 0.000000
-9.279500 0.000000
-9.262500 0.000000
-9.245600 0.000000
-9.228600 0.000000
-9.211700 0.000000
-9.194700 0.000000
-9.177800 0.000000
-9.160800 0.000000
-9.143900 0.000000
-9.126900 0.000000
-9.110000 0.000000
-9.093000 0.000000
-9.076100 0.000000
-9.059100 0.000000
-9.042200 0.000000
-9.025200 0.000000
-9.008300 0.000000
-8.991300 0.000000
-8.974400 0.000000
-8.957400 0.000000
-8.940500 0.000000
-8.923500 0.000000
-8.906600 0.000000
-8.889600 0.000000
-8.872700 0.000000
-8.855700 0.000000
-8.838800 0.000000
-8.821800 0.000000
-8.804900 0.000000
-8.787900 0.000000
-8.771000 0.000000
-8.754000 0.000000
-8.737100 0.000000
-8.720100 0.000000
-8.703200 0.000000
-8.686200 0.000000
-8.669300 0.002500
-8.652300 0.257700
-8.635400 0.588700
-8.618400 0.914300
-8.601500 0.887200
-8.584500 0.783900
-8.567600 0.691700
-8.550600 0.731700
-8.533700 0.779300
-8.516700 0.827000
-8.499800 0.874600
-8.482800 3.526900
-8.465900 4.744900
-8.448900 5.937700
-8.432000 5.085800
-8.415000 5.158600
-8.398100 5.603700
-8.381100 6.106900
-8.364200 5.890800
-8.347200 6.104800
-8.330300 6.394500
-8.313300 6.771800
-8.296400 7.341300
-8.279400 10.676800
-8.262500 11.730900
-8.245500 13.052000
-8.228600 18.595300
-8.211600 17.533900
-8.194700 18.378300
-8.177700 18.817700
-8.160800 17.996600
-8.143800 14.451200
-8.126900 12.801300
-8.109900 12.007200
-8.093000 10.971700
-8.076000 4.020200
-8.059100 7.265900
-8.042100 11.361700
-8.025200 51.233700
-8.008200 66.640900
-7.991300 129.875100
-7.974300 119.174000
-7.957400 51.205300
-7.940400 83.848400
-7.923500 145.460000
-7.906500 142.425600
-7.889600 26.025700
-7.872600 31.871400
-7.855700 29.917200
-7.838700 20.466000
-7.821800 15.988400
-7.804800 13.226000
-7.787900 11.358300
-7.770900 1.163300
-7.754000 1.160600
-7.737000 1.158000
-7.720100 1.088300
-7.703100 1.006600
-7.686200 0.924900
-7.669200 0.885500
-7.652300 0.872200
-7.635300 0.859000
-7.618400 0.845900
-7.601400 0.835100
-7.584500 0.824200
-7.567500 0.813300
-7.550600 0.802400
-7.533600 0.792100
-7.516700 0.793600
-7.499700 0.795600
-7.482800 0.797600
-7.465800 0.799700
-7.448900 0.801700
-7.431900 0.803800
-7.415000 0.805800
-7.398000 0.807900
-7.381100 0.809900
-7.364100 0.812000
-7.347200 0.814000
-7.330200 0.816100
-7.313300 0.818100
-7.296300 0.817900
-7.279400 0.808800
-7.262400 0.799700
-7.245500 0.794000
-7.228500 0.793900
-7.211600 0.793800
-7.194600 0.793600
-7.177700 0.793500
-7.160700 0.793400
-7.143800 0.793300
-7.126800 0.793100
-7.109900 0.793100
-7.092900 0.794700
-7.076000 0.796300
-7.059000 0.797900
-7.042100 0.799400
-7.025100 0.801000
-7.008200 0.802600
-6.991200 0.969400
-6.974300 1.222400
-6.957300 1.316900
-6.940400 1.396500
-6.923400 1.529600
-6.906500 1.709200
-6.889500 1.876900
-6.872600 1.941300
-6.855600 1.904300
-6.838700 1.885500
-6.821700 1.888900
-6.804800 1.903800
-6.787800 1.909200
-6.770900 2.506100
-6.753900 2.875600
-6.737000 2.809600
-6.720000 2.097500
-6.703100 2.089300
-6.686100 2.071700
-6.669200 2.048800
-6.652200 2.024900
-6.635300 2.002900
-6.618300 1.978000
-6.601400 1.962100
-6.584400 1.822400
-6.567500 1.814200
-6.550500 1.812000
-6.533600 1.811000
-6.516600 1.810100
-6.499700 1.804300
-6.482700 1.799000
-6.465800 1.792600
-6.448800 1.784800
-6.431900 1.776600
-6.414900 1.768800
-6.398000 1.719900
-6.381000 1.715600
-6.364100 1.713000
-6.347100 1.712300
-6.330200 1.713000
-6.313200 1.713800
-6.296300 1.714500
-6.279300 1.715400
-6.262400 1.839700
-6.245400 2.097300
-6.228500 2.673700
-6.211500 3.143100
-6.194600 3.633500
-6.177600 3.474800
-6.160700 3.064600
-6.143700 2.523000
-6.126800 2.332100
-6.109800 2.232800
-6.092900 2.193900
-6.075900 2.352300
-6.059000 2.599300
-6.042000 2.738200
-6.025100 2.842600
-6.008100 2.991500
-5.991200 3.144000
-5.974200 3.345700
-5.957300 3.778300
-5.940300 3.979700
-5.923400 4.307500
-5.906400 4.636000
-5.889500 5.113500
-5.872500 5.202500
-5.855600 5.493100
-5.838600 5.560000
-5.821700 5.690800
-5.804700 5.792000
-5.787800 5.970500
-5.770800 6.272800
-5.753900 6.068700
-5.736900 5.274100
-5.720000 4.657100
-5.703000 4.373000
-5.686100 4.301800
-5.669100 4.256400
-5.652200 4.199200
-5.635200 3.943100
-5.618300 3.821400
-5.601300 3.710500
-5.584400 3.574800
-5.567400 3.440300
-5.550500 3.390500
-5.533500 3.351100
-5.516600 3.311600
-5.499600 3.270500
-5.482700 3.231700
-5.465700 3.204300
-5.448800 3.339300
-5.431800 3.119700
-5.414900 2.828400
-5.397900 2.780900
-5.381000 2.778500
-5.364000 2.727500
-5.347100 2.940600
-5.330100 3.375000
-5.313200 3.133200
-5.296200 2.657500
-5.279300 2.384600
-5.262300 2.264900
-5.245400 2.207200
-5.228400 2.180500
-5.211500 2.157300
-5.194500 2.123000
-5.177600 2.074800
-5.160600 2.058700
-5.143700 2.154200
-5.126700 2.315200
-5.109800 2.429000
-5.092800 2.447100
-5.075900 2.421200
-5.058900 2.395500
-5.042000 2.369800
-5.025000 2.329100
-5.008100 2.214300
-4.991100 2.099800
-4.974200 1.986500
-4.957200 2.046200
-4.940300 2.023200
-4.923300 2.012000
-4.906400 2.001400
-4.889400 2.032800
-4.872500 1.920700
-4.855500 1.808500
-4.838600 1.696400
-4.821600 1.530600
-4.804700 3.666900
-4.787700 1.061500
-4.770800 0.610600
-4.753800 0.610200
-4.736900 0.608700
-4.719900 0.604700
-4.703000 0.599200
-4.686000 0.591600
-4.669100 0.584200
-4.652100 0.576800
-4.635200 0.569400
-4.618200 0.562000
-4.601300 0.554500
-4.584300 0.547100
-4.567400 0.539700
-4.550400 0.532300
-4.533500 0.524900
-4.516500 0.517500
-4.499600 0.510100
-4.482600 0.502600
-4.465700 0.495200
-4.448700 0.487800
-4.431800 0.484400
-4.414800 0.482100
-4.397900 0.479800
-4.380900 0.477500
-4.364000 0.475200
-4.347000 0.472900
-4.330100 0.470700
-4.313100 0.468400
-4.296200 0.466100
-4.279200 0.463800
-4.262300 0.461500
-4.245300 0.459200
-4.228400 0.457000
-4.211400 0.454700
-4.194500 0.452400
-4.177500 0.414200
-4.160600 0.414600
-4.143600 0.415000
-4.126700 0.415300
-4.109700 0.415700
-4.092800 0.416100
-4.075800 0.416500
-4.058900 0.416800
-4.041900 0.417700
-4.025000 0.420100
-4.008000 0.422600
-3.991100 0.418800
-3.974100 0.413300
-3.957200 0.407800
-3.940200 0.402300
-3.923300 0.396700
-3.906300 0.391200
-3.889400 0.385700
-3.872400 0.380100
-3.855500 0.374600
-3.838500 0.369100
-3.821600 0.363600
-3.804600 0.358000
-3.787700 0.352500
-3.770700 0.347000
-3.753800 0.341500
-3.736800 0.337600
-3.719900 0.336100
-3.702900 0.334600
-3.686000 0.333100
-3.669000 0.331700
-3.652100 0.330200
-3.635100 0.328700
-3.618200 0.327300
-3.601200 0.325800
-3.584300 0.324300
-3.567300 0.322900
-3.550400 0.321400
-3.533400 0.319900
-3.516500 0.318400
-3.499500 0.317000
-3.482600 0.315500
-3.465600 0.289300
-3.448700 0.296600
-3.431700 0.303900
-3.414800 0.311200
-3.397800 0.318500
-3.380900 0.325800
-3.363900 0.320700
-3.347000 0.314800
-3.330000 0.309000
-3.313100 0.303100
-3.296100 0.297300
-3.279200 0.291400
-3.262200 0.285500
-3.245300 0.279700
-3.228300 0.273800
-3.211400 0.268000
-3.194400 0.262100
-3.177500 0.256300
-3.160500 0.250400
-3.143600 0.244600
-3.126600 0.238700
-3.109700 0.232900
-3.092700 0.227000
-3.075800 0.221200
-3.058800 0.228800
-3.041900 0.240200
-3.024900 0.251600
-3.008000 0.263000
-2.991000 0.274400
-2.974100 0.285900
-2.957100 0.297300
-2.940200 0.308700
-2.923200 0.283200
-2.906300 0.253800
-2.889300 0.224400
-2.872400 0.195000
-2.855400 0.165500
-2.838500 0.136100
-2.821500 0.106700
-2.804600 0.077300
-2.787600 0.047900
-2.770700 0.018500
-2.753700 0.000000
-2.736800 0.000000
-2.719800 0.000000
-2.702900 0.000000
-2.685900 0.000000
-2.669000 0.000000
-2.652000 0.000000
-2.635100 0.000000
-2.618100 0.000000
-2.601200 0.000000
-2.584200 0.000000
-2.567300 0.000000
-2.550300 0.000000
-2.533400 0.000000
-2.516400 0.000000
-2.499500 0.000000
-2.482500 0.000000
-2.465600 0.000000
-2.448600 0.000000
-2.431700 0.000000
-2.414700 0.000000
-2.397800 0.000000
-2.380800 0.000000
-2.363900 0.000000
-2.346900 0.000000
-2.330000 0.000000
-2.313000 0.000000
-2.296100 0.000000
-2.279100 0.000000
-2.262200 0.000000
-2.245200 0.000000
-2.228300 0.000000
-2.211300 0.000000
-2.194400 0.000000
-2.177400 0.000000
-2.160500 0.000000
-2.143500 0.000000
-2.126600 0.000000
-2.109600 0.000000
-2.092700 0.000000
-2.075700 0.000000
-2.058800 0.000000
-2.041800 0.000000
-2.024900 0.000000
-2.007900 0.000000
-1.991000 0.000000
-1.974000 0.000000
-1.957100 0.000000
-1.940100 0.000000
-1.923200 0.000000
-1.906200 0.000000
-1.889300 0.000000
-1.872300 0.000000
-1.855400 0.000000
-1.838400 0.000000
-1.821500 0.000000
-1.804500 0.000000
-1.787600 0.000000
-1.770600 0.000000
-1.753700 0.000000
-1.736700 0.000000
-1.719800 0.000000
-1.702800 0.000000
-1.685900 0.000000
-1.668900 0.000000
-1.652000 0.000000
-1.635000 0.000000
-1.618100 0.000000
-1.601100 0.000000
-1.584200 0.000000
-1.567200 0.000000
-1.550300 0.000000
-1.533300 0.000000
-1.516400 0.000000
-1.499400 0.000000
-1.482500 0.000000
-1.465500 0.000000
-1.448600 0.000000
-1.431600 0.000000
-1.414700 0.000000
-1.397700 0.000000
-1.380800 0.000000
-1.363800 0.000000
-1.346900 0.000000
-1.329900 0.000000
-1.313000 0.000000
-1.296000 0.000000
-1.279100 0.000000
-1.262100 0.000000
-1.245200 0.000000
-1.228200 0.000000
-1.211300 0.000000
-1.194300 0.000000
-1.177400 0.000000
-1.160400 0.000000
-1.143500 0.000000
-1.126500 0.000000
-1.109600 0.000000
-1.092600 0.000000
-1.075700 0.000000
-1.058700 0.000000
-1.041800 0.000000
-1.024800 0.000000
-1.007900 0.000000
-0.990900 0.000000
-0.974000 0.000000
-0.957000 0.000000
-0.940100 0.000000
-0.923100 0.000000
-0.906200 0.000000
-0.889200 0.000000
-0.872300 0.000000
-0.855300 0.000000
-0.838400 0.000000
-0.821400 0.000000
-0.804500 0.000000
-0.787500 0.000000
-0.770600 0.000000
-0.753600 0.000000
-0.736700 0.000000
-0.719700 0.000000
-0.702800 0.000000
-0.685800 0.000000
-0.668900 0.000000
-0.651900 0.000000
-0.635000 0.000000
-0.618000 0.000000
-0.601100 0.000000
-0.584100 0.000000
-0.567200 0.000000
-0.550200 0.000000
-0.533300 0.000000
-0.516300 0.000000
-0.499400 0.000000
-0.482400 0.000000
-0.465500 0.000000
-0.448500 0.000000
-0.431600 0.000000
-0.414600 0.000000
-0.397700 0.000000
-0.380700 0.000000
-0.363800 0.024700
-0.346800 0.226000
-0.329900 0.475000
-0.312900 0.696800
-0.296000 0.845400
-0.279000 0.958800
-0.262100 1.235700
-0.245100 1.286200
-0.228200 1.291300
-0.211200 1.151300
-0.194300 1.155700
-0.177300 1.258800
-0.160400 2.282200
-0.143400 2.202500
-0.126500 2.577900
-0.109500 2.489000
-0.092600 2.381300
-0.075600 2.235500
-0.058700 2.286100
-0.041700 3.386000
-0.024800 2.611000
-0.007800 2.947600
0.009100 3.045400
0.026100 2.784300
0.043000 2.763300
0.060000 2.797600
0.076900 2.810300
0.093900 2.882600
0.110800 2.957600
0.127800 3.037200
0.144700 3.341400
0.161700 4.178300
0.178600 4.629900
0.195600 4.471600
0.212500 4.363400
0.229500 4.274300
0.246400 4.113600
0.263400 3.955400
0.280300 3.795100
0.297300 3.640000
0.314200 3.503300
0.331200 3.379400
0.348100 2.644700
0.365100 2.641200
0.382000 2.652300
0.399000 2.697800
0.415900 2.739100
0.432900 2.859500
0.449800 3.004500
0.466800 3.185000
0.483700 3.268900
0.500700 3.361300
0.517600 3.497000
0.534600 3.690600
0.551500 3.833000
0.568500 4.143200
0.585400 5.330100
0.602400 3.986800
0.619300 3.349000
0.636300 2.846100
0.653200 2.518100
0.670200 2.316600
0.687100 2.481500
0.704100 1.303000
0.721000 1.313900
0.738000 1.325000
0.754900 1.342900
0.771900 1.364700
0.788800 1.831300
0.805800 1.982500
0.822700 1.877900
0.839700 1.795000
0.856600 1.662500
0.873600 1.450000
0.890500 1.403900
0.907500 1.373100
0.924400 1.360700
0.941400 1.403700
0.958300 1.460800
0.975300 1.619900
0.992200 1.701100
1.009200 1.791800
1.026100 1.885000
1.043100 2.116900
1.060000 2.337700
1.077000 2.533500
1.093900 2.759900
1.110900 4.021000
1.127800 3.258100
1.144800 3.290900
1.161700 5.505600
1.178700 3.368700
1.195600 3.150700
1.212600 3.021100
1.229500 2.900300
1.246500 2.712900
1.263400 2.589100
1.280400 2.478500
1.297300 2.375200
1.314300 2.355300
1.331200 2.509000
1.348200 1.855900
1.365100 1.772700
1.382100 1.706200
1.399000 1.653300
1.416000 1.564000
1.432900 1.571200
1.449900 1.584000
1.466800 1.625300
1.483800 1.675500
1.500700 1.735300
1.517700 1.803800
1.534600 1.823100
1.551600 1.824900
1.568500 1.815000
1.585500 1.802400
1.602400 1.803800
1.619400 1.834800
1.636300 1.885800
1.653300 1.940600
1.670200 1.990000
1.687200 2.034000
1.704100 2.078500
1.721100 2.209700
1.738000 2.317900
1.755000 2.444100
1.771900 2.551000
1.788900 2.671500
1.805800 2.828600
1.822800 2.756900
1.839700 2.740000
1.856700 2.712900
1.873600 2.685000
1.890600 2.787300
1.907500 2.774200
1.924500 2.781300
1.941400 2.735300
1.958400 2.736500
1.975300 2.710100
1.992300 2.599000
2.009200 2.631000
2.026200 2.709800
2.043100 2.846700
2.060100 2.940300
2.077000 3.024100
2.094000 3.043200
2.110900 3.063800
2.127900 3.091400
2.144800 3.120300
2.161800 3.182500
2.178700 3.368000
2.195700 3.631200
2.212600 3.898700
2.229600 3.858000
2.246500 4.257800
2.263500 3.844800
2.280400 4.133700
2.297400 4.447200
2.314300 4.332600
2.331300 3.994300
2.348200 3.737800
2.365200 3.685700
2.382100 3.660000
2.399100 3.623300
2.416000 3.690600
2.433000 3.840000
2.449900 4.167300
2.466900 4.259200
2.483800 4.286000
2.500800 4.186300
2.517700 4.110200
2.534700 4.051600
2.551600 3.926700
2.568600 3.826500
2.585500 3.760900
2.602500 3.681700
2.619400 3.598800
2.636400 3.508300
2.653300 3.795200
2.670300 3.816000
2.687200 3.456500
2.704200 3.395000
2.721100 3.314100
2.738100 3.104600
2.755000 2.964500
2.772000 2.861300
2.788900 2.537000
2.805900 2.424100
2.822800 2.585000
2.839800 2.528300
2.856700 2.518100
2.873700 2.485600
2.890600 2.366300
2.907600 2.370700
2.924500 2.393300
2.941500 2.430400
2.958400 2.477400
2.975400 2.533100
2.992300 2.596400
3.009300 2.700100
3.026200 2.805200
3.043200 2.893100
3.060100 2.884000
3.077100 2.843200
3.094000 2.847700
3.111000 2.860200
3.127900 2.885000
3.144900 2.924800
3.161900 2.930900
3.178800 2.944200
3.195800 2.985700
3.212700 3.071400
3.229700 3.138000
3.246600 3.109800
3.263600 3.733900
3.280500 3.076200
3.297500 3.073900
3.314400 3.072400
3.331400 3.072700
3.348300 3.322600
3.365300 3.143000
3.382200 3.178000
3.399200 3.217800
3.416100 3.223900
3.433100 3.232400
3.450000 3.237300
3.467000 3.289500
3.483900 3.329100
3.500900 3.359000
3.517800 3.458700
3.534800 3.473200
3.551700 3.497000
3.568700 3.636000
3.585600 3.633300
3.602600 3.669200
3.619500 3.718600
3.636500 3.741600
3.653400 3.759900
3.670400 3.776000
3.687300 3.787800
3.704300 3.800200
3.721200 4.000200
3.738200 4.115200
3.755100 4.498000
3.772100 5.139300
3.789000 5.019300
3.806000 4.648100
3.822900 4.391600
3.839900 4.297300
3.856800 4.210400
3.873800 4.026000
3.890700 3.735900
3.907700 3.485800
3.924600 3.405600
3.941600 3.417100
3.958500 3.408100
3.975500 3.303300
3.992400 3.302400
4.009400 3.297200
4.026300 3.280400
4.043300 3.247000
4.060200 3.218900
4.077200 3.202500
4.094100 3.194500
4.111100 3.320000
4.128000 3.347500
4.145000 3.382200
4.161900 3.644500
4.178900 3.693200
4.195800 3.546600
4.212800 3.712800
4.229700 3.995300
4.246700 4.068700
4.263600 4.138200
4.280600 4.058900
4.297500 4.177200
4.314500 4.190600
4.331400 4.326200
4.348400 5.041100
4.365300 5.347200
4.382300 5.643000
4.399200 5.860500
4.416200 5.909600
4.433100 5.450100
4.450100 5.082800
4.467000 5.029700
4.484000 4.970900
4.500900 4.963100
4.517900 4.954200
4.534800 4.828700
4.551800 4.911700
4.568700 5.038400
4.585700 4.914100
4.602600 5.170000
4.619600 5.283800
4.636500 5.523300
4.653500 5.591400
4.670400 5.573800
4.687400 5.643800
4.704300 5.735600
4.721300 5.644300
4.738200 5.696300
4.755200 5.714400
4.772100 4.961700
4.789100 5.385800
4.806000 5.179400
4.823000 5.222000
4.839900 5.064700
4.856900 5.111700
4.873800 4.483800
4.890800 4.909400
4.907700 5.093900
4.924700 5.721900
4.941600 5.586200
4.958600 5.023500
4.975500 5.259200
4.992500 5.260000
5.009400 4.727400
5.026400 4.856200
5.043300 5.144000
5.060300 5.065400
5.077200 4.920800
5.094200 4.787700
5.111100 4.809300
5.128100 5.061700
5.145000 5.004900
5.162000 5.636300
5.178900 5.134600
5.195900 5.146000
5.212800 5.141600
5.229800 5.117000
5.246700 4.958900
5.263700 4.735700
5.280600 4.508100
5.297600 4.270900
5.314500 3.642800
5.331500 3.408400
5.348400 3.393700
5.365400 3.560900
5.382300 3.644900
5.399300 3.819900
5.416200 4.024800
5.433200 4.477300
5.450100 5.139300
5.467100 5.191800
5.484000 3.310200
5.501000 3.094500
5.517900 2.940600
5.534900 2.784800
5.551800 2.696200
5.568800 2.618100
5.585700 2.609300
5.602700 2.614400
5.619600 2.601500
5.636600 2.637100
5.653500 2.697300
5.670500 2.734500
5.687400 2.659400
5.704400 2.598500
5.721300 2.537800
5.738300 2.471200
5.755200 2.372600
5.772200 2.257300
5.789100 2.213100
5.806100 2.171300
5.823000 2.104600
5.840000 2.080300
5.856900 2.067800
5.873900 2.053700
5.890800 2.040200
5.907800 2.027600
5.924700 2.011000
5.941700 2.003900
5.958600 1.998700
5.975600 1.969300
5.992500 1.938200
6.009500 1.937800
6.026400 1.938500
6.043400 1.941000
6.060300 1.947100
6.077300 1.955800
6.094200 1.969400
6.111200 1.989600
6.128100 2.013400
6.145100 2.050300
6.162000 2.101100
6.179000 2.165800
6.195900 2.232400
6.212900 2.274700
6.229800 2.193900
6.246800 2.135600
6.263700 2.090900
6.280700 2.046300
6.297600 2.001900
6.314600 1.957500
6.331500 1.913200
6.348500 1.869900
6.365400 1.830600
6.382400 1.796600
6.399300 1.768000
6.416300 1.744900
6.433200 1.728500
6.450200 1.714000
6.467100 1.725400
6.484100 1.791700
6.501000 1.909400
6.518000 2.334600
6.534900 2.255800
6.551900 2.114300
6.568800 1.957000
6.585800 1.783900
6.602700 1.715500
6.619700 1.686000
6.636600 1.657500
6.653600 1.633500
6.670500 1.612700
6.687500 1.594800
6.704400 1.579800
6.721400 1.567800
6.738300 1.598400
6.755300 1.581100
6.772200 1.563200
6.789200 1.543900
6.806100 1.525900
6.823100 1.507000
6.840000 1.487000
6.857000 1.465900
6.873900 1.446900
6.890900 1.421600
6.907800 1.397000
6.924800 1.050800
6.941700 1.050600
6.958700 1.050000
6.975600 1.049100
6.992600 1.047900
7.009500 1.047900
7.026500 1.056600
7.043400 1.082200
7.060400 1.119400
7.077300 1.166400
7.094300 1.213400
7.111200 1.245500
7.128200 1.277600
7.145100 1.310700
7.162100 1.343800
7.179000 1.371500
7.196000 1.386800
7.212900 1.399300
7.229900 1.411100
7.246800 1.424600
7.263800 1.443900
7.280700 1.493900
7.297700 1.565900
7.314600 1.640900
7.331600 1.704700
7.348500 1.767900
7.365500 1.835200
7.382400 1.901100
7.399400 1.919600
7.416300 1.968800
7.433300 2.050400
7.450200 2.216800
7.467200 2.396400
7.484100 2.772800
7.501100 3.382100
7.518000 3.557900
7.535000 3.654500
7.551900 3.737400
7.568900 3.773700
7.585800 3.829000
7.602800 3.801600
7.619700 3.702900
7.636700 3.616300
7.653600 3.640700
7.670600 2.297600
7.687500 1.844900
7.704500 1.519900
7.721400 1.300900
