set title 'mp-1018088 - Density of States'
set xlabel 'Energy (eV)'
set ylabel 'DOS (states/eV)'
set grid
set xrange [-10:10]
set yrange [0:7.873]
set xzeroaxis lt -1
set terminal png size 800,600
set output 'mp-1018088_dos_gnuplot.png'
plot '-' using 1:2 with lines title 'DOS'
-18.169800 0.000000
-18.126800 0.000000
-18.083800 0.000000
-18.040900 0.000000
-17.997900 0.000000
-17.954900 0.000000
-17.912000 0.000000
-17.869000 0.000000
-17.826100 0.000000
-17.783100 0.000000
-17.740100 0.000000
-17.697200 0.000000
-17.654200 0.000000
-17.611200 0.000000
-17.568300 0.000000
-17.525300 0.000000
-17.482400 0.000000
-17.439400 0.000000
-17.396400 0.000000
-17.353500 0.000000
-17.310500 0.000000
-17.267500 0.000000
-17.224600 0.000000
-17.181600 0.000000
-17.138700 0.000000
-17.095700 0.000000
-17.052700 0.000000
-17.009800 0.000000
-16.966800 0.000000
-16.923800 0.000000
-16.880900 0.000000
-16.837900 0.000000
-16.795000 0.000000
-16.752000 0.000000
-16.709000 0.000000
-16.666100 0.000000
-16.623100 0.000000
-16.580200 0.000000
-16.537200 0.000000
-16.494200 0.000000
-16.451300 0.000000
-16.408300 0.000000
-16.365300 0.000000
-16.322400 0.000000
-16.279400 0.000000
-16.236500 0.000000
-16.193500 0.000000
-16.150500 0.000000
-16.107600 0.000000
-16.064600 0.000000
-16.021600 0.000000
-15.978700 0.000000
-15.935700 0.000000
-15.892800 0.000000
-15.849800 0.000000
-15.806800 0.000000
-15.763900 0.000000
-15.720900 0.000000
-15.677900 0.000000
-15.635000 0.000000
-15.592000 0.000000
-15.549100 0.000000
-15.506100 0.000000
-15.463100 0.000000
-15.420200 0.000000
-15.377200 0.000000
-15.334200 0.000000
-15.291300 0.000000
-15.248300 0.000000
-15.205400 0.000000
-15.162400 0.000000
-15.119400 0.000000
-15.076500 0.000000
-15.033500 0.000000
-14.990600 0.000000
-14.947600 0.000000
-14.904600 0.000000
-14.861700 0.000000
-14.818700 0.000000
-14.775700 0.000000
-14.732800 0.000000
-14.689800 0.000000
-14.646900 0.000000
-14.603900 0.000000
-14.560900 0.000000
-14.518000 0.000000
-14.475000 0.000000
-14.432000 0.000000
-14.389100 0.000000
-14.346100 0.000000
-14.303200 0.000000
-14.260200 0.000600
-14.217200 0.085100
-14.174300 0.129200
-14.131300 0.178300
-14.088300 0.202000
-14.045400 0.230500
-14.002400 0.258500
-13.959500 0.285700
-13.916500 0.302500
-13.873500 0.325600
-13.830600 0.342300
-13.787600 0.365000
-13.744600 0.388300
-13.701700 0.403900
-13.658700 0.421200
-13.615800 0.439600
-13.572800 0.456900
-13.529800 0.476100
-13.486900 0.497600
-13.443900 0.516500
-13.401000 0.533100
-13.358000 0.548000
-13.315000 0.567100
-13.272100 0.586800
-13.229100 0.608100
-13.186100 0.630300
-13.143200 0.649600
-13.100200 0.669700
-13.057300 0.690500
-13.014300 0.712200
-12.971300 0.735200
-12.928400 0.761400
-12.885400 0.789900
-12.842400 0.821200
-12.799500 0.850300
-12.756500 0.881300
-12.713600 0.919200
-12.670600 0.963300
-12.627600 1.012000
-12.584700 1.066500
-12.541700 1.149500
-12.498700 1.257500
-12.455800 1.427600
-12.412800 1.543200
-12.369900 1.551800
-12.326900 1.470200
-12.283900 1.431700
-12.241000 1.379400
-12.198000 1.333000
-12.155000 1.299000
-12.112100 1.270400
-12.069100 1.229000
-12.026200 1.209300
-11.983200 1.100100
-11.940200 0.965300
-11.897300 0.741400
-11.854300 0.620900
-11.811400 0.553800
-11.768400 0.449100
-11.725400 0.386400
-11.682500 0.333900
-11.639500 0.289000
-11.596500 0.251500
-11.553600 0.215700
-11.510600 0.199000
-11.467700 0.183000
-11.424700 0.163400
-11.381700 0.147500
-11.338800 0.135800
-11.295800 0.122300
-11.252800 0.109400
-11.209900 0.107900
-11.166900 0.108300
-11.124000 0.112000
-11.081000 0.118300
-11.038000 0.127400
-10.995100 0.139100
-10.952100 0.181800
-10.909100 0.191500
-10.866200 0.215600
-10.823200 0.242500
-10.780300 0.275400
-10.737300 0.323800
-10.694300 0.377800
-10.651400 0.449200
-10.608400 0.520800
-10.565400 0.643700
-10.522500 0.658800
-10.479500 0.738700
-10.436600 0.860100
-10.393600 1.011400
-10.350600 1.194600
-10.307700 1.861000
-10.264700 1.888600
-10.221800 1.918000
-10.178800 1.946700
-10.135800 1.961200
-10.092900 1.610800
-10.049900 1.329100
-10.006900 1.166200
-9.964000 1.080600
-9.921000 1.005300
-9.878100 0.937400
-9.835100 0.878100
-9.792100 0.822000
-9.749200 0.784800
-9.706200 0.757400
-9.663200 0.725500
-9.620300 0.696100
-9.577300 0.667900
-9.534400 0.635900
-9.491400 0.616600
-9.448400 0.598000
-9.405500 0.580700
-9.362500 0.566300
-9.319500 0.551200
-9.276600 0.533400
-9.233600 0.518000
-9.190700 0.503800
-9.147700 0.491600
-9.104700 0.481600
-9.061800 0.472200
-9.018800 0.463600
-8.975800 0.455500
-8.932900 0.448000
-8.889900 0.440200
-8.847000 0.433100
-8.804000 0.429000
-8.761000 0.425500
-8.718100 0.421200
-8.675100 0.416900
-8.632200 0.412700
-8.589200 0.407800
-8.546200 0.404900
-8.503300 0.403100
-8.460300 0.401900
-8.417300 0.401300
-8.374400 0.401600
-8.331400 0.402000
-8.288500 0.402300
-8.245500 0.405900
-8.202500 0.408400
-8.159600 0.410700
-8.116600 0.412500
-8.073600 0.414500
-8.030700 0.416800
-7.987700 0.420800
-7.944800 0.425700
-7.901800 0.431500
-7.858800 0.439600
-7.815900 0.446500
-7.772900 0.453300
-7.729900 0.460400
-7.687000 0.468200
-7.644000 0.478200
-7.601100 0.488100
-7.558100 0.498900
-7.515100 0.509600
-7.472200 0.523600
-7.429200 0.537500
-7.386200 0.552600
-7.343300 0.569600
-7.300300 0.586800
-7.257400 0.603100
-7.214400 0.621100
-7.171400 0.639900
-7.128500 0.662400
-7.085500 0.690300
-7.042600 0.720500
-6.999600 0.748500
-6.956600 0.777300
-6.913700 0.807400
-6.870700 0.843800
-6.827700 0.892700
-6.784800 0.939000
-6.741800 0.987500
-6.698900 1.041400
-6.655900 1.113300
-6.612900 1.199400
-6.570000 1.294100
-6.527000 1.429800
-6.484000 1.626800
-6.441100 2.027200
-6.398100 2.226300
-6.355200 2.086300
-6.312200 1.984200
-6.269200 1.490300
-6.226300 1.237400
-6.183300 1.001200
-6.140300 0.895300
-6.097400 0.810300
-6.054400 0.770100
-6.011500 0.674500
-5.968500 0.610700
-5.925500 0.548200
-5.882600 0.499900
-5.839600 0.486800
-5.796600 0.431000
-5.753700 0.408400
-5.710700 0.377300
-5.667800 0.348500
-5.624800 0.362600
-5.581800 0.349300
-5.538900 0.297000
-5.495900 0.275100
-5.453000 0.254400
-5.410000 0.278700
-5.367000 0.231400
-5.324100 0.206100
-5.281100 0.190600
-5.238100 0.164400
-5.195200 0.161400
-5.152200 0.175700
-5.109300 0.189600
-5.066300 0.204400
-5.023300 0.220100
-4.980400 0.233900
-4.937400 0.251500
-4.894400 0.270700
-4.851500 0.290400
-4.808500 0.310300
-4.765600 0.328100
-4.722600 0.343500
-4.679600 0.367900
-4.636700 0.390000
-4.593700 0.419600
-4.550700 0.445900
-4.507800 0.473400
-4.464800 0.505800
-4.421900 0.540200
-4.378900 0.574200
-4.335900 0.609500
-4.293000 0.657200
-4.250000 0.717300
-4.207000 0.777700
-4.164100 0.850000
-4.121100 0.947700
-4.078200 1.073400
-4.035200 1.165100
-3.992200 1.237400
-3.949300 1.280500
-3.906300 1.305800
-3.863400 1.352500
-3.820400 1.428500
-3.777400 1.703700
-3.734500 4.374700
-3.691500 4.058200
-3.648500 3.543400
-3.605600 3.522000
-3.562600 3.383800
-3.519700 2.252100
-3.476700 1.490400
-3.433700 1.012500
-3.390800 0.515800
-3.347800 0.160900
-3.304800 0.188500
-3.261900 0.653000
-3.218900 1.791000
-3.176000 3.251300
-3.133000 3.774800
-3.090000 3.987000
-3.047100 7.157000
-3.004100 1.391500
-2.961100 1.355200
-2.918200 1.391200
-2.875200 1.458700
-2.832300 1.459700
-2.789300 1.444100
-2.746300 1.440000
-2.703400 1.438900
-2.660400 1.440400
-2.617400 1.441700
-2.574500 1.399800
-2.531500 1.025400
-2.488600 0.926100
-2.445600 0.904500
-2.402600 0.885200
-2.359700 0.928500
-2.316700 0.879800
-2.273800 0.877200
-2.230800 0.893200
-2.187800 0.896900
-2.144900 0.951000
-2.101900 0.958500
-2.058900 1.005800
-2.016000 1.062100
-1.973000 1.194600
-1.930100 1.274600
-1.887100 1.519800
-1.844100 1.963500
-1.801200 2.499500
-1.758200 2.202900
-1.715200 2.296600
-1.672300 2.417400
-1.629300 2.671400
-1.586400 3.090700
-1.543400 4.142100
-1.500400 3.595000
-1.457500 2.381200
-1.414500 2.006000
-1.371500 1.730300
-1.328600 1.487400
-1.285600 1.323200
-1.242700 1.201200
-1.199700 1.086500
-1.156700 0.987700
-1.113800 0.906000
-1.070800 0.800400
-1.027800 0.721200
-0.984900 0.691600
-0.941900 0.637600
-0.899000 0.563100
-0.856000 0.552800
-0.813000 0.331000
-0.770100 0.000000
-0.727100 0.000000
-0.684200 0.000000
-0.641200 0.000000
-0.598200 0.000000
-0.555300 0.000000
-0.512300 0.000000
-0.469300 0.000000
-0.426400 0.000000
-0.383400 0.000000
-0.340500 0.000000
-0.297500 0.000000
-0.254500 0.000000
-0.211600 0.000000
-0.168600 0.000000
-0.125600 0.000000
-0.082700 0.000000
-0.039700 0.000000
0.003200 0.000000
0.046200 0.000000
0.089200 0.000000
0.132100 0.000000
0.175100 0.000000
0.218100 0.000000
0.261000 0.000000
0.304000 0.000000
0.346900 0.000000
0.389900 0.000000
0.432900 0.000000
0.475800 0.000000
0.518800 0.000000
0.561800 0.000000
0.604700 0.000000
0.647700 0.000000
0.690600 0.000000
0.733600 0.000000
0.776600 0.000000
0.819500 0.000000
0.862500 0.000000
0.905400 0.000000
0.948400 0.000000
0.991400 0.000000
1.034300 0.000000
1.077300 0.000000
1.120300 0.000000
1.163200 0.000000
1.206200 0.000000
1.249100 0.000000
1.292100 0.000000
1.335100 0.000000
1.378000 0.000000
1.421000 0.000000
1.464000 0.000000
1.506900 0.000000
1.549900 0.000000
1.592800 0.000000
1.635800 0.000000
1.678800 0.000000
1.721700 0.000000
1.764700 0.000000
1.807700 0.000000
1.850600 0.000000
1.893600 0.000000
1.936500 0.000000
1.979500 0.000000
2.022500 0.007200
2.065400 0.313800
2.108400 1.072300
2.151400 0.813800
2.194300 0.857000
2.237300 0.876600
2.280200 0.888400
2.323200 0.894200
2.366200 0.943600
2.409100 0.989400
2.452100 1.033600
2.495000 1.081000
2.538000 1.125900
2.581000 1.170200
2.623900 1.210900
2.666900 1.264400
2.709900 1.311500
2.752800 1.372600
2.795800 1.441100
2.838700 1.518800
2.881700 1.603100
2.924700 1.706300
2.967600 1.818900
3.010600 1.963400
3.053600 2.167000
3.096500 2.526800
3.139500 3.368700
3.182400 2.541000
3.225400 2.201600
3.268400 1.990700
3.311300 1.906900
3.354300 1.879400
3.397300 1.803800
3.440200 1.699100
3.483200 1.591600
3.526100 1.448200
3.569100 1.316500
3.612100 1.237800
3.655000 1.214000
3.698000 1.217200
3.741000 1.217200
3.783900 1.210300
3.826900 1.218800
3.869800 1.240600
3.912800 1.281200
3.955800 1.360400
3.998700 1.451700
4.041700 1.601100
4.084600 1.738200
4.127600 1.877300
4.170600 2.162500
4.213500 2.446600
4.256500 2.783300
4.299500 3.000100
4.342400 2.944800
4.385400 2.951300
4.428300 2.995100
4.471300 2.880000
4.514300 2.450400
4.557200 2.348000
4.600200 2.269100
4.643200 1.922100
4.686100 1.791200
4.729100 1.782600
4.772000 1.811500
4.815000 1.892600
4.858000 2.724100
4.900900 2.620900
4.943900 2.394900
4.986900 2.034100
5.029800 1.911800
5.072800 1.788700
5.115700 1.672200
5.158700 1.558000
5.201700 1.478600
5.244600 1.392500
5.287600 1.329300
5.330600 1.272900
5.373500 1.217800
5.416500 1.150700
5.459400 1.067200
5.502400 0.840000
5.545400 0.747500
5.588300 0.645400
5.631300 0.556200
5.674200 0.321400
5.717200 0.181100
5.760200 0.150600
5.803100 0.111900
5.846100 0.081900
5.889100 0.049000
5.932000 0.038200
5.975000 0.028200
6.017900 0.016000
6.060900 0.000000
6.103900 0.008000
6.146800 0.013100
6.189800 0.019100
6.232800 0.026000
6.275700 0.057200
6.318700 0.080700
6.361600 0.104900
6.404600 0.141600
6.447600 0.202400
6.490500 0.240300
6.533500 0.288100
6.576500 0.338900
6.619400 0.401500
6.662400 0.466000
6.705300 0.545800
6.748300 0.636300
6.791300 0.739000
6.834200 0.877200
6.877200 1.056100
6.920200 1.035000
6.963100 1.061200
7.006100 1.085200
7.049000 1.109100
7.092000 1.117600
7.135000 1.120200
7.177900 1.143200
7.220900 1.165700
7.263800 1.186800
7.306800 1.221800
7.349800 1.205800
7.392700 1.187700
7.435700 1.189900
7.478700 1.219100
7.521600 1.233300
7.564600 1.217300
7.607500 1.233300
7.650500 1.098400
7.693500 0.938200
7.736400 0.838500
7.779400 0.781800
7.822400 0.731800
7.865300 0.688000
7.908300 0.651200
7.951200 0.620100
7.994200 0.591200
8.037200 0.563800
8.080100 0.534700
8.123100 0.513000
8.166100 0.493000
8.209000 0.474800
8.252000 0.456800
8.294900 0.439200
8.337900 0.423000
8.380900 0.408200
8.423800 0.394600
8.466800 0.381600
8.509800 0.369100
8.552700 0.356900
8.595700 0.345000
8.638600 0.332200
8.681600 0.322300
8.724600 0.312800
8.767500 0.303800
8.810500 0.294400
8.853400 0.284500
8.896400 0.275400
8.939400 0.266400
8.982300 0.258000
9.025300 0.250400
9.068300 0.243000
9.111200 0.235500
9.154200 0.228500
9.197100 0.220500
9.240100 0.211600
9.283100 0.205600
9.326000 0.200000
9.369000 0.193600
9.412000 0.186800
9.454900 0.179000
9.497900 0.171900
9.540800 0.166200
9.583800 0.160700
9.626800 0.154500
9.669700 0.147900
9.712700 0.141600
9.755700 0.135700
9.798600 0.130400
9.841600 0.125600
9.884500 0.118500
9.927500 0.111400
9.970500 0.106100
10.013400 0.098400
10.056400 0.091800
10.099400 0.086400
10.142300 0.082500
10.185300 0.075900
10.228200 0.068700
10.271200 0.060200
10.314200 0.050700
10.357100 0.042600
10.400100 0.036000
10.443000 0.019100
10.486000 0.005700
10.529000 0.000200
10.571900 0.000000
10.614900 0.000000
10.657900 0.000000
10.700800 0.000000
10.743800 0.000000
10.786700 0.000000
10.829700 0.000000
10.872700 0.000000
10.915600 0.000000
10.958600 0.000000
11.001600 0.000000
11.044500 0.000000
11.087500 0.000000
11.130400 0.000000
11.173400 0.000000
11.216400 0.000000
11.259300 0.000000
11.302300 0.000000
11.345300 0.000100
11.388200 0.003100
11.431200 0.010400
11.474100 0.022100
11.517100 0.030900
11.560100 0.084200
11.603000 0.307700
11.646000 0.697000
11.689000 0.860000
11.731900 0.951500
11.774900 1.087200
11.817800 1.270400
11.860800 1.515700
11.903800 1.910900
11.946700 2.405000
11.989700 2.659300
12.032600 2.586000
12.075600 1.815700
12.118600 1.548600
12.161500 1.380400
12.204500 1.248000
12.247500 1.192400
12.290400 1.153700
12.333400 1.123500
12.376300 1.094800
12.419300 1.079400
12.462300 1.128500
12.505200 1.244200
12.548200 1.326200
12.591200 1.284600
12.634100 1.195500
12.677100 1.166500
12.720000 1.135200
12.763000 1.053000
12.806000 0.952600
12.848900 0.872300
12.891900 0.814200
12.934900 0.771300
12.977800 0.730700
13.020800 0.691000
13.063700 0.662000
13.106700 0.642100
13.149700 0.623700
13.192600 0.612800
13.235600 0.600200
13.278600 0.595000
13.321500 0.587100
13.364500 0.587500
13.407400 0.584300
13.450400 0.586500
13.493400 0.603600
13.536300 0.616300
13.579300 0.652500
13.622200 0.691600
13.665200 0.838500
13.708200 2.089300
13.751100 0.264700
13.794100 0.277500
13.837100 0.290400
13.880000 0.322600
13.923000 0.352300
13.965900 0.375300
14.008900 0.403000
14.051900 0.433200
14.094800 0.471300
14.137800 0.520500
14.180800 0.582500
14.223700 0.617400
14.266700 0.648400
14.309600 0.667900
14.352600 0.686100
14.395600 0.690000
14.438500 0.687400
14.481500 0.694900
14.524500 0.705500
14.567400 0.713000
14.610400 0.724200
14.653300 0.735200
14.696300 0.749800
14.739300 0.763000
14.782200 0.776700
14.825200 0.798800
14.868200 0.819600
14.911100 0.844300
14.954100 0.885600
14.997000 0.958200
15.040000 1.131000
15.083000 1.750600
15.125900 2.960800
15.168900 4.106900
15.211800 4.911400
15.254800 3.908900
15.297800 3.294800
15.340700 2.654500
15.383700 2.074700
15.426700 1.749600
15.469600 1.587800
15.512600 1.524900
15.555500 1.504900
15.598500 1.551500
15.641500 1.779800
15.684400 1.745400
15.727400 1.754100
15.770400 1.806700
15.813300 1.862400
15.856300 1.921300
15.899200 1.998300
15.942200 2.107000
15.985200 2.256900
16.028100 2.599900
16.071100 2.639900
16.114100 3.012200
16.157000 2.671200
16.200000 3.322900
16.242900 4.886400
16.285900 3.780400
16.328900 3.095300
16.371800 2.557800
16.414800 2.299900
16.457800 2.142700
16.500700 2.087900
16.543700 1.980100
16.586600 1.818400
16.629600 1.761600
16.672600 1.713900
16.715500 1.695200
16.758500 1.696400
16.801400 1.697200
16.844400 1.721200
16.887400 1.684000
16.930300 1.647900
16.973300 1.598300
17.016300 1.592200
17.059200 1.501500
17.102200 1.434100
17.145100 1.215300
17.188100 0.819700
17.231100 0.724400
17.274000 0.864700
17.317000 1.141800
17.360000 1.689100
17.402900 2.607300
17.445900 2.526700
17.488800 2.496900
17.531800 2.407700
17.574800 2.149500
17.617700 2.096500
17.660700 1.965900
17.703700 1.826600
17.746600 1.729700
17.789600 1.702700
17.832500 1.564000
17.875500 1.470700
17.918500 1.504800
17.961400 1.917900
18.004400 2.402600
18.047400 2.469700
18.090300 2.257800
18.133300 1.984700
18.176200 1.802100
18.219200 1.791800
18.262200 2.155500
18.305100 1.966700
18.348100 2.069100
18.391000 1.894000
18.434000 1.825600
18.477000 1.785700
18.519900 1.768400
18.562900 1.757400
18.605900 1.772700
18.648800 1.899200
18.691800 1.966500
18.734700 2.018200
18.777700 2.147200
18.820700 1.925100
18.863600 1.900200
18.906600 1.908600
18.949600 2.001000
18.992500 1.817600
19.035500 1.896400
19.078400 1.959800
19.121400 2.099200
19.164400 2.296500
19.207300 2.677500
19.250300 2.679500
19.293300 2.555600
19.336200 2.494600
19.379200 1.998800
19.422100 1.508200
19.465100 1.251300
19.508100 1.076800
19.551000 1.026000
19.594000 1.158000
19.637000 1.621800
19.679900 1.913300
19.722900 2.137500
19.765800 2.335500
19.808800 2.430800
19.851800 2.441000
19.894700 2.445000
19.937700 2.476400
19.980600 2.489900
20.023600 2.115600
20.066600 1.937500
20.109500 1.770800
20.152500 1.632400
20.195500 1.550300
20.238400 1.600900
20.281400 1.644900
20.324300 1.679800
20.367300 1.594500
20.410300 1.604900
20.453200 1.608200
20.496200 1.618900
20.539200 1.559700
20.582100 1.541800
20.625100 1.579500
20.668000 1.807600
20.711000 1.699500
20.754000 1.654000
20.796900 1.595700
20.839900 1.599600
20.882900 1.609700
20.925800 1.675600
20.968800 1.809800
21.011700 1.969800
21.054700 2.070300
21.097700 2.188400
21.140600 2.093900
21.183600 2.181600
21.226600 1.507000
21.269500 1.316500
21.312500 1.126800
21.355400 1.039200
21.398400 0.953300
21.441400 0.837600
21.484300 0.775700
21.527300 0.678600
21.570200 0.602700
21.613200 0.537300
21.656200 0.565000
21.699100 0.570300
21.742100 0.593600
21.785100 0.734800
21.828000 0.805500
21.871000 0.915500
21.913900 1.108000
21.956900 1.233700
21.999900 1.410700
22.042800 1.567000
22.085800 1.695200
22.128800 1.788500
22.171700 1.957300
22.214700 2.185900
22.257600 2.487400
22.300600 2.820600
22.343600 3.050400
22.386500 3.443000
22.429500 2.315000
22.472500 2.304100
22.515400 2.477400
22.558400 3.318100
22.601300 2.838000
22.644300 2.229300
22.687300 2.311800
22.730200 2.644400
22.773200 1.976800
22.816200 1.885900
22.859100 1.921600
22.902100 1.941000
22.945000 1.857100
22.988000 1.844800
23.031000 1.903300
23.073900 2.026400
23.116900 2.508600
23.159800 2.644000
23.202800 2.507300
23.245800 2.327800
23.288700 2.287000
23.331700 2.500900
23.374700 2.424700
23.417600 2.125800
23.460600 1.868600
23.503500 1.704800
23.546500 1.554800
23.589500 1.450500
23.632400 1.276000
23.675400 1.060300
23.718400 1.006800
23.761300 1.040500
23.804300 0.929500
23.847200 0.914700
23.890200 0.908300
23.933200 0.909100
23.976100 0.953600
24.019100 1.010000
24.062100 0.833700
24.105000 0.704200
24.148000 0.688200
24.190900 0.827600
24.233900 1.011800
24.276900 1.327000
24.319800 1.283400
24.362800 1.282400
24.405700 1.224800
24.448700 1.211900
24.491700 1.219500
24.534600 1.219400
24.577600 1.224800
24.620600 1.237700
24.663500 1.272300
24.706500 1.284400
24.749400 1.291800
24.792400 1.313300
24.835400 1.416000
24.878300 1.477600
24.921300 1.555800
24.964300 1.591300
25.007200 1.537900
25.050200 1.541500
25.093100 1.579300
25.136100 1.632300
25.179100 1.668200
25.222000 1.736000
25.265000 1.878000
25.308000 1.901000
25.350900 1.939600
25.393900 1.926200
25.436800 1.762900
25.479800 1.780200
25.522800 1.759200
25.565700 1.718100
25.608700 1.691300
25.651700 1.665800
25.694600 1.625900
25.737600 1.582600
25.780500 1.523200
25.823500 1.375500
25.866500 1.275100
25.909400 1.217700
25.952400 1.176100
25.995300 1.145900
26.038300 1.136800
26.081300 1.089600
26.124200 1.073000
26.167200 1.075100
26.210200 1.088200
26.253100 1.110900
26.296100 1.225300
26.339000 1.301100
26.382000 1.378700
26.425000 1.416100
26.467900 1.428400
