set title 'mp-1223984 - Density of States'
set xlabel 'Energy (eV)'
set ylabel 'DOS (states/eV)'
set grid
set xrange [-10:10]
set yrange [0:36.218]
set xzeroaxis lt -1
set terminal png size 800,600
set output 'mp-1223984_dos_gnuplot.png'
plot '-' using 1:2 with lines title 'DOS'
-13.366400 0.000000
-13.344300 0.000000
-13.322200 0.000000
-13.300100 0.000000
-13.278000 0.000000
-13.255900 0.000000
-13.233800 0.000000
-13.211700 0.000000
-13.189600 0.000000
-13.167500 0.000000
-13.145400 0.000000
-13.123300 0.000000
-13.101200 0.000000
-13.079100 0.000000
-13.057000 0.000000
-13.034900 0.000000
-13.012800 0.000000
-12.990700 0.000000
-12.968600 0.000000
-12.946400 0.000000
-12.924300 0.000000
-12.902200 0.000000
-12.880100 0.000000
-12.858000 0.000000
-12.835900 0.000000
-12.813800 0.000000
-12.791700 0.000000
-12.769600 0.000000
-12.747500 0.000000
-12.725400 0.000000
-12.703300 0.000000
-12.681200 0.000000
-12.659100 0.000000
-12.637000 0.000000
-12.614900 0.000000
-12.592800 0.000000
-12.570700 0.000000
-12.548600 0.000000
-12.526400 0.000000
-12.504300 0.000000
-12.482200 0.000000
-12.460100 0.000000
-12.438000 0.000000
-12.415900 0.000000
-12.393800 0.000000
-12.371700 0.000000
-12.349600 0.000000
-12.327500 0.000000
-12.305400 0.000000
-12.283300 0.000000
-12.261200 0.000000
-12.239100 0.000000
-12.217000 0.000000
-12.194900 0.000000
-12.172800 0.000000
-12.150700 0.000000
-12.128600 0.000000
-12.106400 0.000000
-12.084300 0.000000
-12.062200 0.000000
-12.040100 0.000000
-12.018000 0.000000
-11.995900 0.000000
-11.973800 0.000000
-11.951700 0.000000
-11.929600 0.000000
-11.907500 0.000000
-11.885400 0.000000
-11.863300 0.000000
-11.841200 0.000000
-11.819100 0.000000
-11.797000 0.000000
-11.774900 0.000000
-11.752800 0.000000
-11.730700 0.000000
-11.708600 0.000000
-11.686500 0.000000
-11.664300 0.000000
-11.642200 0.000000
-11.620100 0.000000
-11.598000 0.000000
-11.575900 0.000000
-11.553800 0.000000
-11.531700 0.000000
-11.509600 0.000100
-11.487500 0.001400
-11.465400 0.017900
-11.443300 0.159300
-11.421200 1.001200
-11.399100 4.484400
-11.377000 14.491700
-11.354900 34.424000
-11.332800 61.850800
-11.310700 87.798800
-11.288600 104.700500
-11.266500 112.390600
-11.244300 113.585200
-11.222200 107.589000
-11.200100 92.615500
-11.178000 72.196300
-11.155900 55.478600
-11.133800 51.067700
-11.111700 60.334600
-11.089600 75.060300
-11.067500 83.587600
-11.045400 79.984900
-11.023300 65.170700
-11.001200 43.780000
-10.979100 23.053500
-10.957000 9.095700
-10.934900 2.608500
-10.912800 0.533900
-10.890700 0.077100
-10.868600 0.007800
-10.846500 0.000600
-10.824300 0.000000
-10.802200 0.000000
-10.780100 0.000000
-10.758000 0.000000
-10.735900 0.000000
-10.713800 0.000000
-10.691700 0.000000
-10.669600 0.000000
-10.647500 0.000000
-10.625400 0.000000
-10.603300 0.000000
-10.581200 0.000000
-10.559100 0.000000
-10.537000 0.000000
-10.514900 0.000000
-10.492800 0.000000
-10.470700 0.000000
-10.448600 0.000000
-10.426500 0.000000
-10.404400 0.000000
-10.382200 0.000000
-10.360100 0.000000
-10.338000 0.000000
-10.315900 0.000000
-10.293800 0.000000
-10.271700 0.000000
-10.249600 0.000000
-10.227500 0.000000
-10.205400 0.000000
-10.183300 0.000000
-10.161200 0.000000
-10.139100 0.000000
-10.117000 0.000000
-10.094900 0.000000
-10.072800 0.000000
-10.050700 0.000000
-10.028600 0.000000
-10.006500 0.000000
-9.984400 0.000000
-9.962200 0.000000
-9.940100 0.000000
-9.918000 0.000000
-9.895900 0.000000
-9.873800 0.000000
-9.851700 0.000000
-9.829600 0.000000
-9.807500 0.000000
-9.785400 0.000000
-9.763300 0.000000
-9.741200 0.000000
-9.719100 0.000000
-9.697000 0.000000
-9.674900 0.000000
-9.652800 0.000000
-9.630700 0.000000
-9.608600 0.000000
-9.586500 0.000000
-9.564400 0.000000
-9.542200 0.000000
-9.520100 0.000000
-9.498000 0.000000
-9.475900 0.000000
-9.453800 0.000000
-9.431700 0.000000
-9.409600 0.000000
-9.387500 0.000000
-9.365400 0.000000
-9.343300 0.000000
-9.321200 0.000000
-9.299100 0.000000
-9.277000 0.000000
-9.254900 0.000000
-9.232800 0.000000
-9.210700 0.000000
-9.188600 0.000000
-9.166500 0.000000
-9.144400 0.000000
-9.122300 0.000000
-9.100100 0.000000
-9.078000 0.000000
-9.055900 0.000000
-9.033800 0.000000
-9.011700 0.000000
-8.989600 0.000000
-8.967500 0.000000
-8.945400 0.000000
-8.923300 0.000000
-8.901200 0.000000
-8.879100 0.000000
-8.857000 0.000000
-8.834900 0.000000
-8.812800 0.000000
-8.790700 0.000000
-8.768600 0.000000
-8.746500 0.000000
-8.724400 0.000000
-8.702300 0.000000
-8.680100 0.000000
-8.658000 0.000000
-8.635900 0.000000
-8.613800 0.000000
-8.591700 0.000000
-8.569600 0.000000
-8.547500 0.000000
-8.525400 0.000000
-8.503300 0.000000
-8.481200 0.000000
-8.459100 0.000000
-8.437000 0.000000
-8.414900 0.000000
-8.392800 0.000000
-8.370700 0.000000
-8.348600 0.000000
-8.326500 0.000000
-8.304400 0.000000
-8.282300 0.000000
-8.260100 0.000000
-8.238000 0.000000
-8.215900 0.000000
-8.193800 0.000000
-8.171700 0.000000
-8.149600 0.000000
-8.127500 0.000000
-8.105400 0.000000
-8.083300 0.000000
-8.061200 0.000000
-8.039100 0.000000
-8.017000 0.000000
-7.994900 0.000000
-7.972800 0.000000
-7.950700 0.000000
-7.928600 0.000000
-7.906500 0.000000
-7.884400 0.000000
-7.862300 0.000000
-7.840200 0.000000
-7.818000 0.000000
-7.795900 0.000000
-7.773800 0.000000
-7.751700 0.000000
-7.729600 0.000000
-7.707500 0.000000
-7.685400 0.000000
-7.663300 0.000000
-7.641200 0.000000
-7.619100 0.000000
-7.597000 0.000000
-7.574900 0.000000
-7.552800 0.000000
-7.530700 0.000000
-7.508600 0.000000
-7.486500 0.000000
-7.464400 0.000000
-7.442300 0.000000
-7.420200 0.000000
-7.398000 0.000000
-7.375900 0.000000
-7.353800 0.000000
-7.331700 0.000000
-7.309600 0.000000
-7.287500 0.000000
-7.265400 0.000000
-7.243300 0.000000
-7.221200 0.000000
-7.199100 0.000000
-7.177000 0.000000
-7.154900 0.000000
-7.132800 0.000000
-7.110700 0.000000
-7.088600 0.000000
-7.066500 0.000000
-7.044400 0.000000
-7.022300 0.000000
-7.000200 0.000000
-6.978000 0.000000
-6.955900 0.000000
-6.933800 0.000000
-6.911700 0.000000
-6.889600 0.000000
-6.867500 0.000000
-6.845400 0.000000
-6.823300 0.000000
-6.801200 0.000000
-6.779100 0.000000
-6.757000 0.000000
-6.734900 0.000000
-6.712800 0.000000
-6.690700 0.000000
-6.668600 0.000000
-6.646500 0.000000
-6.624400 0.000000
-6.602300 0.000000
-6.580200 0.000000
-6.558100 0.000000
-6.535900 0.000000
-6.513800 0.000000
-6.491700 0.000000
-6.469600 0.000000
-6.447500 0.000000
-6.425400 0.000000
-6.403300 0.000000
-6.381200 0.000000
-6.359100 0.000000
-6.337000 0.000000
-6.314900 0.000000
-6.292800 0.000000
-6.270700 0.000000
-6.248600 0.000000
-6.226500 0.000000
-6.204400 0.000000
-6.182300 0.000000
-6.160200 0.000000
-6.138100 0.000000
-6.115900 0.000000
-6.093800 0.000000
-6.071700 0.000000
-6.049600 0.000000
-6.027500 0.000000
-6.005400 0.000000
-5.983300 0.000000
-5.961200 0.000000
-5.939100 0.000000
-5.917000 0.000000
-5.894900 0.000000
-5.872800 0.000000
-5.850700 0.000000
-5.828600 0.000000
-5.806500 0.000000
-5.784400 0.000000
-5.762300 0.000000
-5.740200 0.000000
-5.718100 0.000000
-5.695900 0.000000
-5.673800 0.000000
-5.651700 0.000000
-5.629600 0.000000
-5.607500 0.000000
-5.585400 0.000000
-5.563300 0.000000
-5.541200 0.000000
-5.519100 0.000000
-5.497000 0.000000
-5.474900 0.000000
-5.452800 0.000000
-5.430700 0.000000
-5.408600 0.000000
-5.386500 0.000000
-5.364400 0.000000
-5.342300 0.000100
-5.320200 0.001000
-5.298100 0.006000
-5.275900 0.025400
-5.253800 0.074100
-5.231700 0.147700
-5.209600 0.202100
-5.187500 0.192700
-5.165400 0.144700
-5.143300 0.147900
-5.121200 0.274000
-5.099100 0.484000
-5.077000 0.614900
-5.054900 0.543400
-5.032800 0.355900
-5.010700 0.255300
-4.988600 0.344600
-4.966500 0.537300
-4.944400 0.641700
-4.922300 0.577200
-4.900200 0.471300
-4.878100 0.479600
-4.856000 0.607400
-4.833800 0.729400
-4.811700 0.731700
-4.789600 0.657500
-4.767500 0.661100
-4.745400 0.801400
-4.723300 0.978200
-4.701200 1.027800
-4.679100 0.871700
-4.657000 0.625400
-4.634900 0.475100
-4.612800 0.470000
-4.590700 0.524800
-4.568600 0.547200
-4.546500 0.538600
-4.524400 0.580000
-4.502300 0.700200
-4.480200 0.824500
-4.458100 0.855000
-4.436000 0.773700
-4.413800 0.695700
-4.391700 0.765200
-4.369600 0.986100
-4.347500 1.193200
-4.325400 1.167800
-4.303300 0.861700
-4.281200 0.494200
-4.259100 0.313100
-4.237000 0.352400
-4.214900 0.476900
-4.192800 0.586300
-4.170700 0.710000
-4.148600 0.863400
-4.126500 0.936200
-4.104400 0.838500
-4.082300 0.650900
-4.060200 0.558100
-4.038100 0.671800
-4.016000 0.938600
-3.993800 1.177600
-3.971700 1.186900
-3.949600 0.932600
-3.927500 0.658600
-3.905400 0.664200
-3.883300 0.966200
-3.861200 1.266200
-3.839100 1.307400
-3.817000 1.180000
-3.794900 1.113300
-3.772800 1.126600
-3.750700 1.093700
-3.728600 1.007100
-3.706500 1.007000
-3.684400 1.146800
-3.662300 1.268000
-3.640200 1.214500
-3.618100 1.050600
-3.596000 0.968200
-3.573900 1.051500
-3.551700 1.187000
-3.529600 1.212800
-3.507500 1.112400
-3.485400 1.003900
-3.463300 0.975200
-3.441200 1.040800
-3.419100 1.246800
-3.397000 1.618600
-3.374900 2.005900
-3.352800 2.182600
-3.330700 2.085400
-3.308600 1.865900
-3.286500 1.731700
-3.264400 1.742000
-3.242300 1.782600
-3.220200 1.723300
-3.198100 1.538000
-3.176000 1.310800
-3.153900 1.208700
-3.131700 1.398000
-3.109600 1.843600
-3.087500 2.231700
-3.065400 2.234300
-3.043300 1.839500
-3.021200 1.379300
-2.999100 1.220300
-2.977000 1.470700
-2.954900 1.986300
-2.932800 2.480100
-2.910700 2.655800
-2.888600 2.472100
-2.866500 2.213200
-2.844400 2.117800
-2.822300 2.089300
-2.800200 1.975900
-2.778100 1.916200
-2.756000 2.143700
-2.733900 2.654600
-2.711700 3.210200
-2.689600 3.508000
-2.667500 3.427600
-2.645400 3.141600
-2.623300 2.818600
-2.601200 2.455800
-2.579100 2.122400
-2.557000 1.971400
-2.534900 2.018000
-2.512800 2.178500
-2.490700 2.424200
-2.468600 2.737000
-2.446500 2.976500
-2.424400 2.962300
-2.402300 2.707000
-2.380200 2.395700
-2.358100 2.144100
-2.336000 1.909200
-2.313900 1.679400
-2.291800 1.649600
-2.269600 1.986700
-2.247500 2.455300
-2.225400 2.587600
-2.203300 2.277900
-2.181200 1.913200
-2.159100 1.831800
-2.137000 1.942300
-2.114900 2.028600
-2.092800 2.133000
-2.070700 2.384800
-2.048600 2.686500
-2.026500 2.801100
-2.004400 2.598900
-1.982300 2.143000
-1.960200 1.710100
-1.938100 1.660000
-1.916000 2.098000
-1.893900 2.779700
-1.871800 3.369600
-1.849600 3.661500
-1.827500 3.668800
-1.805400 3.526100
-1.783300 3.217900
-1.761200 2.684500
-1.739100 2.165500
-1.717000 2.012000
-1.694900 2.230800
-1.672800 2.453300
-1.650700 2.363300
-1.628600 2.048400
-1.606500 1.773100
-1.584400 1.623000
-1.562300 1.607400
-1.540200 1.771100
-1.518100 1.980400
-1.496000 1.914700
-1.473900 1.492900
-1.451800 1.043600
-1.429600 0.870900
-1.407500 0.946500
-1.385400 1.120200
-1.363300 1.305200
-1.341200 1.382200
-1.319100 1.203000
-1.297000 0.799700
-1.274900 0.406200
-1.252800 0.219200
-1.230700 0.286300
-1.208600 0.637900
-1.186500 1.464900
-1.164400 3.173300
-1.142300 6.126600
-1.120200 10.099000
-1.098100 14.116200
-1.076000 17.249200
-1.053900 19.549200
-1.031800 22.004600
-1.009700 25.516300
-0.987500 29.695700
-0.965400 32.768300
-0.943300 32.925300
-0.921200 29.653900
-0.899100 24.033800
-0.877000 18.168000
-0.854900 13.847800
-0.832800 11.475500
-0.810700 10.430500
-0.788600 9.932100
-0.766500 9.322800
-0.744400 8.248600
-0.722300 6.930100
-0.700200 5.958200
-0.678100 5.667800
-0.656000 5.849400
-0.633900 6.118400
-0.611800 6.373100
-0.589700 6.752700
-0.567500 7.211300
-0.545400 7.329700
-0.523300 6.812600
-0.501200 5.960400
-0.479100 5.245100
-0.457000 4.726600
-0.434900 4.250700
-0.412800 3.770900
-0.390700 3.203200
-0.368600 2.460400
-0.346500 1.714500
-0.324400 1.271600
-0.302300 1.244000
-0.280200 1.460800
-0.258100 1.593700
-0.236000 1.401300
-0.213900 0.937000
-0.191800 0.463100
-0.169700 0.166100
-0.147500 0.042600
-0.125400 0.007700
-0.103300 0.001000
-0.081200 0.000100
-0.059100 0.000000
-0.037000 0.000000
-0.014900 0.000000
0.007200 0.000000
0.029300 0.000000
0.051400 0.000000
0.073500 0.000000
0.095600 0.000000
0.117700 0.000000
0.139800 0.000000
0.161900 0.000000
0.184000 0.000000
0.206100 0.000000
0.228200 0.000000
0.250300 0.000000
0.272400 0.000000
0.294600 0.000000
0.316700 0.000000
0.338800 0.000000
0.360900 0.000000
0.383000 0.000000
0.405100 0.000000
0.427200 0.000000
0.449300 0.000000
0.471400 0.000000
0.493500 0.000000
0.515600 0.000100
0.537700 0.000700
0.559800 0.004900
0.581900 0.025500
0.604000 0.090100
0.626100 0.217800
0.648200 0.361000
0.670300 0.411800
0.692400 0.333700
0.714600 0.232400
0.736700 0.233800
0.758800 0.336300
0.780900 0.412300
0.803000 0.359200
0.825100 0.220600
0.847200 0.118600
0.869300 0.127900
0.891400 0.242700
0.913500 0.378600
0.935600 0.426400
0.957700 0.394400
0.979800 0.442600
1.001900 0.684000
1.024000 1.001700
1.046100 1.156500
1.068200 1.082500
1.090300 0.976000
1.112400 1.047000
1.134600 1.268800
1.156700 1.434000
1.178800 1.412600
1.200900 1.326100
1.223000 1.408900
1.245100 1.647700
1.267200 1.742900
1.289300 1.517600
1.311400 1.134200
1.333500 0.875800
1.355600 0.907600
1.377700 1.188600
1.399800 1.536500
1.421900 1.828300
1.444000 2.008000
1.466100 1.939600
1.488200 1.615100
1.510300 1.368500
1.532400 1.478200
1.554500 1.779700
1.576700 1.932700
1.598800 1.831100
1.620900 1.634800
1.643000 1.536900
1.665100 1.552000
1.687200 1.563000
1.709300 1.500200
1.731400 1.368300
1.753500 1.246400
1.775600 1.337300
1.797700 1.769300
1.819800 2.319200
1.841900 2.568300
1.864000 2.321600
1.886100 1.743100
1.908200 1.138600
1.930300 0.717300
1.952400 0.527600
1.974500 0.519400
1.996700 0.594900
2.018800 0.623700
2.040900 0.534800
2.063000 0.427600
2.085100 0.499200
2.107200 0.845700
2.129300 1.350800
2.151400 1.747700
2.173500 1.804500
2.195600 1.498500
2.217700 1.043400
2.239800 0.711400
2.261900 0.584500
2.284000 0.557500
2.306100 0.555900
2.328200 0.591200
2.350300 0.666000
2.372400 0.756000
2.394500 0.818100
2.416700 0.808000
2.438800 0.727500
2.460900 0.611900
2.483000 0.529600
2.505100 0.597800
2.527200 0.852000
2.549300 1.113000
2.571400 1.131600
2.593500 0.881400
2.615600 0.570600
2.637700 0.358800
2.659800 0.239500
2.681900 0.191500
2.704000 0.263600
2.726100 0.473900
2.748200 0.707000
2.770300 0.781500
2.792400 0.650300
2.814500 0.455700
2.836600 0.344100
2.858800 0.343200
2.880900 0.448300
2.903000 0.676900
2.925100 1.009000
2.947200 1.375400
2.969300 1.626600
2.991400 1.545500
3.013500 1.131200
3.035600 0.737600
3.057700 0.726100
3.079800 1.142600
3.101900 1.739700
3.124000 2.171000
3.146100 2.249200
3.168200 2.081700
3.190300 1.853700
3.212400 1.583800
3.234500 1.247100
3.256600 0.922100
3.278800 0.698300
3.300900 0.620100
3.323000 0.704500
3.345100 0.931100
3.367200 1.253900
3.389300 1.607900
3.411400 1.927300
3.433500 2.171300
3.455600 2.303900
3.477700 2.312100
3.499800 2.232400
3.521900 2.075100
3.544000 1.792900
3.566100 1.374900
3.588200 0.900400
3.610300 0.508800
3.632400 0.352700
3.654500 0.534800
3.676600 1.017600
3.698800 1.609200
3.720900 2.171900
3.743000 2.719200
3.765100 3.106400
3.787200 3.041900
3.809300 2.638400
3.831400 2.365700
3.853500 2.337200
3.875600 2.230500
3.897700 1.941400
3.919800 1.781400
3.941900 1.986300
3.964000 2.407100
3.986100 2.747500
4.008200 2.927500
4.030300 3.068000
4.052400 3.202800
4.074500 3.247100
4.096600 3.189500
4.118800 3.103800
4.140900 3.016700
4.163000 2.895000
4.185100 2.704200
4.207200 2.420700
4.229300 2.054300
4.251400 1.699800
4.273500 1.484600
4.295600 1.391900
4.317700 1.280200
4.339800 1.110200
4.361900 0.973900
4.384000 0.969700
4.406100 1.130400
4.428200 1.364100
4.450300 1.514900
4.472400 1.537900
4.494500 1.480800
4.516600 1.349100
4.538700 1.193200
4.560900 1.204600
4.583000 1.552400
4.605100 2.224900
4.627200 3.063500
4.649300 3.813300
4.671400 4.221100
4.693500 4.252900
4.715600 4.110200
4.737700 3.998800
4.759800 3.962800
4.781900 3.875500
4.804000 3.582600
4.826100 3.118900
4.848200 2.702600
4.870300 2.482200
4.892400 2.349500
4.914500 2.057800
4.936600 1.540900
4.958700 1.005300
4.980900 0.708700
5.003000 0.765600
5.025100 1.122100
5.047200 1.615700
5.069300 2.016700
5.091400 2.121600
5.113500 1.923700
5.135600 1.613100
5.157700 1.345000
5.179800 1.090300
5.201900 0.794400
5.224000 0.589500
5.246100 0.670500
5.268200 1.017400
5.290300 1.388200
5.312400 1.572100
5.334500 1.590400
5.356600 1.696000
5.378700 2.178300
5.400900 2.995600
5.423000 3.627700
5.445100 3.581900
5.467200 3.022700
5.489300 2.574700
5.511400 2.566900
5.533500 2.725600
5.555600 2.601700
5.577700 2.205600
5.599800 2.027900
5.621900 2.330000
5.644000 2.753800
5.666100 2.843400
5.688200 2.612600
5.710300 2.382800
5.732400 2.331100
5.754500 2.355200
5.776600 2.268200
5.798700 2.026000
5.820800 1.724600
5.843000 1.501300
5.865100 1.492500
5.887200 1.708200
5.909300 1.963000
5.931400 2.122400
5.953500 2.279600
5.975600 2.478100
5.997700 2.571700
6.019800 2.520200
6.041900 2.462000
6.064000 2.464400
6.086100 2.433400
6.108200 2.269200
6.130300 2.013400
6.152400 1.769500
6.174500 1.573100
6.196600 1.457000
6.218700 1.516000
6.240800 1.762500
6.263000 1.992100
6.285100 1.987600
6.307200 1.800400
6.329300 1.635100
6.351400 1.607000
6.373500 1.753400
6.395600 2.074900
6.417700 2.441300
6.439800 2.607900
6.461900 2.465000
6.484000 2.196000
6.506100 2.047800
6.528200 2.012600
6.550300 1.926700
6.572400 1.791200
6.594500 1.723000
6.616600 1.705800
6.638700 1.696800
6.660800 1.813400
6.683000 2.139500
6.705100 2.575300
6.727200 3.008900
6.749300 3.352800
6.771400 3.442900
6.793500 3.216700
6.815600 2.858100
6.837700 2.506700
6.859800 2.135700
6.881900 1.826600
6.904000 1.764600
6.926100 2.008300
6.948200 2.475900
6.970300 2.973900
6.992400 3.236700
7.014500 3.117200
7.036600 2.683800
7.058700 2.129900
7.080800 1.683700
7.102900 1.500900
7.125100 1.553500
7.147200 1.692200
7.169300 1.783200
7.191400 1.750000
7.213500 1.618300
7.235600 1.546900
7.257700 1.738500
7.279800 2.283100
7.301900 2.993000
7.324000 3.453600
7.346100 3.420900
7.368200 3.052600
7.390300 2.637600
7.412400 2.279300
7.434500 1.948000
7.456600 1.673700
7.478700 1.474600
7.500800 1.293700
7.522900 1.210100
7.545100 1.443700
7.567200 2.051200
7.589300 2.811700
7.611400 3.375600
7.633500 3.504900
7.655600 3.286600
7.677700 2.985500
7.699800 2.656400
7.721900 2.254700
7.744000 2.021800
7.766100 2.237700
7.788200 2.697000
7.810300 2.840900
7.832400 2.374700
7.854500 1.582100
7.876600 1.014400
7.898700 0.965200
7.920800 1.324300
7.942900 1.867500
7.965100 2.484500
7.987200 3.067400
8.009300 3.451200
8.031400 3.584600
8.053500 3.542300
8.075600 3.403800
8.097700 3.267600
8.119800 3.219900
8.141900 3.227900
8.164000 3.155300
8.186100 2.879000
8.208200 2.436700
8.230300 2.002600
8.252400 1.633100
8.274500 1.266900
8.296600 0.972000
8.318700 0.870600
8.340800 0.951100
8.362900 1.227400
8.385000 1.848000
8.407200 2.808400
8.429300 3.724700
8.451400 4.114600
8.473500 3.929500
8.495600 3.637400
8.517700 3.640300
8.539800 3.785200
8.561900 3.656300
8.584000 3.159600
8.606100 2.560100
8.628200 2.116400
8.650300 1.884300
8.672400 1.754700
8.694500 1.614700
8.716600 1.520500
8.738700 1.643700
8.760800 2.003800
8.782900 2.370500
8.805000 2.530400
8.827200 2.524700
8.849300 2.521400
8.871400 2.607000
8.893500 2.802300
8.915600 3.173300
8.937700 3.719500
8.959800 4.144700
8.981900 4.088100
9.004000 3.609200
9.026100 3.068300
9.048200 2.633200
9.070300 2.264100
9.092400 2.027700
9.114500 2.036900
9.136600 2.180900
9.158700 2.260600
9.180800 2.266700
9.202900 2.261200
9.225000 2.187300
9.247200 2.003300
9.269300 1.813700
9.291400 1.797000
9.313500 2.040900
9.335600 2.359600
9.357700 2.418500
9.379800 2.186300
9.401900 1.996700
9.424000 2.072500
9.446100 2.286800
9.468200 2.405200
9.490300 2.330900
9.512400 2.152600
9.534500 2.081900
9.556600 2.346600
9.578700 3.030300
9.600800 3.842000
9.622900 4.200500
9.645000 3.884100
9.667100 3.381000
9.689300 3.203500
9.711400 3.216700
9.733500 3.036400
9.755600 2.662600
9.777700 2.404000
9.799800 2.472800
9.821900 2.778100
9.844000 2.997700
