set title 'mp-510436 - Density of States'
set xlabel 'Energy (eV)'
set ylabel 'DOS (states/eV)'
set grid
set xrange [-10:10]
set yrange [0:187.272]
set xzeroaxis lt -1
set terminal png size 800,600
set output 'mp-510436_dos_gnuplot.png'
plot '-' using 1:2 with lines title 'DOS'
-9.645000 0.000000
-9.627000 0.000000
-9.609000 0.000000
-9.591100 0.000000
-9.573100 0.000000
-9.555100 0.000000
-9.537200 0.000000
-9.519200 0.000000
-9.501200 0.000000
-9.483300 0.000000
-9.465300 0.000000
-9.447300 0.000000
-9.429400 0.000000
-9.411400 0.000000
-9.393400 0.000000
-9.375500 0.000000
-9.357500 0.000000
-9.339500 0.000000
-9.321600 0.000000
-9.303600 0.000000
-9.285600 0.000000
-9.267600 0.000000
-9.249700 0.000000
-9.231700 0.000000
-9.213700 0.000000
-9.195800 0.000000
-9.177800 0.000000
-9.159800 0.000000
-9.141900 0.000000
-9.123900 0.000000
-9.105900 0.000000
-9.088000 0.000000
-9.070000 0.000000
-9.052000 0.000000
-9.034100 0.000000
-9.016100 0.000000
-8.998100 0.000000
-8.980200 0.000000
-8.962200 0.000000
-8.944200 0.000000
-8.926300 0.000000
-8.908300 0.000000
-8.890300 0.000000
-8.872400 0.000000
-8.854400 0.000000
-8.836400 0.000000
-8.818500 0.000000
-8.800500 0.000000
-8.782500 0.000000
-8.764600 0.000000
-8.746600 0.000000
-8.728600 0.000000
-8.710700 0.000000
-8.692700 0.000000
-8.674700 0.000000
-8.656800 0.000000
-8.638800 0.000000
-8.620800 0.000000
-8.602900 0.000000
-8.584900 0.000000
-8.566900 0.000000
-8.549000 0.000000
-8.531000 0.000000
-8.513000 0.000000
-8.495100 0.000000
-8.477100 0.000000
-8.459100 0.000000
-8.441200 0.000000
-8.423200 0.000000
-8.405200 0.000000
-8.387300 0.000000
-8.369300 0.000000
-8.351300 0.000000
-8.333400 0.000000
-8.315400 0.000000
-8.297400 0.000000
-8.279500 0.000000
-8.261500 0.000000
-8.243500 0.000000
-8.225500 0.000000
-8.207600 0.000000
-8.189600 0.000000
-8.171600 0.000000
-8.153700 0.000000
-8.135700 0.000000
-8.117700 0.000000
-8.099800 0.000000
-8.081800 0.000000
-8.063800 0.000000
-8.045900 0.000000
-8.027900 0.000000
-8.009900 0.349400
-7.992000 31.073700
-7.974000 76.993100
-7.956000 149.059100
-7.938100 170.247500
-7.920100 30.937600
-7.902100 31.181300
-7.884200 31.615100
-7.866200 28.276700
-7.848200 4.612500
-7.830300 0.000000
-7.812300 0.000000
-7.794300 0.000000
-7.776400 0.000000
-7.758400 0.000000
-7.740400 0.000000
-7.722500 0.000000
-7.704500 0.000000
-7.686500 0.000000
-7.668600 0.000000
-7.650600 0.000000
-7.632600 0.000000
-7.614700 0.000000
-7.596700 0.000000
-7.578700 0.000000
-7.560800 0.000000
-7.542800 0.000000
-7.524800 0.000000
-7.506900 0.000000
-7.488900 0.000000
-7.470900 0.000000
-7.453000 0.000000
-7.435000 0.000000
-7.417000 0.000000
-7.399100 0.000000
-7.381100 0.000000
-7.363100 0.000000
-7.345200 0.000000
-7.327200 0.000000
-7.309200 0.000000
-7.291300 0.000000
-7.273300 0.000000
-7.255300 0.000000
-7.237300 0.000000
-7.219400 0.000000
-7.201400 0.000000
-7.183400 0.000000
-7.165500 0.000000
-7.147500 0.000000
-7.129500 0.000000
-7.111600 0.000000
-7.093600 0.000000
-7.075600 0.000000
-7.057700 0.000000
-7.039700 0.000000
-7.021700 0.000000
-7.003800 0.000000
-6.985800 0.000000
-6.967800 0.000000
-6.949900 0.000000
-6.931900 0.000000
-6.913900 0.000000
-6.896000 0.000000
-6.878000 0.000000
-6.860000 0.000000
-6.842100 0.000000
-6.824100 0.000000
-6.806100 0.000000
-6.788200 0.000000
-6.770200 0.000000
-6.752200 0.000000
-6.734300 0.000000
-6.716300 0.000000
-6.698300 0.000000
-6.680400 0.000000
-6.662400 0.000000
-6.644400 0.000000
-6.626500 0.000000
-6.608500 0.000000
-6.590500 0.000000
-6.572600 0.000000
-6.554600 0.000000
-6.536600 0.000000
-6.518700 0.000000
-6.500700 0.000000
-6.482700 0.000000
-6.464800 0.000000
-6.446800 0.000000
-6.428800 0.000000
-6.410900 0.000000
-6.392900 0.000000
-6.374900 0.000000
-6.357000 0.000000
-6.339000 0.000000
-6.321000 0.000000
-6.303100 0.000000
-6.285100 0.000000
-6.267100 0.000000
-6.249200 0.000000
-6.231200 0.000000
-6.213200 0.000000
-6.195200 0.000000
-6.177300 0.000000
-6.159300 0.000000
-6.141300 0.000000
-6.123400 0.000000
-6.105400 0.000000
-6.087400 0.000000
-6.069500 0.000000
-6.051500 0.000000
-6.033500 0.000000
-6.015600 0.000000
-5.997600 0.000000
-5.979600 0.000000
-5.961700 0.000000
-5.943700 0.000000
-5.925700 0.000000
-5.907800 0.000000
-5.889800 0.000000
-5.871800 0.000000
-5.853900 0.000000
-5.835900 0.000000
-5.817900 0.000000
-5.800000 0.000000
-5.782000 0.000000
-5.764000 0.000000
-5.746100 0.000000
-5.728100 0.000000
-5.710100 0.000000
-5.692200 0.000000
-5.674200 0.000000
-5.656200 0.000000
-5.638300 0.000000
-5.620300 0.000000
-5.602300 0.000000
-5.584400 0.000000
-5.566400 0.000000
-5.548400 0.000000
-5.530500 0.000000
-5.512500 0.000000
-5.494500 0.000000
-5.476600 0.000000
-5.458600 0.000000
-5.440600 0.000000
-5.422700 0.000000
-5.404700 0.000000
-5.386700 0.000000
-5.368800 0.000000
-5.350800 0.000000
-5.332800 0.000000
-5.314900 0.000000
-5.296900 0.000000
-5.278900 0.000000
-5.261000 0.000000
-5.243000 0.000000
-5.225000 0.000000
-5.207000 0.000000
-5.189100 0.000000
-5.171100 0.000000
-5.153100 0.000000
-5.135200 0.000000
-5.117200 0.000000
-5.099200 0.000000
-5.081300 0.000000
-5.063300 0.000000
-5.045300 0.000000
-5.027400 0.000000
-5.009400 0.000000
-4.991400 0.000000
-4.973500 0.000000
-4.955500 0.000000
-4.937500 0.000000
-4.919600 0.000000
-4.901600 0.000000
-4.883600 0.000000
-4.865700 0.000000
-4.847700 0.000000
-4.829700 0.000000
-4.811800 0.000000
-4.793800 0.000000
-4.775800 0.000000
-4.757900 0.000000
-4.739900 0.000000
-4.721900 0.000000
-4.704000 0.000000
-4.686000 0.000000
-4.668000 0.000000
-4.650100 0.000000
-4.632100 0.000000
-4.614100 0.000000
-4.596200 0.000000
-4.578200 0.000000
-4.560200 0.000000
-4.542300 0.000000
-4.524300 0.000000
-4.506300 0.000000
-4.488400 0.000000
-4.470400 0.000000
-4.452400 0.000000
-4.434500 0.000000
-4.416500 0.000000
-4.398500 0.000000
-4.380600 0.000000
-4.362600 0.000000
-4.344600 0.000000
-4.326700 0.000000
-4.308700 0.000000
-4.290700 0.000000
-4.272800 0.000000
-4.254800 0.000000
-4.236800 0.000000
-4.218900 0.000000
-4.200900 0.000000
-4.182900 0.000000
-4.164900 0.000000
-4.147000 0.000000
-4.129000 0.000000
-4.111000 0.000000
-4.093100 0.000000
-4.075100 0.000000
-4.057100 0.000000
-4.039200 0.000000
-4.021200 0.000000
-4.003200 0.000000
-3.985300 0.000000
-3.967300 0.000000
-3.949300 0.000000
-3.931400 0.000000
-3.913400 0.000000
-3.895400 0.000000
-3.877500 0.000000
-3.859500 0.000000
-3.841500 0.000000
-3.823600 0.000000
-3.805600 0.000000
-3.787600 0.000000
-3.769700 0.000000
-3.751700 0.000000
-3.733700 0.000000
-3.715800 0.000000
-3.697800 0.000000
-3.679800 0.000000
-3.661900 0.000000
-3.643900 0.000000
-3.625900 0.000000
-3.608000 0.000000
-3.590000 0.000000
-3.572000 0.000000
-3.554100 0.000000
-3.536100 0.000000
-3.518100 0.000000
-3.500200 0.000000
-3.482200 0.000000
-3.464200 0.000000
-3.446300 0.000000
-3.428300 0.000000
-3.410300 0.000000
-3.392400 0.000000
-3.374400 0.000000
-3.356400 0.000000
-3.338500 0.000000
-3.320500 0.000000
-3.302500 0.000000
-3.284600 0.000000
-3.266600 0.000000
-3.248600 0.000000
-3.230700 0.000000
-3.212700 0.000000
-3.194700 0.000000
-3.176700 0.000000
-3.158800 0.000000
-3.140800 0.000000
-3.122800 0.000000
-3.104900 0.000000
-3.086900 0.000000
-3.068900 0.000000
-3.051000 0.000000
-3.033000 0.000000
-3.015000 0.000000
-2.997100 0.000000
-2.979100 0.000000
-2.961100 0.000000
-2.943200 0.000000
-2.925200 0.000000
-2.907200 0.000000
-2.889300 0.000000
-2.871300 0.000000
-2.853300 0.000000
-2.835400 0.000000
-2.817400 0.000000
-2.799400 0.000000
-2.781500 0.000000
-2.763500 0.000000
-2.745500 0.000000
-2.727600 0.000000
-2.709600 0.000000
-2.691600 0.000000
-2.673700 0.000000
-2.655700 0.000000
-2.637700 0.000000
-2.619800 0.000000
-2.601800 0.000000
-2.583800 0.000000
-2.565900 0.000000
-2.547900 0.000000
-2.529900 0.000000
-2.512000 0.000000
-2.494000 0.000000
-2.476000 0.000000
-2.458100 0.000000
-2.440100 0.000000
-2.422100 0.000000
-2.404200 0.000000
-2.386200 0.000000
-2.368200 0.000000
-2.350300 0.000000
-2.332300 0.000700
-2.314300 0.013900
-2.296400 0.043500
-2.278400 0.079800
-2.260400 0.100600
-2.242500 0.105700
-2.224500 0.110100
-2.206500 0.120200
-2.188600 0.134500
-2.170600 0.149600
-2.152600 0.164900
-2.134600 0.176200
-2.116700 0.181400
-2.098700 0.183800
-2.080700 0.188500
-2.062800 0.195900
-2.044800 0.203900
-2.026800 0.211700
-2.008900 0.219400
-1.990900 0.227000
-1.972900 0.234700
-1.955000 0.243000
-1.937000 0.252200
-1.919000 0.260300
-1.901100 0.266300
-1.883100 0.270800
-1.865100 0.275200
-1.847200 0.280500
-1.829200 0.286100
-1.811200 0.291800
-1.793300 0.297300
-1.775300 0.302600
-1.757300 0.308000
-1.739400 0.314100
-1.721400 0.320800
-1.703400 0.327700
-1.685500 0.334700
-1.667500 0.341900
-1.649500 0.349100
-1.631600 0.356000
-1.613600 0.362000
-1.595600 0.367200
-1.577700 0.372300
-1.559700 0.377200
-1.541700 0.382000
-1.523800 0.387300
-1.505800 0.392900
-1.487800 0.398600
-1.469900 0.404400
-1.451900 0.410300
-1.433900 0.416400
-1.416000 0.422700
-1.398000 0.429100
-1.380000 0.435600
-1.362100 0.442100
-1.344100 0.448700
-1.326100 0.455200
-1.308200 0.461800
-1.290200 0.468500
-1.272200 0.475300
-1.254300 0.482000
-1.236300 0.488900
-1.218300 0.496200
-1.200400 0.503500
-1.182400 0.510600
-1.164400 0.517700
-1.146400 0.524900
-1.128500 0.532300
-1.110500 0.539700
-1.092500 0.547200
-1.074600 0.554700
-1.056600 0.562300
-1.038600 0.570000
-1.020700 0.577900
-1.002700 0.586000
-0.984700 0.594400
-0.966800 0.603300
-0.948800 0.612700
-0.930800 0.622500
-0.912900 0.632300
-0.894900 0.642400
-0.876900 0.654000
-0.859000 0.667100
-0.841000 0.680300
-0.823000 0.693200
-0.805100 0.706500
-0.787100 0.720100
-0.769100 0.734500
-0.751200 0.749800
-0.733200 0.765300
-0.715200 0.781200
-0.697300 0.797900
-0.679300 0.814900
-0.661300 0.833100
-0.643400 0.852600
-0.625400 0.872400
-0.607400 0.892800
-0.589500 0.914000
-0.571500 1.015100
-0.553500 1.101600
-0.535600 1.071500
-0.517600 1.077400
-0.499600 1.099700
-0.481700 1.121300
-0.463700 1.126700
-0.445700 1.124600
-0.427800 1.138700
-0.409800 1.199600
-0.391800 1.249400
-0.373900 1.237800
-0.355900 1.264900
-0.337900 1.291800
-0.320000 1.306600
-0.302000 1.454700
-0.284000 1.580000
-0.266100 1.675900
-0.248100 1.764700
-0.230100 1.855800
-0.212200 1.989800
-0.194200 2.152300
-0.176200 2.324500
-0.158300 2.630000
-0.140300 3.071300
-0.122300 3.075400
-0.104300 3.113100
-0.086400 3.146400
-0.068400 2.541900
-0.050400 2.245800
-0.032500 2.184400
-0.014500 1.711300
0.003500 1.523100
0.021400 1.339400
0.039400 1.207500
0.057400 1.104600
0.075300 0.977000
0.093300 0.895700
0.111300 0.820700
0.129200 0.747500
0.147200 0.677400
0.165200 0.617700
0.183100 0.568500
0.201100 0.519000
0.219100 0.463300
0.237000 0.407900
0.255000 0.363900
0.273000 0.320000
0.290900 0.282000
0.308900 0.221200
0.326900 0.166500
0.344800 0.122400
0.362800 0.080100
0.380800 0.000000
0.398700 0.000000
0.416700 0.000000
0.434700 0.000000
0.452600 0.000000
0.470600 0.000000
0.488600 0.000000
0.506500 0.000000
0.524500 0.000000
0.542500 0.000000
0.560400 0.000000
0.578400 0.000000
0.596400 0.000000
0.614300 0.000000
0.632300 0.000000
0.650300 0.000000
0.668200 0.000000
0.686200 0.000000
0.704200 0.000000
0.722100 0.000000
0.740100 0.000000
0.758100 0.000000
0.776000 0.000000
0.794000 0.000000
0.812000 0.000000
0.829900 0.000000
0.847900 0.000000
0.865900 0.029100
0.883800 0.088100
0.901800 0.140700
0.919800 0.166200
0.937800 0.191600
0.955700 0.204100
0.973700 0.217200
0.991700 0.243700
1.009600 0.270400
1.027600 0.288600
1.045600 0.302400
1.063500 0.317700
1.081500 0.333300
1.099500 0.355400
1.117400 0.377500
1.135400 0.400100
1.153400 0.423400
1.171300 0.449100
1.189300 0.475200
1.207300 0.500900
1.225200 0.524400
1.243200 0.546100
1.261200 0.571200
1.279100 0.598200
1.297100 0.625900
1.315100 0.655300
1.333000 0.688700
1.351000 0.724400
1.369000 0.760600
1.386900 0.801000
1.404900 0.893500
1.422900 1.023700
1.440800 1.098000
1.458800 1.167600
1.476800 1.269400
1.494700 1.386500
1.512700 1.499300
1.530700 1.614400
1.548600 1.772600
1.566600 2.559600
1.584600 3.206300
1.602500 4.046200
1.620500 3.766200
1.638500 3.853400
1.656400 3.943500
1.674400 4.030000
1.692400 4.186100
1.710300 4.293200
1.728300 4.415200
1.746300 4.498200
1.764200 4.654300
1.782200 4.783000
1.800200 4.809000
1.818100 4.364800
1.836100 3.689700
1.854100 3.093100
1.872000 2.824700
1.890000 2.386600
1.908000 1.998200
1.926000 1.607900
1.943900 1.359600
1.961900 1.332600
1.979900 1.048200
1.997800 1.135400
2.015800 1.235000
2.033800 1.350600
2.051700 1.442300
2.069700 1.699200
2.087700 2.670300
2.105600 4.244000
2.123600 4.242900
2.141600 4.457000
2.159500 4.751300
2.177500 5.092400
2.195500 5.093100
2.213400 5.998300
2.231400 8.368400
2.249400 10.185800
2.267300 8.026300
2.285300 7.467400
2.303300 7.008200
2.321200 7.375700
2.339200 7.124900
2.357200 5.850200
2.375100 5.746400
2.393100 7.215800
2.411100 9.238500
2.429000 7.698900
2.447000 7.403600
2.465000 7.197500
2.482900 7.109300
2.500900 7.234600
2.518900 8.794300
2.536800 9.463900
2.554800 9.611900
2.572800 9.257400
2.590700 8.450200
2.608700 8.701600
2.626700 8.986600
2.644600 10.127700
2.662600 11.119700
2.680600 10.317500
2.698500 9.340900
2.716500 9.291000
2.734500 9.424200
2.752400 10.578500
2.770400 10.986100
2.788400 10.550000
2.806300 9.845800
2.824300 8.372000
2.842300 8.385900
2.860200 7.456000
2.878200 7.276200
2.896200 7.192800
2.914100 7.183700
2.932100 7.464000
2.950100 7.803100
2.968100 8.461700
2.986000 9.001100
3.004000 8.724500
3.022000 8.192400
3.039900 7.135900
3.057900 6.586900
3.075900 5.770500
3.093800 5.226100
3.111800 5.553200
3.129800 5.849700
3.147700 6.565600
3.165700 6.761700
3.183700 6.893100
3.201600 7.102400
3.219600 7.090300
3.237600 6.993300
3.255500 6.853800
3.273500 6.175800
3.291500 6.271300
3.309400 6.625100
3.327400 7.391600
3.345400 7.592600
3.363300 7.476700
3.381300 7.102300
3.399300 7.158300
3.417200 7.571400
3.435200 7.393200
3.453200 7.067000
3.471100 6.991100
3.489100 6.802500
3.507100 6.721300
3.525000 7.098200
3.543000 7.315000
3.561000 7.266800
3.578900 8.677100
3.596900 8.675800
3.614900 9.225800
3.632800 9.281100
3.650800 9.101100
3.668800 8.861800
3.686700 8.268900
3.704700 8.133200
3.722700 8.019200
3.740600 7.964900
3.758600 8.078900
3.776600 8.233500
3.794500 8.417700
3.812500 8.170200
3.830500 9.372200
3.848400 6.707700
3.866400 6.734400
3.884400 6.730900
3.902300 6.698300
3.920300 6.856600
3.938300 6.423300
3.956300 6.117200
3.974200 5.503900
3.992200 4.916500
4.010200 4.380500
4.028100 4.377000
4.046100 4.472100
4.064100 4.659900
4.082000 5.213600
4.100000 5.480900
4.118000 5.410700
4.135900 5.440200
4.153900 5.389100
4.171900 5.271700
4.189800 5.487500
4.207800 5.436100
4.225800 5.414800
4.243700 5.206400
4.261700 4.936000
4.279700 4.759700
4.297600 4.720000
4.315600 4.865000
4.333600 5.055700
4.351500 5.252000
4.369500 5.618900
4.387500 5.684400
4.405400 6.011300
4.423400 6.455500
4.441400 7.146800
4.459300 7.251800
4.477300 7.732900
4.495300 8.200400
4.513200 8.338200
4.531200 8.441800
4.549200 8.782500
4.567100 8.974700
4.585100 9.210800
4.603100 10.350200
4.621000 10.987800
4.639000 11.504800
4.657000 11.735800
4.674900 11.482100
4.692900 10.955000
4.710900 10.208900
4.728800 12.552900
4.746800 12.922600
4.764800 10.570600
4.782700 11.530400
4.800700 16.356200
4.818700 17.327000
4.836600 18.622300
4.854600 14.143600
4.872600 11.487600
4.890500 10.820900
4.908500 10.025100
4.926500 8.785500
4.944400 7.830100
4.962400 7.214400
4.980400 6.388800
4.998400 5.973500
5.016300 5.758800
5.034300 5.869600
5.052300 5.859400
5.070200 6.061900
5.088200 6.326600
5.106200 6.334100
5.124100 6.613300
5.142100 6.984700
5.160100 7.655400
5.178000 8.321400
5.196000 8.868400
5.214000 9.075800
5.231900 8.967500
5.249900 8.666100
5.267900 8.436200
5.285800 8.510600
5.303800 8.267100
5.321800 7.177400
5.339700 6.595300
5.357700 6.501100
5.375700 6.244400
5.393600 5.248200
5.411600 4.913700
5.429600 5.273900
5.447500 5.428600
5.465500 5.449700
5.483500 5.480100
5.501400 4.894300
5.519400 4.683300
5.537400 4.543600
5.555300 4.297600
5.573300 4.185500
5.591300 4.193600
5.609200 4.439300
5.627200 4.064300
5.645200 3.848800
5.663100 4.007500
5.681100 4.213700
5.699100 3.839500
5.717000 4.596100
5.735000 3.644800
5.753000 3.704900
5.770900 3.820600
5.788900 4.064500
5.806900 4.648800
5.824800 4.802200
5.842800 5.084000
5.860800 5.174800
5.878700 5.466700
5.896700 5.951600
5.914700 5.831400
5.932600 6.010100
5.950600 5.921700
5.968600 5.927900
5.986600 5.884000
6.004500 5.052200
6.022500 4.770500
6.040500 4.456700
6.058400 4.308100
6.076400 4.040300
6.094400 3.885300
6.112300 3.599200
6.130300 3.577000
6.148300 3.617900
6.166200 3.569000
6.184200 3.227000
6.202200 2.908900
6.220100 2.705100
6.238100 2.543000
6.256100 2.511200
6.274000 2.631200
6.292000 2.995600
6.310000 2.320400
6.327900 1.953300
6.345900 1.575600
6.363900 1.349300
6.381800 1.284400
6.399800 1.233200
6.417800 1.178900
6.435700 1.137200
6.453700 1.090400
6.471700 1.017800
6.489600 0.980700
6.507600 0.948400
6.525600 0.923300
6.543500 0.899900
6.561500 0.881200
6.579500 0.863000
6.597400 0.844800
6.615400 0.824700
6.633400 0.800600
6.651300 0.772000
6.669300 0.733900
6.687300 0.723300
6.705200 0.713500
6.723200 0.702500
6.741200 0.692700
6.759100 0.683800
6.777100 0.673700
6.795100 0.662200
6.813000 0.650200
6.831000 0.638000
6.849000 0.624100
6.866900 0.610600
6.884900 0.601600
6.902900 0.585700
6.920800 0.572200
6.938800 0.559400
6.956800 0.593600
6.974700 0.593100
6.992700 0.747100
7.010700 0.769700
7.028700 0.775200
7.046600 0.762400
7.064600 0.742900
7.082600 0.712300
7.100500 0.611000
7.118500 0.581200
7.136500 0.571100
7.154400 0.568900
7.172400 0.567400
7.190400 0.569200
7.208300 0.573200
7.226300 0.577900
7.244300 0.586900
7.262200 0.596000
7.280200 0.612100
7.298200 0.646400
7.316100 0.681700
7.334100 0.713500
7.352100 0.749200
7.370000 0.843900
7.388000 0.890600
7.406000 0.985100
7.423900 1.090700
7.441900 1.175800
7.459900 1.240200
7.477800 1.286600
7.495800 1.350000
7.513800 1.398400
7.531700 1.502200
7.549700 1.493800
7.567700 1.520700
7.585600 1.578600
7.603600 1.630300
7.621600 1.678200
7.639500 1.719200
7.657500 1.770900
7.675500 1.650000
7.693400 1.673900
7.711400 1.688400
7.729400 1.681100
7.747300 1.692700
7.765300 1.728700
7.783300 1.763600
7.801200 1.799900
7.819200 1.839700
7.837200 1.865500
7.855100 1.875800
7.873100 1.864900
7.891100 1.853400
7.909000 1.825700
7.927000 1.785200
7.945000 1.748800
7.962900 1.723100
7.980900 1.703400
7.998900 1.686800
8.016900 1.665700
8.034800 1.637800
8.052800 1.614400
8.070800 1.604900
8.088700 1.560800
8.106700 1.521100
8.124700 1.476300
8.142600 1.430200
8.160600 1.389900
8.178600 1.367000
8.196500 1.358800
8.214500 1.351800
8.232500 1.344100
8.250400 1.334100
8.268400 1.325600
8.286400 1.317400
8.304300 1.298800
8.322300 1.289900
8.340300 1.281700
8.358200 1.272500
8.376200 1.265100
8.394200 1.259000
8.412100 1.253200
8.430100 1.249900
8.448100 1.247600
8.466000 1.245400
8.484000 1.240700
8.502000 1.231900
8.519900 1.223500
8.537900 1.217400
8.555900 1.207600
8.573800 1.197600
8.591800 1.187000
8.609800 1.180000
8.627700 1.172000
8.645700 1.163400
8.663700 1.158000
8.681600 1.168000
8.699600 1.165100
8.717600 1.161400
8.735500 1.157000
8.753500 1.154500
8.771500 1.152200
8.789400 1.150000
8.807400 1.148200
8.825400 1.147100
8.843300 1.147100
8.861300 1.147300
8.879300 1.146900
8.897200 1.146000
8.915200 1.144600
8.933200 1.143700
8.951100 1.139000
8.969100 1.135100
8.987100 1.128400
9.005000 1.122700
9.023000 1.117700
9.041000 1.112800
9.059000 1.107900
9.076900 1.106000
9.094900 1.099800
9.112900 1.095400
9.130800 1.090900
9.148800 1.091700
9.166800 1.088700
9.184700 1.086100
9.202700 1.082400
9.220700 1.078300
9.238600 1.075100
9.256600 1.071900
9.274600 1.069600
9.292500 1.068200
9.310500 1.067600
9.328500 1.066900
9.346400 1.057000
9.364400 1.056700
9.382400 1.049800
9.400300 1.046500
9.418300 1.058000
9.436300 1.054800
