set title 'mp-1229093 - Density of States'
set xlabel 'Energy (eV)'
set ylabel 'DOS (states/eV)'
set grid
set xrange [-10:10]
set yrange [0:19.849]
set xzeroaxis lt -1
set terminal png size 800,600
set output 'mp-1229093_dos_gnuplot.png'
plot '-' using 1:2 with lines title 'DOS'
-8.134200 0.000000
-8.110000 0.000000
-8.085800 0.000000
-8.061600 0.000000
-8.037400 0.000000
-8.013200 0.000000
-7.989000 0.000000
-7.964800 0.000000
-7.940600 0.000000
-7.916400 0.000000
-7.892200 0.000000
-7.867900 0.000000
-7.843700 0.000000
-7.819500 0.000000
-7.795300 0.000000
-7.771100 0.000000
-7.746900 0.000000
-7.722700 0.000000
-7.698500 0.000000
-7.674300 0.000000
-7.650100 0.000000
-7.625900 0.000000
-7.601700 0.000000
-7.577400 0.000000
-7.553200 0.000000
-7.529000 0.000000
-7.504800 0.000000
-7.480600 0.000000
-7.456400 0.000000
-7.432200 0.000000
-7.408000 0.000000
-7.383800 0.000000
-7.359600 0.000000
-7.335400 0.000000
-7.311200 0.000000
-7.287000 0.000000
-7.262700 0.000000
-7.238500 0.000000
-7.214300 0.000000
-7.190100 0.000000
-7.165900 0.000000
-7.141700 0.000000
-7.117500 0.000000
-7.093300 0.000000
-7.069100 0.000000
-7.044900 0.000000
-7.020700 0.000000
-6.996500 0.000000
-6.972200 0.000000
-6.948000 0.000000
-6.923800 0.000000
-6.899600 0.000000
-6.875400 0.000000
-6.851200 0.000000
-6.827000 0.000000
-6.802800 0.000000
-6.778600 0.000000
-6.754400 0.000000
-6.730200 0.000000
-6.706000 0.000000
-6.681800 0.000000
-6.657500 0.000000
-6.633300 0.000000
-6.609100 0.000000
-6.584900 0.000000
-6.560700 0.000000
-6.536500 0.000000
-6.512300 0.000000
-6.488100 0.000000
-6.463900 0.000000
-6.439700 0.000000
-6.415500 0.000000
-6.391300 0.000000
-6.367000 0.000000
-6.342800 0.000000
-6.318600 0.000000
-6.294400 0.000000
-6.270200 0.000000
-6.246000 0.000000
-6.221800 0.000000
-6.197600 0.000000
-6.173400 0.000000
-6.149200 0.000000
-6.125000 0.000000
-6.100800 0.000000
-6.076600 0.000000
-6.052300 0.000000
-6.028100 0.000000
-6.003900 0.000000
-5.979700 0.000000
-5.955500 0.000000
-5.931300 0.000200
-5.907100 0.026200
-5.882900 0.078500
-5.858700 0.154000
-5.834500 0.261000
-5.810300 0.282400
-5.786100 0.313500
-5.761900 0.313800
-5.737600 0.278300
-5.713400 0.290600
-5.689200 0.302900
-5.665000 0.315200
-5.640800 0.327300
-5.616600 0.334900
-5.592400 0.338200
-5.568200 0.337200
-5.544000 0.332400
-5.519800 0.332700
-5.495600 0.336600
-5.471400 0.345800
-5.447100 0.356200
-5.422900 0.366600
-5.398700 0.377000
-5.374500 0.387500
-5.350300 0.399000
-5.326100 1.976000
-5.301900 2.503000
-5.277700 2.365300
-5.253500 2.520500
-5.229300 2.401100
-5.205100 2.564000
-5.180900 2.743300
-5.156700 2.944800
-5.132400 3.171900
-5.108200 3.332100
-5.084000 3.549600
-5.059800 3.678500
-5.035600 3.477500
-5.011400 2.345100
-4.987200 2.310500
-4.963000 2.300900
-4.938800 2.279100
-4.914600 2.229400
-4.890400 2.196500
-4.866200 2.207700
-4.841900 2.287000
-4.817700 5.988400
-4.793500 5.440700
-4.769300 5.797600
-4.745100 6.493300
-4.720900 5.800900
-4.696700 5.283400
-4.672500 5.308100
-4.648300 5.190300
-4.624100 5.394000
-4.599900 5.566000
-4.575700 6.992000
-4.551500 6.389400
-4.527200 4.891000
-4.503000 5.852400
-4.478800 7.717400
-4.454600 5.681100
-4.430400 6.113400
-4.406200 5.503200
-4.382000 5.099900
-4.357800 5.138600
-4.333600 3.594600
-4.309400 5.542100
-4.285200 7.557200
-4.261000 6.943200
-4.236700 5.190900
-4.212500 6.746300
-4.188300 6.605200
-4.164100 7.952900
-4.139900 9.337500
-4.115700 14.692800
-4.091500 17.145500
-4.067300 11.072100
-4.043100 4.452100
-4.018900 5.005400
-3.994700 5.158900
-3.970500 5.409100
-3.946300 6.116300
-3.922000 6.111300
-3.897800 6.715600
-3.873600 10.968100
-3.849400 10.896800
-3.825200 9.442300
-3.801000 7.902800
-3.776800 6.311000
-3.752600 6.057400
-3.728400 4.674400
-3.704200 2.031800
-3.680000 2.021100
-3.655800 8.543100
-3.631600 5.285400
-3.607300 5.256800
-3.583100 3.391500
-3.558900 1.745600
-3.534700 1.723200
-3.510500 1.700800
-3.486300 1.678400
-3.462100 1.660100
-3.437900 1.674700
-3.413700 1.663500
-3.389500 1.632300
-3.365300 1.601200
-3.341100 1.579000
-3.316800 1.561900
-3.292600 1.549600
-3.268400 1.536500
-3.244200 1.522500
-3.220000 1.497000
-3.195800 1.543500
-3.171600 1.562200
-3.147400 1.509900
-3.123200 1.467800
-3.099000 1.426500
-3.074800 1.386100
-3.050600 1.578900
-3.026400 1.589500
-3.002100 1.321600
-2.977900 0.916700
-2.953700 0.567000
-2.929500 0.581200
-2.905300 0.597100
-2.881100 0.615100
-2.856900 0.632200
-2.832700 0.649400
-2.808500 0.667200
-2.784300 0.685500
-2.760100 0.704300
-2.735900 0.725100
-2.711600 0.768000
-2.687400 0.867800
-2.663200 1.010500
-2.639000 1.112700
-2.614800 1.263700
-2.590600 1.453200
-2.566400 2.216100
-2.542200 3.060300
-2.518000 3.857800
-2.493800 3.576100
-2.469600 4.390500
-2.445400 4.976400
-2.421200 6.512000
-2.396900 7.646500
-2.372700 7.341200
-2.348500 7.860700
-2.324300 8.147800
-2.300100 8.191600
-2.275900 9.098000
-2.251700 11.396800
-2.227500 11.986700
-2.203300 12.409900
-2.179100 12.118700
-2.154900 12.096000
-2.130700 9.465200
-2.106400 8.095000
-2.082200 7.927200
-2.058000 8.713700
-2.033800 9.128700
-2.009600 10.862200
-1.985400 8.888300
-1.961200 6.777600
-1.937000 4.419700
-1.912800 2.486600
-1.888600 2.375800
-1.864400 2.505500
-1.840200 2.886900
-1.816000 2.859900
-1.791700 3.040200
-1.767500 3.212600
-1.743300 3.385600
-1.719100 3.558000
-1.694900 4.062200
-1.670700 4.820900
-1.646500 6.352800
-1.622300 7.996600
-1.598100 9.348500
-1.573900 11.782500
-1.549700 13.607100
-1.525500 8.297000
-1.501300 9.825600
-1.477000 15.899800
-1.452800 14.035600
-1.428600 17.323500
-1.404400 18.044600
-1.380200 15.786700
-1.356000 13.188400
-1.331800 10.169200
-1.307600 8.298900
-1.283400 7.401800
-1.259200 9.929900
-1.235000 10.083100
-1.210800 9.724000
-1.186500 8.604200
-1.162300 7.788800
-1.138100 8.199200
-1.113900 7.924700
-1.089700 7.155900
-1.065500 7.389400
-1.041300 7.664400
-1.017100 7.432200
-0.992900 7.188300
-0.968700 6.995700
-0.944500 7.043100
-0.920300 7.086200
-0.896100 6.747800
-0.871800 7.073400
-0.847600 10.021400
-0.823400 8.697200
-0.799200 7.233900
-0.775000 6.181400
-0.750800 6.002200
-0.726600 6.878800
-0.702400 10.852800
-0.678200 10.176500
-0.654000 10.599400
-0.629800 10.519800
-0.605600 9.608100
-0.581300 9.000800
-0.557100 8.532800
-0.532900 8.811900
-0.508700 9.235900
-0.484500 9.187300
-0.460300 9.105400
-0.436100 9.727200
-0.411900 10.459100
-0.387700 8.567800
-0.363500 9.806300
-0.339300 13.706400
-0.315100 15.845000
-0.290900 13.078000
-0.266600 9.992700
-0.242400 6.315100
-0.218200 4.720400
-0.194000 4.099400
-0.169800 3.622900
-0.145600 2.250700
-0.121400 1.460000
-0.097200 1.368400
-0.073000 1.300200
-0.048800 1.254600
-0.024600 1.230500
-0.000400 1.215900
0.023800 1.204300
0.048100 1.194400
0.072300 1.185800
0.096500 1.176500
0.120700 1.159300
0.144900 1.134000
0.169100 1.111100
0.193300 1.080000
0.217500 1.045400
0.241700 1.015500
0.265900 0.978400
0.290100 0.955200
0.314300 0.940600
0.338600 0.928700
0.362800 0.920000
0.387000 0.914400
0.411200 0.909700
0.435400 0.902900
0.459600 0.895400
0.483800 0.890300
0.508000 0.886800
0.532200 0.884600
0.556400 0.883800
0.580600 0.883200
0.604800 0.883000
0.629000 0.882800
0.653300 0.882800
0.677500 0.883000
0.701700 0.883300
0.725900 0.883800
0.750100 0.884300
0.774300 0.884900
0.798500 0.885700
0.822700 0.883000
0.846900 0.868800
0.871100 0.858800
0.895300 0.849400
0.919500 0.839700
0.943800 0.834600
0.968000 0.831500
0.992200 0.830600
1.016400 0.830200
1.040600 0.830300
1.064800 0.830900
1.089000 0.831800
1.113200 0.833100
1.137400 0.834900
1.161600 0.837600
1.185800 0.842100
1.210000 0.848200
1.234200 0.856200
1.258500 0.867500
1.282700 0.882000
1.306900 0.897800
1.331100 0.914700
1.355300 0.934600
1.379500 0.951300
1.403700 0.964000
1.427900 0.972100
1.452100 0.975600
1.476300 0.972900
1.500500 0.963000
1.524700 0.946300
1.549000 0.925900
1.573200 0.905600
1.597400 0.885400
1.621600 0.865500
1.645800 0.845800
1.670000 0.826300
1.694200 0.811100
1.718400 0.804400
1.742600 0.801000
1.766800 0.800700
1.791000 0.802100
1.815200 0.867100
1.839400 0.907800
1.863700 0.919400
1.887900 0.905600
1.912100 0.880000
1.936300 0.860000
1.960500 0.854400
1.984700 0.853100
2.008900 0.876000
2.033100 0.893400
2.057300 0.895200
2.081500 0.875100
2.105700 0.851800
2.129900 0.831500
2.154100 0.814300
2.178400 0.800200
2.202600 0.800200
2.226800 0.802800
2.251000 0.808500
2.275200 0.814500
2.299400 0.820400
2.323600 0.825300
2.347800 0.831900
2.372000 0.848500
2.396200 0.871500
2.420400 0.909800
2.444600 0.968300
2.468900 1.024500
2.493100 1.079000
2.517300 0.953500
2.541500 0.908400
2.565700 0.873900
2.589900 0.871400
2.614100 0.870900
2.638300 0.872400
2.662500 0.880600
2.686700 0.888800
2.710900 0.892700
2.735100 0.892600
2.759300 0.888200
2.783600 0.882400
2.807800 0.882400
2.832000 0.873600
2.856200 0.856500
2.880400 0.749300
2.904600 0.729900
2.928800 0.715300
2.953000 0.705000
2.977200 0.698300
3.001400 0.690600
3.025600 0.680700
3.049800 0.668800
3.074100 0.655800
3.098300 0.643800
3.122500 0.632700
3.146700 0.622500
3.170900 0.613200
3.195100 0.604900
3.219300 0.607100
3.243500 0.636900
3.267700 0.668400
3.291900 0.679700
3.316100 0.689800
3.340300 0.703200
3.364500 0.717300
3.388800 0.732100
3.413000 0.743700
3.437200 0.754100
3.461400 0.774700
3.485600 0.846600
3.509800 0.893500
3.534000 0.879200
3.558200 0.874600
3.582400 0.873500
3.606600 0.871800
3.630800 0.869800
3.655000 0.865400
3.679300 0.865300
3.703500 0.867700
3.727700 0.870600
3.751900 0.873500
3.776100 0.879700
3.800300 0.895000
3.824500 0.914100
3.848700 0.934600
3.872900 0.957100
3.897100 0.981000
3.921300 1.007700
3.945500 1.042300
3.969700 1.119600
3.994000 1.079700
4.018200 1.054500
4.042400 1.032700
4.066600 1.016300
4.090800 1.004300
4.115000 0.993100
4.139200 0.987900
4.163400 0.978700
4.187600 0.924000
4.211800 0.907600
4.236000 0.892600
4.260200 0.877800
4.284400 0.863400
4.308700 0.898800
4.332900 0.885500
4.357100 0.855900
4.381300 0.859000
4.405500 0.852400
4.429700 0.834600
4.453900 0.803600
4.478100 0.763300
4.502300 0.741300
4.526500 0.738400
4.550700 0.744800
4.574900 0.753300
4.599200 0.740800
4.623400 0.762100
4.647600 0.797200
4.671800 0.849700
4.696000 0.939100
4.720200 1.009100
4.744400 1.052000
4.768600 1.119200
4.792800 1.210000
4.817000 1.208900
4.841200 1.224700
4.865400 1.227100
4.889600 1.211800
4.913900 1.194000
4.938100 1.154900
4.962300 1.133000
4.986500 1.107600
5.010700 1.084200
5.034900 1.061800
5.059100 1.040900
5.083300 1.024500
5.107500 1.056200
5.131700 1.061700
5.155900 1.105800
5.180100 1.054800
5.204400 1.028200
5.228600 0.981800
5.252800 0.924600
5.277000 0.954100
5.301200 1.044600
5.325400 0.972100
5.349600 0.965100
5.373800 0.962900
5.398000 0.958300
5.422200 0.979000
5.446400 1.007100
5.470600 1.091900
5.494800 1.102700
5.519100 1.095200
5.543300 0.977300
5.567500 0.959400
5.591700 0.936200
5.615900 0.924800
5.640100 0.930600
5.664300 0.944900
5.688500 0.937500
5.712700 0.924500
5.736900 0.907100
5.761100 0.883500
5.785300 0.873000
5.809500 0.859100
5.833800 0.858200
5.858000 0.860100
5.882200 0.861100
5.906400 0.856600
5.930600 0.851400
5.954800 0.852900
5.979000 0.858800
6.003200 0.871700
6.027400 0.860000
6.051600 0.841600
6.075800 0.817100
6.100000 0.801700
6.124300 0.789800
6.148500 0.777600
6.172700 0.764900
6.196900 0.751700
6.221100 0.733200
6.245300 0.715100
6.269500 0.698600
6.293700 0.683600
6.317900 0.669800
6.342100 0.664600
6.366300 0.668200
6.390500 0.690300
6.414700 0.713100
6.439000 0.827700
6.463200 0.873300
6.487400 0.910200
6.511600 0.936900
6.535800 0.953700
6.560000 0.972300
6.584200 0.990100
6.608400 1.014000
6.632600 1.025500
6.656800 1.035400
6.681000 1.043800
6.705200 1.046800
6.729500 1.046900
6.753700 1.043200
6.777900 1.046400
6.802100 1.056900
6.826300 1.058000
6.850500 1.055900
6.874700 1.055600
6.898900 1.066400
6.923100 1.058200
6.947300 1.056600
6.971500 1.061900
6.995700 1.060800
7.019900 1.054800
7.044200 1.004500
7.068400 0.969600
7.092600 0.943400
7.116800 0.911000
7.141000 0.899100
7.165200 0.887100
7.189400 0.877800
7.213600 0.873700
7.237800 0.872500
7.262000 0.873500
7.286200 0.876700
7.310400 0.882200
7.334700 0.891900
7.358900 0.904500
7.383100 0.918600
7.407300 0.934400
7.431500 0.951200
7.455700 0.968500
7.479900 0.999400
7.504100 1.029600
7.528300 1.055600
7.552500 1.076200
7.576700 1.097300
7.600900 1.123400
7.625100 1.154600
7.649400 1.196000
7.673600 1.254900
7.697800 1.340500
7.722000 1.298900
7.746200 1.295400
7.770400 1.302800
7.794600 1.301800
7.818800 1.291900
7.843000 1.277600
7.867200 1.264300
7.891400 1.250500
7.915600 1.231200
7.939800 1.207900
7.964100 1.183100
7.988300 1.158100
8.012500 1.134000
8.036700 1.108100
8.060900 1.090700
8.085100 1.075900
8.109300 1.063100
8.133500 1.062300
8.157700 1.057900
8.181900 1.055700
8.206100 1.054900
8.230300 1.054100
8.254600 1.053400
8.278800 1.041500
8.303000 1.037600
8.327200 1.035700
8.351400 1.033800
8.375600 1.032300
8.399800 1.023300
8.424000 1.019800
8.448200 1.015700
8.472400 1.015600
8.496600 1.019700
8.520800 1.026400
8.545000 1.062500
8.569300 1.060800
8.593500 1.071000
8.617700 1.093300
8.641900 1.127200
8.666100 1.169400
8.690300 1.271900
8.714500 1.243800
8.738700 1.265700
8.762900 1.288200
8.787100 1.306600
8.811300 1.314300
8.835500 1.319200
8.859800 1.322300
8.884000 1.323700
8.908200 1.329200
8.932400 1.338400
8.956600 1.346900
8.980800 1.354000
9.005000 1.360000
9.029200 1.364600
9.053400 1.367900
9.077600 1.372800
9.101800 1.385600
9.126000 1.391900
9.150200 1.400700
9.174500 1.408400
9.198700 1.412500
9.222900 1.410800
9.247100 1.406700
9.271300 1.530000
9.295500 1.427400
9.319700 1.395000
9.343900 1.370500
9.368100 1.342900
9.392300 1.317200
9.416500 1.292600
9.440700 1.274800
9.465000 1.263600
9.489200 1.261200
9.513400 1.264800
9.537600 1.255500
9.561800 1.247300
9.586000 1.230400
9.610200 1.223700
9.634400 1.221300
9.658600 1.217700
9.682800 1.211900
9.707000 1.206000
9.731200 1.202700
9.755400 1.196700
9.779700 1.184400
9.803900 1.171900
9.828100 1.159500
9.852300 1.137500
9.876500 1.114000
9.900700 1.100600
9.924900 1.090400
9.949100 1.085400
9.973300 1.086100
9.997500 1.089200
10.021700 1.114500
10.045900 1.141200
10.070100 1.175000
10.094400 1.114500
10.118600 1.134500
10.142800 1.154800
10.167000 1.175200
10.191200 1.194900
10.215400 1.214600
10.239600 1.233600
10.263800 1.262200
10.288000 1.312900
10.312200 1.356700
10.336400 1.309200
10.360600 1.314100
10.384900 1.317300
10.409100 1.322100
10.433300 1.331300
10.457500 1.344400
10.481700 1.355800
10.505900 1.369700
10.530100 1.381100
10.554300 1.386300
10.578500 1.376600
10.602700 1.347600
10.626900 1.347600
10.651100 1.352300
10.675300 1.356100
10.699600 1.358900
10.723800 1.367800
10.748000 1.376800
10.772200 1.380800
10.796400 1.386700
10.820600 1.393800
10.844800 1.404100
10.869000 1.416300
10.893200 1.380900
10.917400 1.344800
10.941600 1.350700
10.965800 1.361600
10.990100 1.371500
11.014300 1.381600
11.038500 1.393000
11.062700 1.405900
11.086900 1.422600
11.111100 1.445000
11.135300 1.472100
11.159500 1.504700
11.183700 1.514200
11.207900 1.543600
11.232100 1.575100
11.256300 1.609600
11.280500 1.639300
11.304800 1.669900
11.329000 1.715700
11.353200 1.717000
11.377400 1.693400
11.401600 1.661400
11.425800 1.623900
11.450000 1.590500
11.474200 1.611600
11.498400 1.606500
11.522600 1.604900
11.546800 1.607800
11.571000 1.618100
11.595200 1.631000
11.619500 1.646700
11.643700 1.662600
11.667900 1.656200
11.692100 1.646800
11.716300 1.628400
11.740500 1.610300
11.764700 1.594300
11.788900 1.580900
11.813100 1.570100
11.837300 1.561800
11.861500 1.560200
11.885700 1.564100
11.910000 1.569100
11.934200 1.577100
11.958400 1.659400
11.982600 1.652500
12.006800 1.648300
12.031000 1.654000
12.055200 1.675500
12.079400 1.702600
12.103600 1.732000
12.127800 1.673900
12.152000 1.670000
12.176200 1.662400
12.200400 1.650500
12.224700 1.637900
12.248900 1.628000
12.273100 1.613700
12.297300 1.599000
12.321500 1.586200
12.345700 1.574000
12.369900 1.565600
12.394100 1.560800
12.418300 1.558600
12.442500 1.557800
12.466700 1.558700
12.490900 1.560700
12.515200 1.563600
12.539400 1.566600
12.563600 1.568700
12.587800 1.570300
12.612000 1.571200
12.636200 1.569700
12.660400 1.565700
12.684600 1.561400
12.708800 1.562000
12.733000 1.556000
12.757200 1.542400
12.781400 1.543600
12.805600 1.548300
12.829900 1.555500
12.854100 1.555400
12.878300 1.554600
12.902500 1.556200
12.926700 1.607600
12.950900 1.622100
12.975100 1.637600
12.999300 1.651100
13.023500 1.663000
13.047700 1.672200
13.071900 1.679900
13.096100 1.679700
13.120400 1.680700
13.144600 1.683100
13.168800 1.684300
13.193000 1.678900
13.217200 1.689700
13.241400 1.681100
13.265600 1.643500
13.289800 1.646400
13.314000 1.650800
13.338200 1.657600
13.362400 1.673400
13.386600 1.678800
13.410800 1.684800
13.435100 1.697300
13.459300 1.703900
13.483500 1.691900
13.507700 1.677500
13.531900 1.661400
13.556100 1.645900
13.580300 1.631500
13.604500 1.619100
13.628700 1.609100
13.652900 1.603100
13.677100 1.599400
13.701300 1.596500
13.725500 1.595300
13.749800 1.596200
13.774000 1.599000
13.798200 1.603000
13.822400 1.605200
13.846600 1.607900
13.870800 1.611200
13.895000 1.614700
13.919200 1.618500
13.943400 1.622100
13.967600 1.627000
13.991800 1.634300
14.016000 1.639400
14.040300 1.642000
14.064500 1.645400
14.088700 1.645500
14.112900 1.641200
14.137100 1.635200
14.161300 1.628300
14.185500 1.621900
14.209700 1.616400
14.233900 1.615000
14.258100 1.602000
14.282300 1.587700
14.306500 1.579900
14.330700 1.574700
14.355000 1.570200
14.379200 1.566500
14.403400 1.562700
14.427600 1.559400
14.451800 1.556500
14.476000 1.553800
14.500200 1.557700
14.524400 1.565000
14.548600 1.565000
14.572800 1.563400
14.597000 1.562200
14.621200 1.561900
14.645500 1.560800
14.669700 1.556400
14.693900 1.553300
14.718100 1.551600
14.742300 1.551000
14.766500 1.551100
14.790700 1.553700
14.814900 1.545200
14.839100 1.527700
14.863300 1.521000
14.887500 1.518900
14.911700 1.512100
14.935900 1.505900
14.960200 1.495300
14.984400 1.482900
15.008600 1.470500
15.032800 1.461700
15.057000 1.444400
15.081200 1.425700
15.105400 1.407700
15.129600 1.391100
15.153800 1.376400
15.178000 1.363200
15.202200 1.351100
15.226400 1.346100
15.250700 1.358900
15.274900 1.380800
15.299100 1.402900
15.323300 1.252100
15.347500 1.233400
15.371700 1.216700
15.395900 1.203000
15.420100 1.191000
15.444300 1.179700
15.468500 1.169300
15.492700 1.160500
15.516900 1.154800
15.541100 1.148400
15.565400 1.142200
15.589600 1.136400
15.613800 1.132400
15.638000 1.127700
15.662200 1.122700
15.686400 1.117600
15.710600 1.114300
15.734800 1.112800
15.759000 1.113700
15.783200 1.115300
15.807400 1.116500
15.831600 1.134200
15.855800 1.162000
15.880100 1.174700
15.904300 1.187000
15.928500 1.199100
15.952700 1.213200
15.976900 1.235900
16.001100 1.298200
16.025300 1.319900
16.049500 1.289400
16.073700 1.242000
16.097900 1.207300
16.122100 1.192400
16.146300 1.190300
16.170600 1.200800
16.194800 1.216200
16.219000 1.235700
16.243200 1.256800
16.267400 1.278400
16.291600 1.301700
16.315800 1.326500
16.340000 1.350700
16.364200 1.371600
16.388400 1.388900
16.412600 1.413000
16.436800 1.452400
16.461000 1.443200
16.485300 1.450800
16.509500 1.456200
16.533700 1.460700
16.557900 1.466300
16.582100 1.472300
16.606300 1.478100
16.630500 1.483900
16.654700 1.492100
16.678900 1.502600
16.703100 1.514600
16.727300 1.527900
16.751500 1.539800
16.775800 1.547300
16.800000 1.551100
16.824200 1.544700
16.848400 1.573900
16.872600 1.653400
16.896800 1.887800
16.921000 1.895700
16.945200 1.822500
16.969400 1.740500
16.993600 1.630200
17.017800 1.648200
17.042000 1.667400
17.066200 1.679500
17.090500 1.688100
17.114700 1.701800
17.138900 1.717900
17.163100 1.735500
17.187300 1.758600
17.211500 1.771000
17.235700 1.779400
17.259900 1.786800
17.284100 1.792700
17.308300 1.796400
17.332500 1.795900
17.356700 1.792600
17.381000 1.789700
17.405200 1.788900
17.429400 1.790700
17.453600 1.795100
