set title 'mp-973498 - Density of States'
set xlabel 'Energy (eV)'
set ylabel 'DOS (states/eV)'
set grid
set xrange [-10:10]
set yrange [0:79.352]
set xzeroaxis lt -1
set terminal png size 800,600
set output 'mp-973498_dos_gnuplot.png'
plot '-' using 1:2 with lines title 'DOS'
-9.792800 0.000000
-9.772900 0.000000
-9.753000 0.000000
-9.733000 0.000000
-9.713100 0.000000
-9.693200 0.000000
-9.673200 0.000000
-9.653300 0.000000
-9.633300 0.000000
-9.613400 0.000000
-9.593500 0.000000
-9.573500 0.000000
-9.553600 0.000000
-9.533700 0.000000
-9.513700 0.000000
-9.493800 0.000000
-9.473900 0.000000
-9.453900 0.000000
-9.434000 0.000000
-9.414100 0.000000
-9.394100 0.000000
-9.374200 0.000000
-9.354200 0.000000
-9.334300 0.000000
-9.314400 0.000000
-9.294400 0.000000
-9.274500 0.000000
-9.254600 0.000000
-9.234600 0.000000
-9.214700 0.000000
-9.194800 0.000000
-9.174800 0.000000
-9.154900 0.000000
-9.134900 0.000000
-9.115000 0.000000
-9.095100 0.000000
-9.075100 0.000000
-9.055200 0.000000
-9.035300 0.000000
-9.015300 0.000000
-8.995400 0.000000
-8.975500 0.000000
-8.955500 0.000000
-8.935600 0.000000
-8.915700 0.000000
-8.895700 0.000000
-8.875800 0.000000
-8.855800 0.000000
-8.835900 0.000000
-8.816000 0.000000
-8.796000 0.000000
-8.776100 0.000000
-8.756200 0.000000
-8.736200 0.000000
-8.716300 0.000000
-8.696400 0.000000
-8.676400 0.000000
-8.656500 0.000000
-8.636600 0.000000
-8.616600 0.000000
-8.596700 0.000000
-8.576700 0.000000
-8.556800 0.000000
-8.536900 0.000000
-8.516900 0.000000
-8.497000 0.000000
-8.477100 0.000000
-8.457100 0.000000
-8.437200 0.000000
-8.417300 0.000000
-8.397300 0.000000
-8.377400 0.000000
-8.357500 0.000000
-8.337500 0.000000
-8.317600 0.000000
-8.297600 0.000000
-8.277700 0.000000
-8.257800 0.000000
-8.237800 0.000000
-8.217900 0.000000
-8.198000 0.000000
-8.178000 0.000000
-8.158100 0.000000
-8.138200 0.000000
-8.118200 0.000000
-8.098300 0.000400
-8.078400 0.003200
-8.058400 0.018900
-8.038500 0.084300
-8.018500 0.288700
-7.998600 0.768800
-7.978700 1.633000
-7.958700 2.882700
-7.938800 4.492300
-7.918900 6.658400
-7.898900 9.984100
-7.879000 15.300200
-7.859100 23.059800
-7.839100 32.710900
-7.819200 42.535400
-7.799300 50.206500
-7.779300 54.186300
-7.759400 55.051400
-7.739400 55.048600
-7.719500 56.110600
-7.699600 58.559900
-7.679600 61.444100
-7.659700 63.531800
-7.639800 64.316100
-7.619800 64.633200
-7.599900 65.910800
-7.580000 68.483900
-7.560000 71.103400
-7.540100 72.138500
-7.520100 70.905100
-7.500200 68.077600
-7.480300 65.008100
-7.460300 62.205500
-7.440400 58.388400
-7.420500 51.611000
-7.400500 41.568600
-7.380600 30.294500
-7.360700 20.392200
-7.340700 13.145700
-7.320800 8.403000
-7.300900 5.457400
-7.280900 3.606900
-7.261000 2.317600
-7.241000 1.333300
-7.221100 0.637400
-7.201200 0.241800
-7.181200 0.071100
-7.161300 0.016000
-7.141400 0.002700
-7.121400 0.000400
-7.101500 0.000000
-7.081600 0.000000
-7.061600 0.000000
-7.041700 0.000000
-7.021800 0.000000
-7.001800 0.000000
-6.981900 0.000000
-6.961900 0.000000
-6.942000 0.000000
-6.922100 0.000000
-6.902100 0.000000
-6.882200 0.000000
-6.862300 0.000000
-6.842300 0.000000
-6.822400 0.000000
-6.802500 0.000000
-6.782500 0.000000
-6.762600 0.000000
-6.742700 0.000000
-6.722700 0.000000
-6.702800 0.000000
-6.682800 0.000000
-6.662900 0.000000
-6.643000 0.000000
-6.623000 0.000000
-6.603100 0.000000
-6.583200 0.000000
-6.563200 0.000000
-6.543300 0.000000
-6.523400 0.000000
-6.503400 0.000000
-6.483500 0.000000
-6.463600 0.000000
-6.443600 0.000000
-6.423700 0.000000
-6.403700 0.000000
-6.383800 0.000000
-6.363900 0.000000
-6.343900 0.000000
-6.324000 0.000000
-6.304100 0.000000
-6.284100 0.000000
-6.264200 0.000000
-6.244300 0.000000
-6.224300 0.000000
-6.204400 0.000000
-6.184500 0.000000
-6.164500 0.000000
-6.144600 0.000000
-6.124600 0.000000
-6.104700 0.000000
-6.084800 0.000000
-6.064800 0.000000
-6.044900 0.000000
-6.025000 0.000000
-6.005000 0.000000
-5.985100 0.000000
-5.965200 0.000000
-5.945200 0.000000
-5.925300 0.000000
-5.905300 0.000000
-5.885400 0.000000
-5.865500 0.000000
-5.845500 0.000000
-5.825600 0.000000
-5.805700 0.000000
-5.785700 0.000000
-5.765800 0.000000
-5.745900 0.000000
-5.725900 0.000000
-5.706000 0.000000
-5.686100 0.000000
-5.666100 0.000000
-5.646200 0.000000
-5.626200 0.000000
-5.606300 0.000000
-5.586400 0.000000
-5.566400 0.000000
-5.546500 0.000000
-5.526600 0.000000
-5.506600 0.000000
-5.486700 0.000000
-5.466800 0.000000
-5.446800 0.000000
-5.426900 0.000000
-5.407000 0.000000
-5.387000 0.000000
-5.367100 0.000000
-5.347100 0.000000
-5.327200 0.000000
-5.307300 0.000000
-5.287300 0.000000
-5.267400 0.000000
-5.247500 0.000000
-5.227500 0.000000
-5.207600 0.000000
-5.187700 0.000000
-5.167700 0.000000
-5.147800 0.000000
-5.127900 0.000000
-5.107900 0.000000
-5.088000 0.000000
-5.068000 0.000000
-5.048100 0.000000
-5.028200 0.000000
-5.008200 0.000000
-4.988300 0.000000
-4.968400 0.000000
-4.948400 0.000000
-4.928500 0.000000
-4.908600 0.000000
-4.888600 0.000000
-4.868700 0.000000
-4.848800 0.000000
-4.828800 0.000000
-4.808900 0.000000
-4.788900 0.000000
-4.769000 0.000000
-4.749100 0.000000
-4.729100 0.000000
-4.709200 0.000000
-4.689300 0.000000
-4.669300 0.000000
-4.649400 0.000000
-4.629500 0.000000
-4.609500 0.000000
-4.589600 0.000000
-4.569700 0.000000
-4.549700 0.000000
-4.529800 0.000000
-4.509800 0.000000
-4.489900 0.000000
-4.470000 0.000000
-4.450000 0.000000
-4.430100 0.000000
-4.410200 0.000000
-4.390200 0.000000
-4.370300 0.000000
-4.350400 0.000000
-4.330400 0.000000
-4.310500 0.000000
-4.290500 0.000000
-4.270600 0.000000
-4.250700 0.000000
-4.230700 0.000000
-4.210800 0.000000
-4.190900 0.000000
-4.170900 0.000000
-4.151000 0.000000
-4.131100 0.000000
-4.111100 0.000000
-4.091200 0.000000
-4.071300 0.000000
-4.051300 0.000000
-4.031400 0.000000
-4.011400 0.000000
-3.991500 0.000000
-3.971600 0.000000
-3.951600 0.000000
-3.931700 0.000000
-3.911800 0.000000
-3.891800 0.000000
-3.871900 0.000000
-3.852000 0.000000
-3.832000 0.000000
-3.812100 0.000000
-3.792200 0.000000
-3.772200 0.000000
-3.752300 0.000000
-3.732300 0.000000
-3.712400 0.000000
-3.692500 0.000000
-3.672500 0.000000
-3.652600 0.000000
-3.632700 0.000000
-3.612700 0.000000
-3.592800 0.000000
-3.572900 0.000000
-3.552900 0.000000
-3.533000 0.000000
-3.513100 0.000000
-3.493100 0.000000
-3.473200 0.000000
-3.453200 0.000000
-3.433300 0.000000
-3.413400 0.000000
-3.393400 0.000000
-3.373500 0.000000
-3.353600 0.000000
-3.333600 0.000000
-3.313700 0.000000
-3.293800 0.000000
-3.273800 0.000000
-3.253900 0.000000
-3.234000 0.000000
-3.214000 0.000000
-3.194100 0.000000
-3.174100 0.000000
-3.154200 0.000000
-3.134300 0.000000
-3.114300 0.000000
-3.094400 0.000000
-3.074500 0.000000
-3.054500 0.000000
-3.034600 0.000000
-3.014700 0.000000
-2.994700 0.000000
-2.974800 0.000000
-2.954900 0.000000
-2.934900 0.000000
-2.915000 0.000000
-2.895000 0.000000
-2.875100 0.000000
-2.855200 0.000000
-2.835200 0.000000
-2.815300 0.000000
-2.795400 0.000000
-2.775400 0.000000
-2.755500 0.000000
-2.735600 0.000000
-2.715600 0.000000
-2.695700 0.000000
-2.675700 0.000000
-2.655800 0.000000
-2.635900 0.000000
-2.615900 0.000000
-2.596000 0.000000
-2.576100 0.000200
-2.556100 0.001000
-2.536200 0.004000
-2.516300 0.011800
-2.496300 0.026000
-2.476400 0.044300
-2.456500 0.062600
-2.436500 0.080500
-2.416600 0.101200
-2.396600 0.126800
-2.376700 0.164600
-2.356800 0.229000
-2.336800 0.313000
-2.316900 0.370800
-2.297000 0.354300
-2.277000 0.265900
-2.257100 0.156800
-2.237200 0.081900
-2.217200 0.069700
-2.197300 0.128200
-2.177400 0.249000
-2.157400 0.393700
-2.137500 0.497900
-2.117500 0.516800
-2.097600 0.467700
-2.077700 0.410700
-2.057700 0.395800
-2.037800 0.443000
-2.017900 0.531300
-1.997900 0.583900
-1.978000 0.523100
-1.958100 0.367500
-1.938100 0.220700
-1.918200 0.159100
-1.898300 0.173000
-1.878300 0.209700
-1.858400 0.252200
-1.838400 0.341800
-1.818500 0.506500
-1.798600 0.681300
-1.778600 0.754600
-1.758700 0.696200
-1.738800 0.587300
-1.718800 0.524700
-1.698900 0.550000
-1.679000 0.644300
-1.659000 0.730900
-1.639100 0.712700
-1.619200 0.560300
-1.599200 0.347700
-1.579300 0.185300
-1.559300 0.141000
-1.539400 0.229800
-1.519500 0.428500
-1.499500 0.675100
-1.479600 0.880300
-1.459700 0.969600
-1.439700 0.927200
-1.419800 0.805500
-1.399900 0.685400
-1.379900 0.624600
-1.360000 0.636200
-1.340100 0.681400
-1.320100 0.687400
-1.300200 0.613400
-1.280200 0.501000
-1.260300 0.429500
-1.240400 0.419200
-1.220400 0.420900
-1.200500 0.418300
-1.180600 0.473500
-1.160600 0.622000
-1.140700 0.775900
-1.120800 0.805600
-1.100800 0.695100
-1.080900 0.560600
-1.060900 0.545100
-1.041000 0.722000
-1.021100 1.029300
-1.001100 1.270900
-0.981200 1.257600
-0.961300 0.980500
-0.941300 0.614800
-0.921400 0.362800
-0.901500 0.336700
-0.881500 0.560200
-0.861600 0.983800
-0.841700 1.446800
-0.821700 1.696600
-0.801800 1.571000
-0.781800 1.171900
-0.761900 0.771700
-0.742000 0.559000
-0.722000 0.533700
-0.702100 0.579300
-0.682200 0.573300
-0.662200 0.479800
-0.642300 0.371700
-0.622400 0.336400
-0.602400 0.369300
-0.582500 0.395600
-0.562600 0.387900
-0.542600 0.407800
-0.522700 0.513700
-0.502700 0.677900
-0.482800 0.833000
-0.462900 0.958800
-0.442900 1.089800
-0.423000 1.274400
-0.403100 1.526500
-0.383100 1.755300
-0.363200 1.776600
-0.343300 1.494600
-0.323300 1.033300
-0.303400 0.620900
-0.283500 0.411100
-0.263500 0.446500
-0.243600 0.677200
-0.223600 0.951000
-0.203700 1.083300
-0.183800 1.016300
-0.163800 0.865700
-0.143900 0.793500
-0.124000 0.891200
-0.104000 1.140500
-0.084100 1.389100
-0.064200 1.437600
-0.044200 1.238200
-0.024300 0.937800
-0.004400 0.714400
0.015600 0.659200
0.035500 0.781400
0.055500 1.022400
0.075400 1.256200
0.095300 1.342600
0.115300 1.230800
0.135200 1.006200
0.155100 0.821700
0.175100 0.775500
0.195000 0.835300
0.214900 0.876300
0.234900 0.812700
0.254800 0.691300
0.274700 0.645000
0.294700 0.749200
0.314600 0.934400
0.334600 1.079500
0.354500 1.179900
0.374400 1.335700
0.394400 1.576300
0.414300 1.809200
0.434200 1.929700
0.454200 1.896600
0.474100 1.738600
0.494000 1.529800
0.514000 1.315800
0.533900 1.090700
0.553900 0.886400
0.573800 0.798700
0.593700 0.872400
0.613700 1.034400
0.633600 1.172600
0.653500 1.253200
0.673500 1.336800
0.693400 1.481200
0.713300 1.668800
0.733300 1.845600
0.753200 1.961100
0.773100 1.934000
0.793100 1.679600
0.813000 1.250700
0.833000 0.862400
0.852900 0.705200
0.872800 0.795900
0.892800 1.021500
0.912700 1.270600
0.932600 1.508700
0.952600 1.729500
0.972500 1.869600
0.992400 1.839800
1.012400 1.620500
1.032300 1.274300
1.052200 0.907000
1.072200 0.638000
1.092100 0.554300
1.112100 0.661100
1.132000 0.874700
1.151900 1.067400
1.171900 1.149000
1.191800 1.136100
1.211700 1.122100
1.231700 1.171700
1.251600 1.277700
1.271500 1.390900
1.291500 1.445900
1.311400 1.390700
1.331300 1.245000
1.351300 1.122100
1.371200 1.147700
1.391200 1.346700
1.411100 1.646400
1.431000 1.948200
1.451000 2.123000
1.470900 2.036500
1.490800 1.704000
1.510800 1.338100
1.530700 1.150000
1.550600 1.161000
1.570600 1.241100
1.590500 1.280700
1.610400 1.293900
1.630400 1.358200
1.650300 1.488400
1.670300 1.622000
1.690200 1.740300
1.710100 1.973000
1.730100 2.487400
1.750000 3.203900
1.769900 3.740900
1.789900 3.783700
1.809800 3.406500
1.829700 2.911700
1.849700 2.491400
1.869600 2.134300
1.889500 1.764500
1.909500 1.423000
1.929400 1.309900
1.949400 1.603300
1.969300 2.234900
1.989200 2.909400
2.009200 3.350100
2.029100 3.465000
2.049000 3.286300
2.069000 2.865500
2.088900 2.291200
2.108800 1.724800
2.128800 1.312200
2.148700 1.097600
2.168700 1.074900
2.188600 1.262600
2.208500 1.660800
2.228500 2.162800
2.248400 2.585100
2.268300 2.815900
2.288300 2.905200
2.308200 2.977600
2.328100 3.075900
2.348100 3.156800
2.368000 3.192900
2.387900 3.139500
2.407900 2.903600
2.427800 2.513600
2.447800 2.174400
2.467700 2.053000
2.487600 2.169700
2.507600 2.510400
2.527500 3.039400
2.547400 3.609400
2.567400 4.072800
2.587300 4.483100
2.607200 5.014400
2.627200 5.718700
2.647100 6.490500
2.667000 7.217300
2.687000 7.882000
2.706900 8.487600
2.726900 8.896100
2.746800 8.862300
2.766700 8.317800
2.786700 7.570000
2.806600 7.171400
2.826500 7.563800
2.846500 8.780000
2.866400 10.516800
2.886300 12.529200
2.906300 14.797900
2.926200 17.245800
2.946100 19.502100
2.966100 21.007000
2.986000 21.203600
3.006000 19.783700
3.025900 17.003300
3.045800 13.640000
3.065800 10.504200
3.085700 8.029100
3.105600 6.247600
3.125600 5.014100
3.145500 4.203800
3.165400 3.723700
3.185400 3.467800
3.205300 3.362800
3.225200 3.392700
3.245200 3.532400
3.265100 3.772300
3.285100 4.245500
3.305000 5.103100
3.324900 6.140600
3.344900 6.811100
3.364800 6.745700
3.384700 6.065500
3.404700 5.164600
3.424600 4.379900
3.444500 3.845200
3.464500 3.503400
3.484400 3.230200
3.504300 2.962100
3.524300 2.715200
3.544200 2.554700
3.564200 2.563700
3.584100 2.750700
3.604000 2.972800
3.624000 3.019400
3.643900 2.798700
3.663800 2.446200
3.683800 2.244300
3.703700 2.380700
3.723600 2.740900
3.743600 2.988100
3.763500 2.912400
3.783500 2.634100
3.803400 2.400300
3.823300 2.296900
3.843300 2.245300
3.863200 2.177700
3.883100 2.107900
3.903100 2.050100
3.923000 1.959400
3.942900 1.790500
3.962900 1.592900
3.982800 1.504500
4.002700 1.604700
4.022700 1.810400
4.042600 1.997200
4.062600 2.163100
4.082500 2.370800
4.102400 2.582600
4.122400 2.678700
4.142300 2.611800
4.162200 2.454300
4.182200 2.315900
4.202100 2.271400
4.222000 2.314600
4.242000 2.336600
4.261900 2.202000
4.281800 1.898500
4.301800 1.582700
4.321700 1.439300
4.341700 1.518400
4.361600 1.731800
4.381500 1.949400
4.401500 2.063400
4.421400 2.023500
4.441300 1.882000
4.461300 1.770500
4.481200 1.761200
4.501100 1.762200
4.521100 1.619000
4.541000 1.313000
4.560900 0.986700
4.580900 0.777800
4.600800 0.715400
4.620800 0.789100
4.640700 1.029300
4.660600 1.438400
4.680600 1.871100
4.700500 2.089600
4.720400 2.001300
4.740400 1.750000
4.760300 1.533600
4.780200 1.460800
4.800200 1.582200
4.820100 1.873100
4.840000 2.176500
4.860000 2.311700
4.879900 2.233500
4.899900 2.006700
4.919800 1.705500
4.939700 1.423500
4.959700 1.304200
4.979600 1.446200
4.999500 1.776800
5.019500 2.081900
5.039400 2.193300
5.059300 2.103100
5.079300 1.886700
5.099200 1.631300
5.119100 1.473900
5.139100 1.569800
5.159000 1.942500
5.179000 2.409800
5.198900 2.695200
5.218800 2.627800
5.238800 2.268200
5.258700 1.860600
5.278600 1.638100
5.298600 1.658900
5.318500 1.840100
5.338400 2.094800
5.358400 2.338000
5.378300 2.416400
5.398300 2.216800
5.418200 1.845100
5.438100 1.548600
5.458100 1.461300
5.478000 1.511800
5.497900 1.545700
5.517900 1.481100
5.537800 1.387500
5.557700 1.431100
5.577700 1.694700
5.597600 2.077600
5.617500 2.417300
5.637500 2.613800
5.657400 2.615500
5.677400 2.437400
5.697300 2.197900
5.717200 2.000400
5.737200 1.831000
5.757100 1.679300
5.777000 1.655400
5.797000 1.845700
5.816900 2.125600
5.836800 2.263400
5.856800 2.179100
5.876700 1.983600
5.896600 1.801700
5.916600 1.664400
5.936500 1.543400
5.956500 1.399800
5.976400 1.217700
5.996300 1.036200
6.016300 0.928900
6.036200 0.926000
6.056100 0.968200
6.076100 0.977100
6.096000 0.967200
6.115900 1.016000
6.135900 1.126900
6.155800 1.202100
6.175700 1.159400
6.195700 1.035300
6.215600 0.952700
6.235600 1.006400
6.255500 1.212100
6.275400 1.520500
6.295400 1.799100
6.315300 1.873100
6.335200 1.709000
6.355200 1.493500
6.375100 1.401600
6.395000 1.383600
6.415000 1.308400
6.434900 1.208800
6.454800 1.229900
6.474800 1.402500
6.494700 1.599000
6.514700 1.715700
6.534600 1.806200
6.554500 1.983300
6.574500 2.246300
6.594400 2.473000
6.614300 2.548300
6.634300 2.450800
6.654200 2.243400
6.674100 2.010600
6.694100 1.804600
6.714000 1.658300
6.733900 1.630500
6.753900 1.770300
6.773800 2.011200
6.793800 2.187300
6.813700 2.217000
6.833600 2.187700
6.853600 2.197700
6.873500 2.215800
6.893400 2.163000
6.913400 2.034500
6.933300 1.872400
6.953200 1.695500
6.973200 1.517900
6.993100 1.368900
7.013100 1.236800
7.033000 1.059800
7.052900 0.843200
7.072900 0.728100
7.092800 0.871600
7.112700 1.263100
7.132700 1.709000
7.152600 2.005800
7.172500 2.070900
7.192500 1.905900
7.212400 1.561600
7.232300 1.193300
7.252300 1.025900
7.272200 1.172500
7.292200 1.519300
7.312100 1.841000
7.332000 2.016000
7.352000 2.071800
7.371900 2.063400
7.391800 2.035100
7.411800 2.068900
7.431700 2.229100
7.451600 2.448100
7.471600 2.552100
7.491500 2.419500
7.511400 2.084900
7.531400 1.699900
7.551300 1.423300
7.571300 1.316700
7.591200 1.304200
7.611100 1.258600
7.631100 1.150900
7.651000 1.083700
7.670900 1.171200
7.690900 1.400000
7.710800 1.613100
7.730700 1.649600
7.750700 1.501200
7.770600 1.320200
7.790500 1.285800
7.810500 1.482600
7.830400 1.881400
7.850400 2.344800
7.870300 2.652800
7.890200 2.658500
7.910200 2.437800
7.930100 2.216000
7.950000 2.184600
7.970000 2.370800
7.989900 2.606700
8.009800 2.694600
8.029800 2.632400
8.049700 2.563300
8.069600 2.525200
8.089600 2.404700
8.109500 2.139200
8.129500 1.821000
8.149400 1.567700
8.169300 1.391100
8.189300 1.229000
8.209200 1.044200
8.229100 0.872900
8.249100 0.809200
8.269000 0.946500
8.288900 1.304000
8.308900 1.783000
8.328800 2.180200
8.348700 2.278800
8.368700 2.008200
8.388600 1.540000
8.408600 1.170700
8.428500 1.073900
8.448400 1.185800
8.468400 1.325800
8.488300 1.387200
8.508200 1.386200
8.528200 1.362800
8.548100 1.312500
8.568000 1.232300
8.588000 1.168300
8.607900 1.174700
8.627900 1.255500
8.647800 1.358900
8.667700 1.424100
8.687700 1.468600
8.707600 1.612800
8.727500 1.943400
8.747500 2.347900
8.767400 2.573200
8.787300 2.502100
8.807300 2.313000
8.827200 2.282000
8.847100 2.454200
8.867100 2.617700
8.887000 2.562100
8.907000 2.252300
8.926900 1.817500
8.946800 1.449200
8.966800 1.247600
8.986700 1.177200
9.006600 1.194500
9.026600 1.309600
9.046500 1.479400
9.066400 1.582600
9.086400 1.581800
9.106300 1.585500
9.126200 1.672100
9.146200 1.783000
9.166100 1.844800
9.186100 1.875000
9.206000 1.916200
9.225900 1.937500
9.245900 1.882700
9.265800 1.803800
9.285700 1.818900
9.305700 1.931800
9.325600 2.038400
9.345500 2.096400
9.365500 2.154700
9.385400 2.240900
9.405300 2.346700
9.425300 2.488900
9.445200 2.652700
9.465200 2.728300
9.485100 2.649600
9.505000 2.504800
9.525000 2.392100
9.544900 2.284800
9.564800 2.136000
9.584800 1.990200
9.604700 1.914900
9.624600 1.922800
9.644600 1.979600
9.664500 2.004900
9.684400 1.908600
9.704400 1.701800
9.724300 1.512600
9.744300 1.472800
9.764200 1.652800
9.784100 2.042500
9.804100 2.498800
9.824000 2.773900
9.843900 2.696300
9.863900 2.321900
9.883800 1.857500
9.903700 1.447600
9.923700 1.105000
9.943600 0.832500
9.963500 0.693000
9.983500 0.747900
10.003400 0.990100
10.023400 1.323900
10.043300 1.603700
10.063200 1.745400
10.083200 1.800500
10.103100 1.875400
10.123000 1.991300
10.143000 2.064300
10.162900 1.999200
10.182800 1.765400
10.202800 1.434300
10.222700 1.179400
10.242700 1.167000
10.262600 1.399900
10.282500 1.707000
10.302500 1.930500
10.322400 2.093700
10.342300 2.330100
10.362300 2.689700
10.382200 3.075100
10.402100 3.302800
10.422100 3.202200
10.442000 2.760400
10.461900 2.200900
10.481900 1.831500
10.501800 1.798900
10.521800 2.029900
10.541700 2.355900
10.561600 2.627900
10.581600 2.755800
10.601500 2.724300
10.621400 2.587100
10.641400 2.423500
10.661300 2.288800
10.681200 2.206800
10.701200 2.212300
10.721100 2.339700
10.741000 2.509800
10.761000 2.539500
10.780900 2.375300
10.800900 2.202200
10.820800 2.227300
10.840700 2.461500
10.860700 2.759200
10.880600 2.966000
10.900500 2.988800
10.920500 2.795300
10.940400 2.418000
10.960300 1.968800
10.980300 1.590100
11.000200 1.353200
11.020100 1.227700
11.040100 1.147600
11.060000 1.082000
11.080000 1.059600
11.099900 1.141900
11.119800 1.368500
11.139800 1.720100
11.159700 2.115000
11.179600 2.427600
11.199600 2.545900
11.219500 2.460600
11.239400 2.281900
11.259400 2.141000
11.279300 2.103900
11.299200 2.186500
11.319200 2.348700
11.339100 2.446800
11.359100 2.344500
