set title 'mp-569567 - Density of States'
set xlabel 'Energy (eV)'
set ylabel 'DOS (states/eV)'
set grid
set xrange [-10:10]
set yrange [0:7.604]
set xzeroaxis lt -1
set terminal png size 800,600
set output 'mp-569567_dos_gnuplot.png'
plot '-' using 1:2 with lines title 'DOS'
-13.940700 0.000000
-13.916400 0.000000
-13.892000 0.000000
-13.867700 0.000000
-13.843400 0.000000
-13.819100 0.000000
-13.794800 0.000000
-13.770500 0.000000
-13.746200 0.000000
-13.721900 0.000000
-13.697600 0.000000
-13.673300 0.000000
-13.649000 0.000000
-13.624700 0.000000
-13.600300 0.000000
-13.576000 0.000000
-13.551700 0.000000
-13.527400 0.000000
-13.503100 0.000000
-13.478800 0.000000
-13.454500 0.000000
-13.430200 0.000000
-13.405900 0.000000
-13.381600 0.000000
-13.357300 0.000000
-13.333000 0.000000
-13.308600 0.000000
-13.284300 0.000000
-13.260000 0.000000
-13.235700 0.000000
-13.211400 0.000000
-13.187100 0.000000
-13.162800 0.000000
-13.138500 0.000000
-13.114200 0.000000
-13.089900 0.000000
-13.065600 0.000000
-13.041300 0.000000
-13.016900 0.000000
-12.992600 0.000000
-12.968300 0.000000
-12.944000 0.000000
-12.919700 0.000000
-12.895400 0.000000
-12.871100 0.000000
-12.846800 0.000000
-12.822500 0.000000
-12.798200 0.000000
-12.773900 0.000000
-12.749600 0.000000
-12.725200 0.000000
-12.700900 0.000000
-12.676600 0.000000
-12.652300 0.000000
-12.628000 0.000000
-12.603700 0.000000
-12.579400 0.000000
-12.555100 0.000000
-12.530800 0.000000
-12.506500 0.000000
-12.482200 0.000000
-12.457900 0.000000
-12.433500 0.000000
-12.409200 0.000000
-12.384900 0.000000
-12.360600 0.000000
-12.336300 0.000000
-12.312000 0.000000
-12.287700 0.000000
-12.263400 0.000000
-12.239100 0.000000
-12.214800 0.000000
-12.190500 0.000000
-12.166200 0.000000
-12.141800 0.000000
-12.117500 0.000000
-12.093200 0.000000
-12.068900 0.000000
-12.044600 0.000000
-12.020300 0.000000
-11.996000 0.000000
-11.971700 0.000000
-11.947400 0.000000
-11.923100 0.000000
-11.898800 0.000000
-11.874500 0.000000
-11.850100 0.000000
-11.825800 0.000000
-11.801500 0.000000
-11.777200 0.000000
-11.752900 0.000000
-11.728600 0.000300
-11.704300 0.006000
-11.680000 0.015600
-11.655700 0.027600
-11.631400 0.042800
-11.607100 0.060300
-11.582800 0.077800
-11.558400 0.095300
-11.534100 0.113600
-11.509800 0.135200
-11.485500 0.157900
-11.461200 0.181900
-11.436900 0.206900
-11.412600 0.233200
-11.388300 0.260400
-11.364000 0.288500
-11.339700 0.317600
-11.315400 0.347600
-11.291100 0.378500
-11.266700 0.410300
-11.242400 0.445100
-11.218100 0.479900
-11.193800 0.514800
-11.169500 0.549600
-11.145200 0.584400
-11.120900 0.619200
-11.096600 0.654000
-11.072300 0.688900
-11.048000 0.682100
-11.023700 0.650300
-10.999400 0.640800
-10.975000 0.638000
-10.950700 0.630000
-10.926400 0.634900
-10.902100 0.661500
-10.877800 0.672000
-10.853500 0.673400
-10.829200 0.678000
-10.804900 0.685000
-10.780600 0.693600
-10.756300 0.702600
-10.732000 0.711500
-10.707700 0.720300
-10.683300 0.729000
-10.659000 0.737900
-10.634700 0.746900
-10.610400 0.754800
-10.586100 0.762300
-10.561800 0.767400
-10.537500 0.770700
-10.513200 0.790800
-10.488900 0.810800
-10.464600 0.830900
-10.440300 0.840900
-10.416000 0.846000
-10.391600 0.851400
-10.367300 0.857100
-10.343000 0.863100
-10.318700 0.872100
-10.294400 0.882800
-10.270100 0.893600
-10.245800 0.904500
-10.221500 0.915500
-10.197200 0.926300
-10.172900 0.937100
-10.148600 0.947900
-10.124300 0.958500
-10.099900 0.969100
-10.075600 0.979700
-10.051300 0.990400
-10.027000 1.001200
-10.002700 1.011500
-9.978400 1.021000
-9.954100 1.029700
-9.929800 1.037500
-9.905500 1.044500
-9.881200 1.050700
-9.856900 1.056900
-9.832600 1.073600
-9.808200 1.090700
-9.783900 1.108100
-9.759600 1.125900
-9.735300 1.135200
-9.711000 1.143700
-9.686700 1.152800
-9.662400 1.162300
-9.638100 1.171300
-9.613800 1.179800
-9.589500 1.187700
-9.565200 1.195600
-9.540900 1.203300
-9.516500 1.210600
-9.492200 1.217000
-9.467900 1.223000
-9.443600 1.228400
-9.419300 1.233200
-9.395000 1.237500
-9.370700 1.241300
-9.346400 1.244500
-9.322100 1.249600
-9.297800 1.256700
-9.273500 1.263600
-9.249200 1.270100
-9.224800 1.276200
-9.200500 1.282200
-9.176200 1.288300
-9.151900 1.294300
-9.127600 1.300100
-9.103300 1.305400
-9.079000 1.310300
-9.054700 1.314300
-9.030400 1.318100
-9.006100 1.321800
-8.981800 1.325400
-8.957400 1.328700
-8.933100 1.331700
-8.908800 1.337800
-8.884500 1.348900
-8.860200 1.360300
-8.835900 1.372100
-8.811600 1.384200
-8.787300 1.394500
-8.763000 1.400000
-8.738700 1.405700
-8.714400 1.411700
-8.690100 1.418000
-8.665700 1.424500
-8.641400 1.431300
-8.617100 1.438300
-8.592800 1.445300
-8.568500 1.452700
-8.544200 1.460500
-8.519900 1.469700
-8.495600 1.479500
-8.471300 1.489100
-8.447000 1.498500
-8.422700 1.507800
-8.398400 1.516900
-8.374000 1.525900
-8.349700 1.534700
-8.325400 1.542800
-8.301100 1.550600
-8.276800 1.558200
-8.252500 1.565500
-8.228200 1.572600
-8.203900 1.579400
-8.179600 1.585900
-8.155300 1.592200
-8.131000 1.598200
-8.106700 1.604000
-8.082300 1.612300
-8.058000 1.623200
-8.033700 1.633900
-8.009400 1.644700
-7.985100 1.655100
-7.960800 1.665200
-7.936500 1.674900
-7.912200 1.684300
-7.887900 1.693300
-7.863600 1.701900
-7.839300 1.710000
-7.815000 1.717600
-7.790600 1.724700
-7.766300 1.731400
-7.742000 1.738200
-7.717700 1.751300
-7.693400 1.764400
-7.669100 1.777800
-7.644800 1.791500
-7.620500 1.805400
-7.596200 1.819700
-7.571900 1.829400
-7.547600 1.838200
-7.523300 1.847300
-7.498900 1.856600
-7.474600 1.866200
-7.450300 1.876100
-7.426000 1.886200
-7.401700 1.896500
-7.377400 1.907200
-7.353100 1.917500
-7.328800 1.928100
-7.304500 1.938900
-7.280200 1.949900
-7.255900 1.961000
-7.231600 1.972100
-7.207200 1.983300
-7.182900 1.994600
-7.158600 2.008100
-7.134300 2.079600
-7.110000 2.269700
-7.085700 2.422900
-7.061400 2.514500
-7.037100 2.530700
-7.012800 2.522400
-6.988500 2.515300
-6.964200 2.520700
-6.939900 2.540600
-6.915500 2.603100
-6.891200 2.655800
-6.866900 2.702500
-6.842600 2.745200
-6.818300 2.784100
-6.794000 2.823900
-6.769700 2.869100
-6.745400 2.884200
-6.721100 2.879100
-6.696800 2.864700
-6.672500 2.836900
-6.648200 2.799800
-6.623800 2.762200
-6.599500 2.724400
-6.575200 2.690400
-6.550900 2.661100
-6.526600 2.636600
-6.502300 2.617000
-6.478000 2.621800
-6.453700 2.631200
-6.429400 2.634800
-6.405100 2.632800
-6.380800 2.633400
-6.356500 2.633200
-6.332100 2.631000
-6.307800 2.626900
-6.283500 2.621500
-6.259200 2.617700
-6.234900 2.613800
-6.210600 2.625700
-6.186300 2.615000
-6.162000 2.596600
-6.137700 2.586200
-6.113400 2.566300
-6.089100 2.537000
-6.064800 2.497800
-6.040400 2.455700
-6.016100 2.412500
-5.991800 2.368000
-5.967500 2.322400
-5.943200 2.280900
-5.918900 2.243100
-5.894600 2.208900
-5.870300 2.183600
-5.846000 2.184200
-5.821700 2.219900
-5.797400 2.339000
-5.773100 2.434600
-5.748700 2.506200
-5.724400 2.554000
-5.700100 2.578100
-5.675800 2.581800
-5.651500 2.566700
-5.627200 2.532900
-5.602900 2.508200
-5.578600 2.479300
-5.554300 2.433000
-5.530000 2.444200
-5.505700 2.464800
-5.481400 2.477800
-5.457000 2.483200
-5.432700 3.130400
-5.408400 2.177300
-5.384100 2.112300
-5.359800 2.059900
-5.335500 2.020300
-5.311200 1.993400
-5.286900 1.979300
-5.262600 1.975700
-5.238300 1.975100
-5.214000 1.982700
-5.189700 1.994200
-5.165300 2.009700
-5.141000 2.029100
-5.116700 2.054400
-5.092400 2.073900
-5.068100 2.085800
-5.043800 2.092900
-5.019500 2.095100
-4.995200 2.092700
-4.970900 2.085500
-4.946600 2.075700
-4.922300 2.067100
-4.898000 2.059400
-4.873600 2.052900
-4.849300 2.047600
-4.825000 2.043500
-4.800700 2.040600
-4.776400 2.037000
-4.752100 2.032100
-4.727800 2.025900
-4.703500 2.018400
-4.679200 2.009700
-4.654900 1.999700
-4.630600 1.989100
-4.606300 1.978100
-4.581900 1.966300
-4.557600 1.952100
-4.533300 1.941600
-4.509000 1.929600
-4.484700 1.916300
-4.460400 1.912500
-4.436100 1.911000
-4.411800 1.911000
-4.387500 1.911300
-4.363200 1.911800
-4.338900 1.863100
-4.314600 1.793400
-4.290200 1.721000
-4.265900 1.642000
-4.241600 1.558800
-4.217300 1.474300
-4.193000 1.392000
-4.168700 1.305800
-4.144400 1.374900
-4.120100 1.804300
-4.095800 1.952600
-4.071500 2.075800
-4.047200 2.282500
-4.022900 2.222900
-3.998500 2.201100
-3.974200 2.167700
-3.949900 2.141700
-3.925600 2.119800
-3.901300 2.101200
-3.877000 2.111000
-3.852700 2.130500
-3.828400 2.123400
-3.804100 2.110900
-3.779800 2.091800
-3.755500 2.064700
-3.731200 2.027600
-3.706800 1.979400
-3.682500 1.920000
-3.658200 1.854200
-3.633900 1.784500
-3.609600 1.710800
-3.585300 1.634400
-3.561000 1.557400
-3.536700 1.477100
-3.512400 1.408100
-3.488100 1.307200
-3.463800 1.314000
-3.439400 1.324500
-3.415100 1.339600
-3.390800 1.357200
-3.366500 1.377100
-3.342200 1.399500
-3.317900 1.424200
-3.293600 1.451300
-3.269300 1.479900
-3.245000 1.399400
-3.220700 1.357600
-3.196400 1.316000
-3.172100 1.278900
-3.147700 1.246500
-3.123400 1.218500
-3.099100 1.195200
-3.074800 1.176400
-3.050500 1.162200
-3.026200 1.150100
-3.001900 1.126600
-2.977600 1.096700
-2.953300 1.065000
-2.929000 1.036000
-2.904700 1.006100
-2.880400 0.973300
-2.856000 0.948300
-2.831700 0.910200
-2.807400 0.950300
-2.783100 1.000900
-2.758800 1.052900
-2.734500 1.105900
-2.710200 1.160300
-2.685900 1.216800
-2.661600 1.273600
-2.637300 1.331000
-2.613000 1.388800
-2.588700 1.447000
-2.564300 1.505700
-2.540000 1.568900
-2.515700 1.635800
-2.491400 1.924900
-2.467100 2.292700
-2.442800 2.697200
-2.418500 3.100400
-2.394200 3.496400
-2.369900 3.885600
-2.345600 4.261400
-2.321300 4.406400
-2.297000 4.404400
-2.272600 4.357400
-2.248300 4.276900
-2.224000 4.212500
-2.199700 4.176200
-2.175400 4.171100
-2.151100 4.253000
-2.126800 3.877700
-2.102500 3.191100
-2.078200 2.539300
-2.053900 2.482700
-2.029600 2.546600
-2.005300 2.613300
-1.980900 2.696400
-1.956600 2.891700
-1.932300 3.180200
-1.908000 3.550600
-1.883700 4.551200
-1.859400 5.251600
-1.835100 5.004500
-1.810800 4.430600
-1.786500 3.853800
-1.762200 3.264800
-1.737900 3.307200
-1.713600 3.306700
-1.689200 3.493900
-1.664900 3.594100
-1.640600 3.609300
-1.616300 3.542600
-1.592000 3.433700
-1.567700 3.344100
-1.543400 3.223600
-1.519100 3.088000
-1.494800 2.963600
-1.470500 2.830000
-1.446200 2.677900
-1.421900 2.540600
-1.397500 2.463000
-1.373200 2.390800
-1.348900 2.324100
-1.324600 2.270600
-1.300300 2.245200
-1.276000 2.275900
-1.251700 2.294100
-1.227400 2.269400
-1.203100 2.355300
-1.178800 2.442700
-1.154500 2.529200
-1.130200 2.612700
-1.105800 2.693100
-1.081500 2.770500
-1.057200 2.822000
-1.032900 2.822500
-1.008600 2.800100
-0.984300 2.765800
-0.960000 2.721300
-0.935700 2.670500
-0.911400 2.626000
-0.887100 2.586300
-0.862800 2.542900
-0.838500 2.492700
-0.814100 2.465000
-0.789800 2.445000
-0.765500 2.425500
-0.741200 2.386500
-0.716900 2.353600
-0.692600 2.328900
-0.668300 2.306200
-0.644000 2.285600
-0.619700 2.267400
-0.595400 2.254100
-0.571100 2.245500
-0.546800 2.240000
-0.522400 2.244200
-0.498100 2.258200
-0.473800 2.280300
-0.449500 2.306400
-0.425200 2.336800
-0.400900 2.367000
-0.376600 2.396600
-0.352300 2.425900
-0.328000 2.454700
-0.303700 2.483000
-0.279400 2.511000
-0.255100 2.538500
-0.230700 2.565900
-0.206400 2.593200
-0.182100 2.618400
-0.157800 2.632900
-0.133500 2.634700
-0.109200 2.626200
-0.084900 2.613300
-0.060600 2.602300
-0.036300 2.611000
-0.012000 2.619000
0.012300 2.620700
0.036600 2.616400
0.061000 2.605900
0.085300 2.589400
0.109600 2.566700
0.133900 2.559500
0.158200 2.548200
0.182500 2.522100
0.206800 2.504000
0.231100 2.490600
0.255400 2.477900
0.279700 2.465900
0.304000 2.454600
0.328300 2.455400
0.352700 2.470200
0.377000 2.485800
0.401300 2.502100
0.425600 2.521400
0.449900 2.548200
0.474200 2.574100
0.498500 2.598800
0.522800 2.622200
0.547100 2.644500
0.571400 2.665500
0.595700 2.685200
0.620000 2.703600
0.644400 2.726700
0.668700 2.751900
0.693000 2.774300
0.717300 2.788900
0.741600 2.799500
0.765900 2.806800
0.790200 2.812000
0.814500 2.817100
0.838800 2.813000
0.863100 2.788300
0.887400 2.751400
0.911700 2.711400
0.936100 2.675200
0.960400 2.656300
0.984700 2.644100
1.009000 2.638600
1.033300 2.639600
1.057600 2.645700
1.081900 2.657400
1.106200 2.685800
1.130500 2.719400
1.154800 2.757300
1.179100 2.810500
1.203400 2.862900
1.227800 2.914600
1.252100 2.965400
1.276400 3.015500
1.300700 3.064700
1.325000 3.113100
1.349300 3.160500
1.373600 3.205300
1.397900 3.248900
1.422200 3.282700
1.446500 3.308100
1.470800 3.334500
1.495100 3.364400
1.519500 3.402700
1.543800 3.452800
1.568100 3.504300
1.592400 3.557000
1.616700 3.611300
1.641000 3.668500
1.665300 3.725800
1.689600 3.915300
1.713900 4.026600
1.738200 4.107800
1.762500 4.208100
1.786800 4.276500
1.811200 4.333800
1.835500 4.392200
1.859800 4.409400
1.884100 4.362800
1.908400 4.346000
1.932700 4.321600
1.957000 4.289200
1.981300 4.248900
2.005600 4.189100
2.029900 4.146100
2.054200 4.124200
2.078600 4.110100
2.102900 4.108000
2.127200 4.120500
2.151500 4.141300
2.175800 4.161800
2.200100 4.182600
2.224400 4.204300
2.248700 4.224300
2.273000 4.241300
2.297300 4.356600
2.321600 4.460000
2.345900 4.472300
2.370300 4.410000
2.394600 4.417900
2.418900 4.426500
2.443200 4.433000
2.467500 4.444700
2.491800 4.454700
2.516100 4.452200
2.540400 4.428100
2.564700 4.360300
2.589000 4.320300
2.613300 4.312800
2.637600 4.308200
2.662000 4.306700
2.686300 4.308400
2.710600 4.312800
2.734900 4.319600
2.759200 4.331300
2.783500 4.348000
2.807800 4.365600
2.832100 4.382500
2.856400 4.394600
2.880700 4.412000
2.905000 4.422600
2.929300 4.421700
2.953700 4.430200
2.978000 4.427700
3.002300 4.408700
3.026600 4.392700
3.050900 4.378100
3.075200 4.360600
3.099500 4.341700
3.123800 4.321500
3.148100 4.293100
3.172400 4.247700
3.196700 4.196300
3.221000 4.163000
3.245400 4.167700
3.269700 4.159900
3.294000 4.163300
3.318300 4.170500
3.342600 4.178700
3.366900 4.187000
3.391200 4.194500
3.415500 4.200600
3.439800 4.200200
3.464100 4.194700
3.488400 4.186000
3.512700 4.172300
3.537100 4.156900
3.561400 4.139000
3.585700 4.123300
3.610000 6.912400
3.634300 5.730600
3.658600 5.785300
3.682900 5.822500
3.707200 5.857000
3.731500 5.921000
3.755800 5.845600
3.780100 5.615000
3.804400 5.365500
3.828800 5.155000
3.853100 5.090000
3.877400 5.086600
3.901700 5.168900
3.926000 5.340100
3.950300 5.156000
3.974600 4.958200
3.998900 4.969700
4.023200 4.988100
4.047500 5.017200
4.071800 5.039900
4.096100 5.046700
4.120500 5.039300
4.144800 5.012600
4.169100 4.892100
4.193400 4.848200
4.217700 4.793600
4.242000 4.732800
4.266300 4.802100
4.290600 4.897200
4.314900 4.990400
4.339200 5.093400
4.363500 5.198600
4.387800 5.302500
4.412200 5.407400
4.436500 5.511200
4.460800 5.571900
4.485100 5.567400
4.509400 5.488300
4.533700 5.418900
4.558000 5.407200
4.582300 5.406500
4.606600 5.368800
4.630900 5.304400
4.655200 5.275000
4.679500 5.278500
4.703900 5.283800
4.728200 5.294700
4.752500 5.317100
4.776800 5.383400
4.801100 5.458600
4.825400 5.535300
4.849700 5.607700
4.874000 5.629000
4.898300 5.477000
4.922600 5.462700
4.946900 5.461200
4.971200 5.459800
4.995600 5.458400
5.019900 5.453800
5.044200 5.439400
5.068500 5.430900
5.092800 5.425300
5.117100 5.423900
5.141400 5.452300
5.165700 5.477900
5.190000 5.515400
5.214300 5.561300
5.238600 5.610600
5.262900 5.614700
5.287300 5.549300
5.311600 5.484500
5.335900 5.404000
5.360200 5.322400
5.384500 5.289700
5.408800 5.288400
5.433100 5.284100
5.457400 5.277000
5.481700 5.267800
5.506000 5.257000
5.530300 5.248800
5.554600 5.243400
5.579000 5.240600
5.603300 5.239800
5.627600 5.244800
5.651900 5.261000
5.676200 5.275100
5.700500 5.307300
5.724800 5.311800
5.749100 5.312500
5.773400 5.312400
5.797700 5.312800
5.822000 5.310500
5.846300 5.302900
5.870700 5.293200
5.895000 5.282800
5.919300 5.272600
5.943600 5.260600
5.967900 5.243600
5.992200 5.226200
6.016500 5.208700
6.040800 5.191100
6.065100 5.421800
6.089400 5.531000
6.113700 5.627900
6.138000 5.740200
6.162400 5.652000
6.186700 5.564600
6.211000 5.479800
6.235300 5.501700
6.259600 5.518500
6.283900 5.460800
6.308200 5.373900
6.332500 5.294400
6.356800 5.219700
6.381100 5.144600
6.405400 5.072000
6.429700 5.004300
6.454100 4.939300
6.478400 4.872500
6.502700 4.804500
6.527000 4.735500
6.551300 4.665400
6.575600 4.595000
6.599900 4.525800
6.624200 4.458500
6.648500 4.394400
6.672800 4.333100
6.697100 4.269600
6.721400 4.196000
6.745800 4.120100
6.770100 4.042400
6.794400 3.965300
6.818700 3.886200
6.843000 3.804300
6.867300 3.719400
6.891600 3.636600
6.915900 3.554300
6.940200 3.473600
6.964500 3.395100
6.988800 3.319500
7.013100 3.245700
7.037500 3.174200
7.061800 3.106800
7.086100 3.043900
7.110400 2.980800
7.134700 2.912700
7.159000 2.837400
7.183300 2.764100
7.207600 2.703600
7.231900 2.642700
7.256200 2.583000
7.280500 2.525100
7.304800 2.470000
7.329200 2.417300
7.353500 2.367600
7.377800 2.319900
7.402100 2.275200
7.426400 2.236400
7.450700 2.200400
7.475000 2.165200
7.499300 2.130600
7.523600 2.096700
7.547900 2.062900
7.572200 2.029500
7.596500 1.997200
7.620900 1.965800
7.645200 1.934800
7.669500 1.904100
7.693800 1.873800
7.718100 1.843900
7.742400 1.814400
7.766700 1.786000
7.791000 1.762900
7.815300 1.740100
7.839600 1.716400
7.863900 1.691300
7.888300 1.665600
7.912600 1.639600
7.936900 1.613100
7.961200 1.586600
7.985500 1.560500
8.009800 1.534800
8.034100 1.509700
8.058400 1.485600
8.082700 1.462200
8.107000 1.439700
8.131300 1.418100
8.155600 1.397000
8.180000 1.373700
8.204300 1.350400
8.228600 1.327500
8.252900 1.305800
8.277200 1.286000
8.301500 1.268300
8.325800 1.256800
8.350100 1.248700
8.374400 1.238600
8.398700 1.225600
8.423000 1.208200
8.447300 1.185700
8.471700 1.159400
8.496000 1.132900
8.520300 1.106700
8.544600 1.080600
8.568900 1.057000
8.593200 1.036700
8.617500 1.016100
8.641800 0.994700
8.666100 0.973000
8.690400 0.953400
8.714700 0.936700
8.739000 0.931900
8.763400 0.910700
8.787700 0.883800
8.812000 0.859700
8.836300 0.829100
8.860600 0.797800
8.884900 0.766500
8.909200 0.735300
8.933500 0.704000
8.957800 0.672700
8.982100 0.641800
9.006400 0.611300
9.030700 0.581500
9.055100 0.552800
9.079400 0.524600
9.103700 0.496700
9.128000 0.469200
9.152300 0.442200
9.176600 0.415500
9.200900 0.389200
9.225200 0.363400
9.249500 0.337700
9.273800 0.312200
9.298100 0.286900
9.322400 0.261800
9.346800 0.236900
9.371100 0.212100
9.395400 0.188900
9.419700 0.169100
9.444000 0.149500
9.468300 0.130100
9.492600 0.110900
9.516900 0.091800
9.541200 0.072900
9.565500 0.056600
9.589800 0.042500
9.614100 0.030400
9.638500 0.019800
9.662800 0.010700
9.687100 0.003900
9.711400 0.000000
9.735700 0.000000
9.760000 0.000000
9.784300 0.000000
9.808600 0.000000
9.832900 0.000000
9.857200 0.000000
9.881500 0.000000
9.905800 0.000000
9.930200 0.000000
9.954500 0.000000
9.978800 0.000000
10.003100 0.000000
10.027400 0.000000
10.051700 0.000000
10.076000 0.000000
10.100300 0.000000
10.124600 0.000000
10.148900 0.000000
10.173200 0.000000
10.197500 0.000000
10.221900 0.000000
10.246200 0.000000
10.270500 0.000000
10.294800 0.000000
10.319100 0.000000
10.343400 0.000000
10.367700 0.000000
10.392000 0.000000
10.416300 0.000000
10.440600 0.000000
10.464900 0.000000
10.489200 0.000000
10.513600 0.000000
10.537900 0.000000
10.562200 0.000000
10.586500 0.000000
10.610800 0.000000
10.635100 0.000000
10.659400 0.000000
10.683700 0.000000
10.708000 0.000000
10.732300 0.000000
10.756600 0.000000
10.780900 0.000000
10.805300 0.000000
10.829600 0.000000
10.853900 0.000000
10.878200 0.000000
10.902500 0.000000
10.926800 0.000000
10.951100 0.000000
10.975400 0.000000
10.999700 0.000000
11.024000 0.000000
11.048300 0.000000
11.072600 0.000000
11.097000 0.000000
11.121300 0.000000
11.145600 0.000000
11.169900 0.000000
11.194200 0.000000
11.218500 0.000000
11.242800 0.000000
11.267100 0.000000
11.291400 0.000000
11.315700 0.000000
11.340000 0.000000
11.364300 0.000000
11.388700 0.000000
11.413000 0.000000
11.437300 0.000000
11.461600 0.000000
11.485900 0.000000
11.510200 0.000000
11.534500 0.000000
11.558800 0.000000
11.583100 0.000000
