set title 'mp-11693 - Density of States'
set xlabel 'Energy (eV)'
set ylabel 'DOS (states/eV)'
set grid
set xrange [-10:10]
set yrange [0:14.353]
set xzeroaxis lt -1
set terminal png size 800,600
set output 'mp-11693_dos_gnuplot.png'
plot '-' using 1:2 with lines title 'DOS'
-8.762100 0.000000
-8.735700 0.000000
-8.709300 0.000000
-8.682800 0.000000
-8.656400 0.000000
-8.630000 0.000000
-8.603500 0.000000
-8.577100 0.000000
-8.550700 0.000000
-8.524300 0.000000
-8.497800 0.000000
-8.471400 0.000000
-8.445000 0.000000
-8.418500 0.000000
-8.392100 0.000000
-8.365700 0.000000
-8.339300 0.000000
-8.312800 0.000000
-8.286400 0.000000
-8.260000 0.000000
-8.233500 0.000000
-8.207100 0.000000
-8.180700 0.000000
-8.154300 0.000000
-8.127800 0.000000
-8.101400 0.000000
-8.075000 0.000000
-8.048500 0.000000
-8.022100 0.000000
-7.995700 0.000000
-7.969200 0.000000
-7.942800 0.000000
-7.916400 0.000000
-7.890000 0.000000
-7.863500 0.000000
-7.837100 0.000000
-7.810700 0.000000
-7.784200 0.000000
-7.757800 0.000000
-7.731400 0.000000
-7.705000 0.000000
-7.678500 0.000000
-7.652100 0.000000
-7.625700 0.000000
-7.599200 0.000000
-7.572800 0.000000
-7.546400 0.000000
-7.520000 0.000000
-7.493500 0.000000
-7.467100 0.000000
-7.440700 0.000000
-7.414200 0.000000
-7.387800 0.000000
-7.361400 0.000000
-7.335000 0.000000
-7.308500 0.000000
-7.282100 0.000000
-7.255700 0.000000
-7.229200 0.000000
-7.202800 0.000000
-7.176400 0.000000
-7.150000 0.000000
-7.123500 0.000000
-7.097100 0.000000
-7.070700 0.000000
-7.044200 0.000000
-7.017800 0.000000
-6.991400 0.000000
-6.965000 0.000000
-6.938500 0.000000
-6.912100 0.000000
-6.885700 0.000000
-6.859200 0.000000
-6.832800 0.000000
-6.806400 0.000000
-6.780000 0.000000
-6.753500 0.000000
-6.727100 0.000000
-6.700700 0.000000
-6.674200 0.000000
-6.647800 0.000000
-6.621400 0.000000
-6.595000 0.000000
-6.568500 0.000000
-6.542100 0.000000
-6.515700 0.000000
-6.489200 0.000000
-6.462800 0.000000
-6.436400 0.000000
-6.410000 0.000000
-6.383500 0.000000
-6.357100 0.003900
-6.330700 0.069600
-6.304200 0.175200
-6.277800 0.300100
-6.251400 0.315100
-6.225000 0.354500
-6.198500 0.397200
-6.172100 0.435700
-6.145700 0.480400
-6.119200 0.527100
-6.092800 0.575600
-6.066400 0.613200
-6.040000 0.646200
-6.013500 0.677300
-5.987100 0.710500
-5.960700 0.746600
-5.934200 0.784300
-5.907800 0.830900
-5.881400 0.887200
-5.855000 0.932100
-5.828500 0.963900
-5.802100 0.982800
-5.775700 0.995900
-5.749200 1.027100
-5.722800 1.075700
-5.696400 1.181900
-5.670000 1.221900
-5.643500 1.266300
-5.617100 1.317200
-5.590700 1.374600
-5.564200 1.437600
-5.537800 1.504100
-5.511400 1.567500
-5.484900 1.631900
-5.458500 1.697200
-5.432100 1.774600
-5.405700 1.866800
-5.379200 1.964900
-5.352800 2.076100
-5.326400 2.197400
-5.299900 2.322300
-5.273500 2.459400
-5.247100 2.614100
-5.220700 2.785000
-5.194200 2.983900
-5.167800 3.226600
-5.141400 3.524400
-5.114900 4.019100
-5.088500 4.788700
-5.062100 4.974300
-5.035700 4.886500
-5.009200 4.906300
-4.982800 4.890000
-4.956400 5.172200
-4.929900 5.918800
-4.903500 4.845700
-4.877100 4.177100
-4.850700 3.474800
-4.824200 3.665900
-4.797800 3.867000
-4.771400 4.089400
-4.744900 4.278200
-4.718500 4.616400
-4.692100 5.143600
-4.665700 5.811000
-4.639200 4.561500
-4.612800 4.024900
-4.586400 0.000000
-4.559900 0.000000
-4.533500 0.000000
-4.507100 0.000000
-4.480700 0.000000
-4.454200 0.000000
-4.427800 0.000000
-4.401400 0.000000
-4.374900 0.000000
-4.348500 0.000000
-4.322100 0.000000
-4.295700 0.000000
-4.269200 0.000000
-4.242800 0.000000
-4.216400 0.000000
-4.189900 0.000000
-4.163500 0.000000
-4.137100 0.000000
-4.110700 0.000000
-4.084200 0.000000
-4.057800 0.000000
-4.031400 0.000000
-4.004900 0.000000
-3.978500 0.000000
-3.952100 0.000000
-3.925700 0.000000
-3.899200 0.000000
-3.872800 0.000000
-3.846400 0.000000
-3.819900 0.000000
-3.793500 0.000000
-3.767100 0.000000
-3.740700 0.000000
-3.714200 0.000000
-3.687800 0.000000
-3.661400 0.000000
-3.634900 0.000000
-3.608500 0.000000
-3.582100 0.000000
-3.555700 0.000000
-3.529200 0.000000
-3.502800 0.000000
-3.476400 0.000000
-3.449900 0.000000
-3.423500 0.000000
-3.397100 0.000000
-3.370700 0.000000
-3.344200 0.000000
-3.317800 0.000000
-3.291400 0.000000
-3.264900 0.000000
-3.238500 0.000000
-3.212100 0.000000
-3.185600 0.000000
-3.159200 0.000000
-3.132800 0.000000
-3.106400 0.000000
-3.079900 0.000000
-3.053500 0.000000
-3.027100 0.000000
-3.000600 0.000000
-2.974200 0.000000
-2.947800 0.000000
-2.921400 0.000000
-2.894900 0.000000
-2.868500 0.000000
-2.842100 0.000000
-2.815600 0.000000
-2.789200 0.000000
-2.762800 0.000000
-2.736400 0.000000
-2.709900 0.000000
-2.683500 0.000000
-2.657100 0.000000
-2.630600 0.000000
-2.604200 0.000000
-2.577800 0.000000
-2.551400 0.000000
-2.524900 0.000000
-2.498500 0.000000
-2.472100 0.000000
-2.445600 0.000000
-2.419200 0.000000
-2.392800 0.000000
-2.366400 0.000000
-2.339900 0.000000
-2.313500 0.000000
-2.287100 0.000000
-2.260600 0.000000
-2.234200 0.000000
-2.207800 0.000000
-2.181400 0.000000
-2.154900 0.000000
-2.128500 0.000000
-2.102100 0.000000
-2.075600 0.000000
-2.049200 0.000000
-2.022800 0.000000
-1.996400 0.000000
-1.969900 0.000000
-1.943500 0.000000
-1.917100 0.000000
-1.890600 0.000000
-1.864200 0.000000
-1.837800 0.000000
-1.811400 0.000000
-1.784900 0.000000
-1.758500 0.000000
-1.732100 0.000000
-1.705600 0.000000
-1.679200 0.000000
-1.652800 0.000000
-1.626400 0.000000
-1.599900 0.000000
-1.573500 0.000000
-1.547100 0.000000
-1.520600 0.000000
-1.494200 0.000000
-1.467800 0.000000
-1.441400 0.000000
-1.414900 0.000000
-1.388500 0.000000
-1.362100 0.000000
-1.335600 0.000000
-1.309200 0.000000
-1.282800 0.000000
-1.256400 0.000000
-1.229900 0.000000
-1.203500 0.000000
-1.177100 0.000000
-1.150600 0.000000
-1.124200 0.000000
-1.097800 0.000000
-1.071400 0.000000
-1.044900 0.000000
-1.018500 0.000000
-0.992100 0.000000
-0.965600 0.000000
-0.939200 0.000000
-0.912800 0.000000
-0.886400 0.000000
-0.859900 0.000000
-0.833500 0.000000
-0.807100 0.000000
-0.780600 0.000000
-0.754200 0.000000
-0.727800 0.000000
-0.701300 0.000000
-0.674900 0.000000
-0.648500 0.000000
-0.622100 0.000000
-0.595600 0.000000
-0.569200 0.000000
-0.542800 0.000000
-0.516300 0.000000
-0.489900 0.000000
-0.463500 0.000000
-0.437100 0.000000
-0.410600 0.000000
-0.384200 0.000000
-0.357800 0.000000
-0.331300 0.000000
-0.304900 0.000000
-0.278500 0.000000
-0.252100 0.000000
-0.225600 0.000000
-0.199200 0.000000
-0.172800 0.000000
-0.146300 0.000000
-0.119900 0.000000
-0.093500 0.000000
-0.067100 0.000000
-0.040600 0.000000
-0.014200 0.000000
0.012200 0.000000
0.038700 0.000000
0.065100 0.000000
0.091500 0.000000
0.117900 0.000000
0.144400 0.000000
0.170800 0.000000
0.197200 0.000400
0.223700 0.059000
0.250100 0.317400
0.276500 1.253100
0.302900 2.174200
0.329400 2.772800
0.355800 2.934000
0.382200 2.899900
0.408700 2.922800
0.435100 3.157700
0.461500 3.438500
0.487900 3.785500
0.514400 4.289500
0.540800 5.945100
0.567200 6.570000
0.593700 4.121700
0.620100 3.705000
0.646500 3.501800
0.672900 3.082800
0.699400 2.967300
0.725800 2.937800
0.752200 3.020400
0.778700 2.826000
0.805100 2.745400
0.831500 2.793300
0.857900 2.960800
0.884400 3.176100
0.910800 3.357100
0.937200 3.581700
0.963700 4.339500
0.990100 3.826900
1.016500 3.634700
1.042900 3.782300
1.069400 3.740400
1.095800 3.508100
1.122200 3.558300
1.148700 3.619200
1.175100 3.709600
1.201500 3.845800
1.227900 3.023500
1.254400 2.864400
1.280800 3.023100
1.307200 2.960300
1.333700 3.040900
1.360100 3.108100
1.386500 3.151000
1.412900 5.056600
1.439400 2.957800
1.465800 3.481500
1.492200 4.252600
1.518700 4.408800
1.545100 3.707400
1.571500 3.730300
1.598000 3.846800
1.624400 4.160000
1.650800 4.715200
1.677200 5.956600
1.703700 6.570100
1.730100 7.928400
1.756500 7.643600
1.783000 7.586400
1.809400 7.787100
1.835800 7.631600
1.862200 5.975800
1.888700 6.204000
1.915100 5.861200
1.941500 5.315100
1.968000 4.516000
1.994400 5.103400
2.020800 5.712600
2.047200 6.271100
2.073700 6.388200
2.100100 6.272600
2.126500 5.732200
2.153000 4.714500
2.179400 4.421800
2.205800 4.063000
2.232200 5.789000
2.258700 4.720900
2.285100 4.700200
2.311500 4.951700
2.338000 5.353000
2.364400 6.110600
2.390800 6.548900
2.417200 6.199900
2.443700 5.493300
2.470100 5.482400
2.496500 5.195400
2.523000 5.108500
2.549400 4.623500
2.575800 4.219800
2.602200 4.248800
2.628700 4.054200
2.655100 3.894300
2.681500 4.070400
2.708000 4.358000
2.734400 4.679500
2.760800 5.582600
2.787200 6.644900
2.813700 6.236900
2.840100 5.729700
2.866500 5.553900
2.893000 5.817900
2.919400 4.696100
2.945800 3.556800
2.972200 3.966000
2.998700 5.156700
3.025100 7.285200
3.051500 5.693900
3.078000 5.121400
3.104400 4.848300
3.130800 4.871600
3.157200 5.037000
3.183700 5.206800
3.210100 5.367400
3.236500 5.558700
3.263000 5.524100
3.289400 5.267100
3.315800 5.185300
3.342200 4.912100
3.368700 4.360400
3.395100 4.266000
3.421500 4.353800
3.448000 4.519500
3.474400 4.929900
3.500800 4.837800
3.527200 4.691300
3.553700 4.445400
3.580100 4.202500
3.606500 4.947700
3.633000 5.115700
3.659400 4.383800
3.685800 3.732700
3.712200 1.979700
3.738700 1.982200
3.765100 1.992600
3.791500 2.253800
3.818000 2.966900
3.844400 3.193400
3.870800 3.035200
3.897300 3.507700
3.923700 3.933000
3.950100 4.643600
3.976500 5.730100
4.003000 7.144700
4.029400 7.374500
4.055800 6.456700
4.082300 5.463800
4.108700 4.996800
4.135100 7.198600
4.161500 10.302400
4.188000 13.048200
4.214400 10.318000
4.240800 4.690000
4.267300 4.320400
4.293700 5.131700
4.320100 6.429800
4.346500 6.110600
4.373000 6.166900
4.399400 6.050000
4.425800 5.659900
4.452300 4.914200
4.478700 4.311400
4.505100 4.247400
4.531500 4.613400
4.558000 5.144200
4.584400 5.973000
4.610800 7.100800
4.637300 9.221200
4.663700 10.524200
4.690100 9.126500
4.716500 5.891400
4.743000 6.017200
4.769400 6.385800
4.795800 6.739000
4.822300 6.977300
4.848700 7.575200
4.875100 8.139700
4.901500 8.282000
4.928000 8.172200
4.954400 8.090300
4.980800 9.837900
5.007300 6.044800
5.033700 5.064700
5.060100 4.359000
5.086500 3.623300
5.113000 3.429900
5.139400 3.454500
5.165800 3.260500
5.192300 3.523100
5.218700 3.161600
5.245100 3.071800
5.271500 3.088600
5.298000 3.162400
5.324400 2.885500
5.350800 2.857000
5.377300 2.823800
5.403700 2.791000
5.430100 2.776100
5.456500 2.730000
5.483000 2.709900
5.509400 2.810600
5.535800 2.836800
5.562300 2.739700
5.588700 2.692400
5.615100 2.706400
5.641500 2.726300
5.668000 2.775200
5.694400 2.760200
5.720800 2.744900
5.747300 2.691500
5.773700 2.581700
5.800100 2.446100
5.826500 2.299900
5.853000 2.258400
5.879400 2.233200
5.905800 2.210200
5.932300 2.184900
5.958700 2.168300
5.985100 2.151100
6.011500 2.095600
6.038000 2.060300
6.064400 2.064300
6.090800 2.077100
6.117300 2.100100
6.143700 2.135400
6.170100 2.187100
6.196500 2.213900
6.223000 2.238400
6.249400 2.259200
6.275800 2.306900
6.302300 2.334200
6.328700 2.311700
6.355100 2.318600
6.381600 2.302000
6.408000 2.148700
6.434400 2.111100
6.460800 2.083600
6.487300 2.058900
6.513700 2.038100
6.540100 2.018600
6.566600 1.999700
6.593000 1.983200
6.619400 1.970500
6.645800 1.961400
6.672300 1.954400
6.698700 1.941400
6.725100 1.926700
6.751600 1.915100
6.778000 1.902900
6.804400 1.887900
6.830800 1.866100
6.857300 1.838900
6.883700 1.807900
6.910100 1.765500
6.936600 1.739000
6.963000 1.731500
6.989400 1.703800
7.015800 1.668900
7.042300 1.628500
7.068700 1.585300
7.095100 1.544200
7.121600 1.502900
7.148000 1.460200
7.174400 1.415800
7.200800 1.390800
7.227300 1.379100
7.253700 1.380800
7.280100 1.383500
7.306600 1.395500
7.333000 1.431600
7.359400 1.369500
7.385800 1.408700
7.412300 1.344400
7.438700 1.313800
7.465100 1.216600
7.491600 1.122800
7.518000 1.033700
7.544400 0.952000
7.570800 0.876000
7.597300 0.907600
7.623700 1.307800
7.650100 1.310800
7.676600 1.243400
7.703000 1.453600
7.729400 1.363500
7.755800 1.407200
7.782300 1.336900
7.808700 1.250800
7.835100 1.201600
7.861600 1.175900
7.888000 1.193900
7.914400 1.230300
7.940800 1.278000
7.967300 1.335600
7.993700 1.400300
8.020100 1.485400
8.046600 1.672300
8.073000 2.012000
8.099400 2.353500
8.125800 2.840400
8.152300 3.215200
8.178700 3.246100
8.205100 3.037400
8.231600 2.958000
8.258000 2.911500
8.284400 2.862500
8.310800 2.896000
8.337300 2.949600
8.363700 2.906000
8.390100 2.759900
8.416600 2.524900
8.443000 2.405000
8.469400 2.288000
8.495800 2.237700
8.522300 2.109200
8.548700 1.989200
8.575100 1.910200
8.601600 1.836100
8.628000 1.762000
8.654400 1.721300
8.680900 1.735900
8.707300 1.493100
8.733700 1.492700
8.760100 1.467000
8.786600 1.453100
8.813000 1.447000
8.839400 1.426100
8.865900 1.396700
8.892300 1.357100
8.918700 1.294900
8.945100 1.430900
8.971600 1.599100
8.998000 1.643500
9.024400 1.560500
9.050900 1.509200
9.077300 1.482900
9.103700 1.491100
9.130100 1.518900
9.156600 1.479700
9.183000 1.415200
9.209400 1.410100
9.235900 1.415700
9.262300 1.424500
9.288700 1.442400
9.315100 1.469500
9.341600 1.501600
9.368000 1.538800
9.394400 1.577300
9.420900 1.615200
9.447300 1.653900
9.473700 1.693600
9.500100 1.744300
9.526600 1.828700
9.553000 1.931100
9.579400 2.043800
9.605900 2.161100
9.632300 2.278200
9.658700 2.349300
9.685100 2.235400
9.711600 1.978400
9.738000 1.766000
9.764400 1.652800
9.790900 1.522300
9.817300 1.519400
9.843700 1.435200
9.870100 1.372700
9.896600 1.279700
9.923000 1.242500
9.949400 1.182200
9.975900 1.181000
10.002300 1.212100
10.028700 1.158600
10.055100 1.024500
10.081600 0.860900
10.108000 0.721000
10.134400 0.567700
10.160900 0.410700
10.187300 0.335500
10.213700 0.315600
10.240100 0.326400
10.266600 0.358800
10.293000 0.390900
10.319400 0.422700
10.345900 0.456200
10.372300 0.497600
10.398700 0.554400
10.425100 0.593700
10.451600 0.636200
10.478000 0.677800
10.504400 0.717300
10.530900 0.754900
10.557300 0.790600
10.583700 0.824500
10.610100 0.856700
10.636600 0.876000
10.663000 0.896800
10.689400 0.926400
10.715900 0.962400
10.742300 1.005100
10.768700 1.049400
10.795100 1.095500
10.821600 1.148200
10.848000 1.207900
10.874400 1.274700
10.900900 1.352700
10.927300 1.456900
10.953700 1.579200
10.980100 1.721200
11.006600 1.918600
11.033000 2.233500
11.059400 2.598800
11.085900 3.153700
11.112300 3.357100
11.138700 3.334700
11.165200 3.038200
11.191600 2.732300
11.218000 2.172800
11.244400 1.698800
11.270900 1.532600
11.297300 1.429500
11.323700 1.374400
11.350200 1.362300
11.376600 1.345700
11.403000 1.323800
11.429400 1.327800
11.455900 1.388100
11.482300 1.482500
11.508700 1.533500
11.535200 1.575900
11.561600 1.675900
11.588000 1.823500
11.614400 2.086100
11.640900 2.031100
11.667300 1.849400
11.693700 1.609500
11.720200 1.366800
11.746600 1.131600
11.773000 1.111600
11.799400 1.104600
11.825900 1.077400
11.852300 1.086900
11.878700 1.129100
11.905200 1.257400
11.931600 1.309800
11.958000 1.362600
11.984400 1.407100
12.010900 1.447500
12.037300 1.476200
12.063700 1.502600
12.090200 1.555100
12.116600 1.618800
12.143000 1.733800
12.169400 1.902800
12.195900 2.145100
12.222300 2.488500
12.248700 2.426400
12.275200 2.577200
12.301600 2.632500
12.328000 2.660000
12.354400 2.663900
12.380900 2.630700
12.407300 2.417600
12.433700 2.268800
12.460200 2.156100
12.486600 2.078700
12.513000 2.020800
12.539400 1.898800
12.565900 1.828100
12.592300 1.785100
12.618700 1.803800
12.645200 1.873500
12.671600 2.053200
12.698000 2.644300
12.724400 3.187800
12.750900 3.542400
12.777300 3.996800
12.803700 4.424400
12.830200 4.678700
12.856600 4.735100
12.883000 4.609000
12.909400 4.343700
12.935900 4.143900
12.962300 4.029300
12.988700 4.022600
13.015200 4.041800
13.041600 3.928900
13.068000 3.770100
13.094400 3.639200
13.120900 3.582500
13.147300 3.392800
13.173700 3.226900
13.200200 3.061300
13.226600 3.019200
13.253000 2.898700
13.279400 2.684300
13.305900 2.486600
13.332300 2.332200
13.358700 2.254100
13.385200 2.228900
13.411600 2.149700
13.438000 2.119200
13.464500 2.120200
13.490900 2.111900
13.517300 2.094500
13.543700 2.087100
13.570200 2.087900
13.596600 2.091700
13.623000 2.065200
13.649500 2.001600
13.675900 1.938200
13.702300 1.890800
13.728700 1.949200
13.755200 2.211600
13.781600 2.302400
13.808000 2.629400
13.834500 2.911000
13.860900 3.109300
13.887300 3.018800
13.913700 2.961000
13.940200 2.698600
13.966600 2.639900
13.993000 2.550800
14.019500 2.504900
14.045900 2.437400
14.072300 2.392500
14.098700 2.362500
14.125200 2.332200
14.151600 2.286800
14.178000 2.254000
14.204500 2.188600
14.230900 2.073000
14.257300 1.988600
14.283700 1.948600
14.310200 1.855000
14.336600 1.775800
14.363000 1.715300
14.389500 1.699100
14.415900 1.692000
14.442300 1.834700
14.468700 1.934500
14.495200 1.958200
14.521600 1.909300
14.548000 1.954200
14.574500 2.127700
14.600900 2.230400
14.627300 2.315800
14.653700 2.396600
14.680200 2.479600
14.706600 2.526900
14.733000 2.543000
14.759500 2.582600
14.785900 2.645800
14.812300 2.723800
14.838700 2.810500
14.865200 2.891000
14.891600 2.960800
14.918000 3.030100
14.944500 3.152100
14.970900 3.384400
14.997300 3.251900
15.023700 3.079400
15.050200 2.930900
15.076600 2.782200
15.103000 2.627800
15.129500 2.449300
15.155900 2.256300
15.182300 2.055200
15.208700 2.020500
15.235200 2.060500
15.261600 2.160800
15.288000 2.185500
15.314500 2.182100
15.340900 2.062800
15.367300 1.972600
15.393700 1.881100
15.420200 2.186800
15.446600 2.365000
15.473000 2.135900
15.499500 2.033500
15.525900 1.942400
15.552300 1.804000
15.578700 1.687400
15.605200 1.564400
15.631600 1.490800
15.658000 1.460600
15.684500 1.539500
15.710900 1.686400
15.737300 2.100900
15.763700 2.414600
15.790200 2.642900
15.816600 2.708000
15.843000 2.632500
15.869500 2.645700
15.895900 2.700400
15.922300 2.685500
15.948800 2.562700
15.975200 2.467600
16.001600 2.402600
16.028000 2.507400
16.054500 2.267400
16.080900 2.193200
16.107300 2.259000
16.133800 2.375300
16.160200 2.521500
16.186600 2.678200
16.213000 2.736500
16.239500 2.645400
16.265900 2.554800
16.292300 2.525100
16.318800 2.541400
16.345200 2.569300
16.371600 2.638400
16.398000 2.743500
16.424500 2.856600
16.450900 2.914800
16.477300 2.941300
16.503800 3.006700
16.530200 3.015100
16.556600 2.996000
16.583000 3.045200
16.609500 3.068900
16.635900 3.066200
16.662300 3.076900
16.688800 3.060500
16.715200 2.978900
16.741600 2.938000
16.768000 2.933500
16.794500 3.185000
16.820900 2.967200
16.847300 2.793200
16.873800 2.832800
16.900200 2.849900
16.926600 2.970000
16.953000 2.960800
16.979500 2.854600
17.005900 2.900200
17.032300 2.835000
17.058800 2.970300
17.085200 3.318300
17.111600 3.732400
17.138000 4.036900
17.164500 3.775800
17.190900 3.567100
17.217300 3.371400
17.243800 3.165000
17.270200 2.930400
17.296600 2.792700
17.323000 2.649800
17.349500 2.496500
17.375900 2.348500
17.402300 2.234700
17.428800 2.138500
17.455200 2.055400
17.481600 1.995600
17.508000 1.989600
17.534500 2.012300
17.560900 2.053500
17.587300 2.116200
17.613800 2.192900
17.640200 2.275500
17.666600 2.417900
17.693000 2.572500
17.719500 2.659700
17.745900 2.767300
17.772300 2.913400
17.798800 3.308300
17.825200 3.038900
17.851600 2.857900
17.878000 2.815500
17.904500 2.808600
17.930900 2.792800
17.957300 2.770900
17.983800 2.738900
18.010200 2.696200
18.036600 2.636900
18.063000 2.592100
18.089500 2.620500
18.115900 2.606400
18.142300 2.606000
18.168800 2.624500
18.195200 2.642900
18.221600 2.683800
18.248100 2.736400
18.274500 2.823700
18.300900 2.910000
18.327300 3.137700
18.353800 3.544600
18.380200 3.503500
18.406600 3.641700
18.433100 3.807500
18.459500 3.879000
18.485900 3.892300
18.512300 3.848700
18.538800 3.707200
18.565200 3.608600
18.591600 3.509400
18.618100 3.390000
18.644500 3.326300
18.670900 3.320700
18.697300 3.340100
18.723800 3.365800
18.750200 3.360900
18.776600 3.236100
18.803100 3.230200
18.829500 3.326400
18.855900 3.459400
18.882300 3.427700
18.908800 3.421000
18.935200 3.411600
18.961600 3.419800
18.988100 3.465300
19.014500 3.680300
19.040900 3.460600
19.067300 3.490500
19.093800 3.547200
19.120200 3.606800
19.146600 3.748500
