set title 'mp-1017539 - Density of States'
set xlabel 'Energy (eV)'
set ylabel 'DOS (states/eV)'
set grid
set xrange [-10:10]
set yrange [0:26.615]
set xzeroaxis lt -1
set terminal png size 800,600
set output 'mp-1017539_dos_gnuplot.png'
plot '-' using 1:2 with lines title 'DOS'
-19.679500 0.000000
-19.647000 0.000000
-19.614500 0.000000
-19.582000 0.000000
-19.549600 0.000000
-19.517100 0.000000
-19.484600 0.000000
-19.452100 0.000000
-19.419600 0.000000
-19.387200 0.000000
-19.354700 0.000000
-19.322200 0.000000
-19.289700 0.000000
-19.257300 0.000000
-19.224800 0.000000
-19.192300 0.000000
-19.159800 0.000000
-19.127300 0.000000
-19.094900 0.000000
-19.062400 0.000000
-19.029900 0.000000
-18.997400 0.000000
-18.965000 0.000000
-18.932500 0.000000
-18.900000 0.000000
-18.867500 0.000000
-18.835000 0.000000
-18.802600 0.000000
-18.770100 0.000000
-18.737600 0.000000
-18.705100 0.000000
-18.672700 0.000000
-18.640200 0.000000
-18.607700 0.000000
-18.575200 0.000000
-18.542800 0.000000
-18.510300 0.000000
-18.477800 0.000000
-18.445300 0.000000
-18.412800 0.000000
-18.380400 0.000000
-18.347900 0.000000
-18.315400 0.000000
-18.282900 0.000000
-18.250500 0.000000
-18.218000 0.000000
-18.185500 0.000000
-18.153000 0.000000
-18.120500 0.000000
-18.088100 0.000000
-18.055600 0.000000
-18.023100 0.000000
-17.990600 0.000000
-17.958200 0.000000
-17.925700 0.000000
-17.893200 0.000000
-17.860700 0.000000
-17.828200 0.000000
-17.795800 0.000000
-17.763300 0.000000
-17.730800 0.000000
-17.698300 0.000000
-17.665900 0.000000
-17.633400 0.000000
-17.600900 0.000000
-17.568400 0.000000
-17.535900 0.000000
-17.503500 0.000000
-17.471000 0.000000
-17.438500 0.000000
-17.406000 0.000000
-17.373600 0.000000
-17.341100 0.000000
-17.308600 0.000000
-17.276100 0.000000
-17.243600 0.000000
-17.211200 0.000000
-17.178700 0.000000
-17.146200 0.000000
-17.113700 0.000000
-17.081300 0.000000
-17.048800 0.000000
-17.016300 0.000000
-16.983800 0.000000
-16.951300 0.000000
-16.918900 0.000000
-16.886400 0.000000
-16.853900 0.000000
-16.821400 0.000000
-16.789000 0.000000
-16.756500 0.000000
-16.724000 0.005100
-16.691500 0.358800
-16.659100 0.563600
-16.626600 0.698600
-16.594100 0.854800
-16.561600 1.008900
-16.529100 1.143800
-16.496700 1.369900
-16.464200 1.518000
-16.431700 1.579200
-16.399200 1.711900
-16.366800 2.022800
-16.334300 2.257200
-16.301800 2.534000
-16.269300 2.845500
-16.236800 3.197600
-16.204400 3.678000
-16.171900 4.293500
-16.139400 5.150600
-16.106900 5.687400
-16.074500 6.433000
-16.042000 7.426900
-16.009500 9.089300
-15.977000 11.967500
-15.944500 12.826900
-15.912100 15.307100
-15.879600 14.237800
-15.847100 0.000000
-15.814600 0.000000
-15.782200 0.000000
-15.749700 0.000000
-15.717200 0.000000
-15.684700 0.000000
-15.652200 0.000000
-15.619800 0.000000
-15.587300 0.000000
-15.554800 0.000000
-15.522300 0.000000
-15.489900 0.000000
-15.457400 0.000000
-15.424900 0.000000
-15.392400 0.000000
-15.359900 0.000000
-15.327500 0.000000
-15.295000 0.000000
-15.262500 0.000000
-15.230000 0.000000
-15.197600 0.000000
-15.165100 0.000000
-15.132600 0.000000
-15.100100 0.000000
-15.067700 0.000000
-15.035200 0.000000
-15.002700 0.000000
-14.970200 0.000000
-14.937700 0.000000
-14.905300 0.000000
-14.872800 0.000000
-14.840300 0.000000
-14.807800 0.000000
-14.775400 0.000000
-14.742900 0.000000
-14.710400 0.000000
-14.677900 0.000000
-14.645400 0.000000
-14.613000 0.000000
-14.580500 0.000000
-14.548000 0.000000
-14.515500 0.000000
-14.483100 0.000000
-14.450600 0.000000
-14.418100 0.000000
-14.385600 0.000000
-14.353100 0.000000
-14.320700 0.000000
-14.288200 0.000000
-14.255700 0.000000
-14.223200 0.000000
-14.190800 0.000000
-14.158300 0.000000
-14.125800 0.000000
-14.093300 0.000000
-14.060800 0.000000
-14.028400 0.000000
-13.995900 0.000000
-13.963400 0.000000
-13.930900 0.000000
-13.898500 0.000000
-13.866000 0.000000
-13.833500 0.000000
-13.801000 0.000000
-13.768500 0.000000
-13.736100 0.000000
-13.703600 0.000000
-13.671100 0.000000
-13.638600 0.000000
-13.606200 0.000000
-13.573700 0.000000
-13.541200 0.000000
-13.508700 0.000000
-13.476200 0.000000
-13.443800 0.000000
-13.411300 0.000000
-13.378800 0.000000
-13.346300 0.000000
-13.313900 0.000000
-13.281400 0.000000
-13.248900 0.000000
-13.216400 0.000000
-13.184000 0.000000
-13.151500 0.000000
-13.119000 0.000000
-13.086500 0.000000
-13.054000 0.000000
-13.021600 0.000000
-12.989100 0.000000
-12.956600 0.000000
-12.924100 0.000000
-12.891700 0.000000
-12.859200 0.000000
-12.826700 0.000000
-12.794200 0.000000
-12.761700 0.000000
-12.729300 0.000000
-12.696800 0.000000
-12.664300 0.000000
-12.631800 0.000000
-12.599400 0.000000
-12.566900 0.000000
-12.534400 0.000000
-12.501900 0.000000
-12.469400 0.000000
-12.437000 0.000000
-12.404500 0.000000
-12.372000 0.000000
-12.339500 0.000000
-12.307100 0.000000
-12.274600 0.000000
-12.242100 0.000000
-12.209600 0.000000
-12.177100 0.000000
-12.144700 0.000000
-12.112200 0.000000
-12.079700 0.000000
-12.047200 0.000000
-12.014800 0.000000
-11.982300 0.000000
-11.949800 0.000000
-11.917300 0.000000
-11.884800 0.000000
-11.852400 0.000000
-11.819900 0.000000
-11.787400 0.000000
-11.754900 0.000000
-11.722500 0.000000
-11.690000 0.000000
-11.657500 0.000000
-11.625000 0.000000
-11.592600 0.000000
-11.560100 0.000000
-11.527600 0.000000
-11.495100 0.000000
-11.462600 0.000000
-11.430200 0.000000
-11.397700 0.000000
-11.365200 0.000000
-11.332700 0.000000
-11.300300 0.000000
-11.267800 0.000000
-11.235300 0.000000
-11.202800 0.000000
-11.170300 0.000000
-11.137900 0.000000
-11.105400 0.000000
-11.072900 0.000000
-11.040400 0.000000
-11.008000 0.000000
-10.975500 0.000000
-10.943000 0.000000
-10.910500 0.000000
-10.878000 0.000000
-10.845600 0.000000
-10.813100 0.000000
-10.780600 0.000000
-10.748100 0.000000
-10.715700 0.000000
-10.683200 0.000000
-10.650700 0.000000
-10.618200 0.000000
-10.585700 0.000000
-10.553300 0.000000
-10.520800 0.000000
-10.488300 0.000000
-10.455800 0.000000
-10.423400 0.000000
-10.390900 0.000000
-10.358400 0.000000
-10.325900 0.000000
-10.293400 0.000000
-10.261000 0.000000
-10.228500 0.000000
-10.196000 0.000000
-10.163500 0.000000
-10.131100 0.000000
-10.098600 0.000000
-10.066100 0.000000
-10.033600 0.000000
-10.001100 0.000000
-9.968700 0.000000
-9.936200 0.000000
-9.903700 0.000000
-9.871200 0.000000
-9.838800 0.000000
-9.806300 0.000000
-9.773800 0.000000
-9.741300 0.000000
-9.708900 0.000000
-9.676400 0.000000
-9.643900 0.000000
-9.611400 0.000000
-9.578900 0.000000
-9.546500 0.000000
-9.514000 0.000000
-9.481500 0.000000
-9.449000 0.000000
-9.416600 0.000000
-9.384100 0.000000
-9.351600 0.000000
-9.319100 0.000000
-9.286600 0.000000
-9.254200 0.000000
-9.221700 0.000000
-9.189200 0.000000
-9.156700 0.000000
-9.124300 0.000000
-9.091800 0.000000
-9.059300 0.000000
-9.026800 0.000000
-8.994300 0.000000
-8.961900 0.000000
-8.929400 0.000000
-8.896900 0.000000
-8.864400 0.000000
-8.832000 0.000000
-8.799500 0.000000
-8.767000 0.000000
-8.734500 0.000000
-8.702000 0.000000
-8.669600 0.000000
-8.637100 0.000000
-8.604600 0.000000
-8.572100 0.000000
-8.539700 0.000000
-8.507200 0.000000
-8.474700 0.000000
-8.442200 0.000000
-8.409700 0.000000
-8.377300 0.000000
-8.344800 0.000000
-8.312300 0.000000
-8.279800 0.000000
-8.247400 0.000000
-8.214900 0.000000
-8.182400 0.000000
-8.149900 0.000000
-8.117500 0.000000
-8.085000 0.000000
-8.052500 0.000000
-8.020000 0.000000
-7.987500 0.000000
-7.955100 0.000000
-7.922600 0.000000
-7.890100 0.000000
-7.857600 0.000000
-7.825200 0.000000
-7.792700 0.000000
-7.760200 0.000000
-7.727700 0.000000
-7.695200 0.000000
-7.662800 0.000000
-7.630300 0.000000
-7.597800 0.000000
-7.565300 0.000000
-7.532900 0.000000
-7.500400 0.000000
-7.467900 0.000000
-7.435400 0.000000
-7.402900 0.000000
-7.370500 0.000000
-7.338000 0.000000
-7.305500 0.000000
-7.273000 0.000000
-7.240600 0.000000
-7.208100 0.000000
-7.175600 0.000000
-7.143100 0.000000
-7.110600 0.000000
-7.078200 0.000000
-7.045700 0.000000
-7.013200 0.000000
-6.980700 0.000000
-6.948300 0.000000
-6.915800 0.000000
-6.883300 0.000000
-6.850800 0.000000
-6.818300 0.000000
-6.785900 0.000000
-6.753400 0.000000
-6.720900 0.000000
-6.688400 0.000000
-6.656000 0.000000
-6.623500 0.000000
-6.591000 0.000000
-6.558500 0.000000
-6.526000 0.000000
-6.493600 0.000000
-6.461100 0.000000
-6.428600 0.000000
-6.396100 0.000000
-6.363700 0.000000
-6.331200 0.000000
-6.298700 0.000000
-6.266200 0.000000
-6.233800 0.000000
-6.201300 0.000000
-6.168800 0.000000
-6.136300 0.000000
-6.103800 0.000000
-6.071400 0.000000
-6.038900 0.000000
-6.006400 0.000000
-5.973900 0.000000
-5.941500 0.000000
-5.909000 0.000000
-5.876500 0.000000
-5.844000 0.000000
-5.811500 0.000000
-5.779100 0.000000
-5.746600 0.000000
-5.714100 0.000000
-5.681600 0.000000
-5.649200 0.000000
-5.616700 0.000000
-5.584200 0.000000
-5.551700 0.000000
-5.519200 0.000000
-5.486800 0.000000
-5.454300 0.000000
-5.421800 0.000000
-5.389300 0.000000
-5.356900 0.000000
-5.324400 0.000000
-5.291900 0.000000
-5.259400 0.890700
-5.226900 2.293400
-5.194500 3.306700
-5.162000 4.494200
-5.129500 6.105600
-5.097000 12.725600
-5.064600 10.901100
-5.032100 11.345400
-4.999600 16.905400
-4.967100 10.681900
-4.934600 11.094500
-4.902200 12.529400
-4.869700 12.829900
-4.837200 14.037700
-4.804700 13.637100
-4.772300 17.532900
-4.739800 15.330400
-4.707300 15.530800
-4.674800 15.532800
-4.642400 15.642300
-4.609900 13.373700
-4.577400 11.857100
-4.544900 11.926900
-4.512400 11.327600
-4.480000 10.056300
-4.447500 9.386800
-4.415000 10.363000
-4.382500 9.480600
-4.350100 6.312200
-4.317600 6.267500
-4.285100 6.475200
-4.252600 4.335900
-4.220100 5.181100
-4.187700 5.153500
-4.155200 5.474400
-4.122700 5.582000
-4.090200 9.788400
-4.057800 20.626300
-4.025300 22.631100
-3.992800 19.621100
-3.960300 14.940700
-3.927800 19.082300
-3.895400 20.945400
-3.862900 24.195300
-3.830400 22.736700
-3.797900 21.399400
-3.765500 18.484400
-3.733000 9.995700
-3.700500 8.660600
-3.668000 6.018100
-3.635500 5.272100
-3.603100 5.214100
-3.570600 3.093000
-3.538100 2.480300
-3.505600 1.189200
-3.473200 1.558500
-3.440700 1.944200
-3.408200 2.894600
-3.375700 2.047400
-3.343200 1.908600
-3.310800 1.758400
-3.278300 1.665700
-3.245800 1.465300
-3.213300 1.471900
-3.180900 1.451900
-3.148400 1.448600
-3.115900 1.747700
-3.083400 1.613200
-3.050900 1.617400
-3.018500 1.616100
-2.986000 1.622200
-2.953500 1.620400
-2.921000 1.638000
-2.888600 1.656900
-2.856100 1.678700
-2.823600 1.706900
-2.791100 1.738000
-2.758700 1.758400
-2.726200 1.789400
-2.693700 1.846000
-2.661200 1.934300
-2.628700 2.027700
-2.596300 2.043600
-2.563800 2.018900
-2.531300 2.312000
-2.498800 2.449900
-2.466400 2.568400
-2.433900 2.649300
-2.401400 2.736900
-2.368900 2.807500
-2.336400 3.057200
-2.304000 3.446700
-2.271500 3.204600
-2.239000 2.921800
-2.206500 2.639300
-2.174100 2.469400
-2.141600 2.215600
-2.109100 2.066000
-2.076600 1.976100
-2.044100 2.253200
-2.011700 2.653900
-1.979200 2.859600
-1.946700 3.064700
-1.914200 3.077500
-1.881800 3.017500
-1.849300 2.317600
-1.816800 2.219100
-1.784300 2.051600
-1.751800 2.034400
-1.719400 2.078000
-1.686900 2.223600
-1.654400 2.216500
-1.621900 2.635600
-1.589500 2.168700
-1.557000 2.200700
-1.524500 2.225400
-1.492000 2.214700
-1.459500 2.228800
-1.427100 2.284700
-1.394600 2.346700
-1.362100 2.361900
-1.329600 2.366000
-1.297200 2.354100
-1.264700 2.338000
-1.232200 2.353900
-1.199700 2.363800
-1.167300 2.340400
-1.134800 2.329100
-1.102300 2.325000
-1.069800 2.323500
-1.037300 2.312700
-1.004900 2.307200
-0.972400 2.297400
-0.939900 2.261800
-0.907400 2.245900
-0.875000 2.320700
-0.842500 2.465500
-0.810000 2.614700
-0.777500 2.904400
-0.745000 3.511800
-0.712600 3.539300
-0.680100 3.421200
-0.647600 3.048600
-0.615100 2.802800
-0.582700 2.600200
-0.550200 3.257700
-0.517700 3.921800
-0.485200 4.034200
-0.452700 3.909900
-0.420300 4.003400
-0.387800 4.432500
-0.355300 4.632900
-0.322800 4.739900
-0.290400 4.664900
-0.257900 5.171200
-0.225400 5.500700
-0.192900 6.715700
-0.160400 6.394400
-0.128000 6.961500
-0.095500 7.290200
-0.063000 7.663500
-0.030500 8.831400
0.001900 8.825200
0.034400 5.656200
0.066900 4.897000
0.099400 4.398200
0.131900 4.090600
0.164300 3.840000
0.196800 3.628200
0.229300 3.432600
0.261800 3.215500
0.294200 3.072100
0.326700 2.969200
0.359200 2.809500
0.391700 2.584500
0.424200 2.325000
0.456600 2.164600
0.489100 2.056800
0.521600 1.910500
0.554100 1.682800
0.586500 1.624400
0.619000 1.350700
0.651500 1.127700
0.684000 0.975300
0.716400 0.899200
0.748900 0.617200
0.781400 0.418300
0.813900 0.201500
0.846400 0.000000
0.878800 0.000000
0.911300 0.000000
0.943800 0.000000
0.976300 0.000000
1.008700 0.000000
1.041200 0.000000
1.073700 0.000000
1.106200 0.000000
1.138700 0.000000
1.171100 0.000000
1.203600 0.000000
1.236100 0.000000
1.268600 0.000000
1.301000 0.000000
1.333500 0.000300
1.366000 0.000900
1.398500 0.001800
1.431000 0.003000
1.463400 0.004400
1.495900 0.006200
1.528400 0.008200
1.560900 0.010500
1.593300 0.013100
1.625800 0.016500
1.658300 0.020900
1.690800 0.023600
1.723300 0.026000
1.755700 0.028300
1.788200 0.030400
1.820700 0.032300
1.853200 0.034000
1.885600 0.035500
1.918100 0.038000
1.950600 0.040600
1.983100 0.043300
2.015600 0.046000
2.048000 0.048800
2.080500 0.051700
2.113000 0.054600
2.145500 0.057600
2.177900 0.060600
2.210400 0.063700
2.242900 0.066700
2.275400 0.069800
2.307800 0.072700
2.340300 0.075900
2.372800 0.079500
2.405300 0.083300
2.437800 0.086900
2.470200 0.090400
2.502700 0.093900
2.535200 0.097400
2.567700 0.101000
2.600100 0.104500
2.632600 0.108200
2.665100 0.111800
2.697600 0.115500
2.730100 0.119300
2.762500 0.123200
2.795000 0.127400
2.827500 0.131900
2.860000 0.136800
2.892400 0.141700
2.924900 0.146500
2.957400 0.151200
2.989900 0.155800
3.022400 0.160500
3.054800 0.165100
3.087300 0.169800
3.119800 0.174400
3.152300 0.179100
3.184700 0.183900
3.217200 0.188600
3.249700 0.194000
3.282200 0.199800
3.314700 0.205500
3.347100 0.211400
3.379600 0.217300
3.412100 0.223300
3.444600 0.229400
3.477000 0.241200
3.509500 0.255000
3.542000 0.267900
3.574500 0.279900
3.607000 0.273500
3.639400 0.278400
3.671900 0.283200
3.704400 0.288400
3.736900 0.294200
3.769300 0.300100
3.801800 0.306000
3.834300 0.311600
3.866800 0.316500
3.899300 0.321300
3.931700 0.326100
3.964200 0.331100
3.996700 0.336200
4.029200 0.341200
4.061600 0.346300
4.094100 0.358600
4.126600 0.375900
4.159100 0.395700
4.191500 0.417800
4.224000 0.414700
4.256500 0.426100
4.289000 0.437800
4.321500 0.449800
4.353900 0.461700
4.386400 0.473600
4.418900 0.485600
4.451400 0.497400
4.483800 0.509500
4.516300 0.522000
4.548800 0.535500
4.581300 0.552800
4.613800 0.570800
4.646200 0.588000
4.678700 0.605700
4.711200 0.624000
4.743700 0.646300
4.776100 0.667300
4.808600 0.689400
4.841100 0.712500
4.873600 0.737500
4.906100 0.765300
4.938500 0.801200
4.971000 0.849200
5.003500 0.916500
5.036000 1.017100
5.068400 1.182900
5.100900 1.656000
5.133400 1.883200
5.165900 1.974100
5.198400 2.128500
5.230800 2.421000
5.263300 2.642000
5.295800 3.291700
5.328300 3.057300
5.360700 2.823500
5.393200 2.688400
5.425700 2.628500
5.458200 2.679100
5.490700 2.826300
5.523100 2.524400
5.555600 2.129200
5.588100 1.988300
5.620600 1.951400
5.653000 1.964900
5.685500 2.047900
5.718000 2.132900
5.750500 2.658300
5.782900 3.266100
5.815400 3.136800
5.847900 2.585600
5.880400 2.308600
5.912900 2.151900
5.945300 2.010100
5.977800 1.877200
6.010300 1.786400
6.042800 1.703700
6.075200 1.632100
6.107700 1.553300
6.140200 1.471600
6.172700 1.393100
6.205200 1.276100
6.237600 1.333600
6.270100 1.171400
6.302600 1.069600
6.335100 1.020600
6.367500 0.971200
6.400000 0.933300
6.432500 0.868000
6.465000 0.808700
6.497500 0.723700
6.529900 0.675000
6.562400 0.629800
6.594900 0.586900
6.627400 0.539300
6.659800 0.485100
6.692300 0.456100
6.724800 0.400500
6.757300 0.327400
6.789800 0.274200
6.822200 0.241100
6.854700 0.212500
6.887200 0.190900
6.919700 0.166900
6.952100 0.147300
6.984600 0.091000
7.017100 0.000000
7.049600 0.000000
7.082100 0.000000
7.114500 0.020100
7.147000 0.044800
7.179500 0.066100
7.212000 0.073100
7.244400 0.079800
7.276900 0.086600
7.309400 0.093000
7.341900 0.099500
7.374400 0.108300
7.406800 0.119400
7.439300 0.132800
7.471800 0.148600
7.504300 0.166800
7.536700 0.186200
7.569200 0.197600
7.601700 0.210700
7.634200 0.223800
7.666600 0.234600
7.699100 0.243500
7.731600 0.250900
7.764100 0.260800
7.796600 0.274000
7.829000 0.289100
7.861500 0.305100
7.894000 0.322100
7.926500 0.339000
7.958900 0.355500
7.991400 0.372300
8.023900 0.389500
8.056400 0.407300
8.088900 0.425300
8.121300 0.443200
8.153800 0.461300
8.186300 0.482200
8.218800 0.505600
8.251200 0.528300
8.283700 0.552200
8.316200 0.577000
8.348700 0.602900
8.381200 0.629900
8.413600 0.658700
8.446100 0.689700
8.478600 0.746200
8.511100 0.795800
8.543500 0.809900
8.576000 0.823800
8.608500 0.836300
8.641000 0.829000
8.673500 0.836600
8.705900 0.857000
8.738400 0.878300
8.770900 0.904000
8.803400 0.929200
8.835800 0.954700
8.868300 0.980700
8.900800 1.007200
8.933300 1.034100
8.965800 1.064800
8.998200 1.100500
9.030700 1.144700
9.063200 1.312900
9.095700 1.318200
9.128100 1.326800
9.160600 1.385600
9.193100 1.374500
9.225600 1.376700
9.258000 1.478900
9.290500 1.426800
9.323000 1.379400
9.355500 1.375300
9.388000 1.358000
9.420400 1.304900
9.452900 1.253700
9.485400 1.313100
9.517900 1.196000
9.550300 0.864500
9.582800 0.806300
9.615300 0.744500
9.647800 0.795100
9.680300 1.110900
9.712700 1.122200
9.745200 1.316400
9.777700 1.642000
9.810200 1.491200
9.842600 1.577700
9.875100 1.709400
9.907600 1.918800
9.940100 2.416000
9.972600 2.756200
10.005000 3.075400
10.037500 3.631600
10.070000 3.598400
10.102500 3.478400
10.134900 3.338100
10.167400 3.237900
10.199900 3.038900
10.232400 2.758300
10.264900 2.245800
10.297300 2.122200
10.329800 1.807300
10.362300 1.739200
10.394800 1.686000
10.427200 1.569000
10.459700 1.922600
10.492200 0.511200
10.524700 0.364200
10.557200 0.357800
10.589600 0.351400
10.622100 0.344600
10.654600 0.337300
10.687100 0.329600
10.719500 0.321600
10.752000 0.316200
10.784500 0.316800
10.817000 0.320200
10.849500 0.320100
10.881900 0.316400
10.914400 0.311500
10.946900 0.376900
10.979400 0.485900
11.011800 1.445000
11.044300 0.292100
11.076800 0.516600
11.109300 0.599400
11.141700 0.793600
11.174200 0.955700
11.206700 1.104200
11.239200 1.451100
11.271700 1.377400
11.304100 1.460300
11.336600 1.682400
11.369100 2.959900
11.401600 2.963300
11.434000 2.166200
11.466500 2.096400
11.499000 2.177700
11.531500 2.339900
11.564000 2.308100
11.596400 2.313800
11.628900 2.343800
11.661400 2.380300
11.693900 2.445900
11.726300 2.519800
11.758800 2.459300
11.791300 2.432600
11.823800 2.469400
11.856300 2.550900
11.888700 2.593500
11.921200 3.004200
11.953700 3.322100
11.986200 2.896400
12.018600 2.494700
12.051100 2.277700
12.083600 2.151500
12.116100 2.163400
12.148600 1.912900
12.181000 1.946200
12.213500 1.959800
12.246000 2.425100
12.278500 2.706500
12.310900 3.308200
12.343400 2.765700
12.375900 2.633400
12.408400 2.206400
12.440900 1.990600
12.473300 1.921400
12.505800 1.814900
12.538300 1.738500
12.570800 1.680700
12.603200 1.638300
12.635700 1.599400
12.668200 1.566900
12.700700 1.542700
12.733100 1.522300
12.765600 1.509200
12.798100 1.495800
12.830600 1.480000
12.863100 1.452100
12.895500 1.421900
12.928000 1.396000
12.960500 1.479100
12.993000 1.453900
13.025400 1.419800
13.057900 1.393000
13.090400 1.375200
13.122900 1.370800
13.155400 1.368900
13.187800 1.362900
13.220300 1.379000
13.252800 1.395000
13.285300 1.451700
13.317700 1.309300
13.350200 1.326100
13.382700 1.204000
13.415200 1.228100
13.447700 1.330800
13.480100 1.315200
13.512600 1.358300
13.545100 1.446800
13.577600 1.417500
13.610000 1.325300
13.642500 1.244900
13.675000 1.176100
13.707500 1.154000
13.740000 1.189200
13.772400 1.217600
13.804900 1.219700
13.837400 1.612300
13.869900 1.252400
13.902300 1.234900
13.934800 1.256000
