set title 'mp-1078686 - Density of States'
set xlabel 'Energy (eV)'
set ylabel 'DOS (states/eV)'
set grid
set xrange [-10:10]
set yrange [0:4.450]
set xzeroaxis lt -1
set terminal png size 800,600
set output 'mp-1078686_dos_gnuplot.png'
plot '-' using 1:2 with lines title 'DOS'
-37.038900 0.000000
-36.999100 0.000000
-36.959300 0.000000
-36.919500 0.000000
-36.879700 0.000000
-36.839900 0.000000
-36.800100 0.000000
-36.760300 0.000000
-36.720400 0.000000
-36.680600 0.000000
-36.640800 0.000000
-36.601000 0.000000
-36.561200 0.000000
-36.521400 0.000000
-36.481600 0.000000
-36.441800 0.000000
-36.402000 0.000000
-36.362200 0.000000
-36.322400 0.000000
-36.282600 0.000000
-36.242700 0.000000
-36.202900 0.000000
-36.163100 0.000000
-36.123300 0.000000
-36.083500 0.000000
-36.043700 0.000000
-36.003900 0.000000
-35.964100 0.000000
-35.924300 0.000000
-35.884500 0.000000
-35.844700 0.000000
-35.804900 0.000000
-35.765000 0.000000
-35.725200 0.000000
-35.685400 0.000000
-35.645600 0.000000
-35.605800 0.000000
-35.566000 0.000000
-35.526200 0.000000
-35.486400 0.000000
-35.446600 0.000000
-35.406800 0.000000
-35.367000 0.000000
-35.327200 0.000000
-35.287300 0.000000
-35.247500 0.000000
-35.207700 0.000000
-35.167900 0.000000
-35.128100 0.000000
-35.088300 0.000000
-35.048500 0.000000
-35.008700 0.000000
-34.968900 0.000000
-34.929100 0.000000
-34.889300 0.000000
-34.849500 0.000000
-34.809600 0.000000
-34.769800 0.000000
-34.730000 0.000000
-34.690200 0.000000
-34.650400 0.000000
-34.610600 0.000000
-34.570800 0.000000
-34.531000 0.000000
-34.491200 0.000000
-34.451400 0.000000
-34.411600 0.000000
-34.371700 0.000000
-34.331900 0.000000
-34.292100 0.000000
-34.252300 0.000000
-34.212500 0.000000
-34.172700 0.000000
-34.132900 0.000000
-34.093100 0.000000
-34.053300 0.000000
-34.013500 0.000000
-33.973700 0.000000
-33.933900 0.000000
-33.894000 0.000000
-33.854200 0.000000
-33.814400 0.000000
-33.774600 0.000000
-33.734800 0.000000
-33.695000 0.000000
-33.655200 0.000000
-33.615400 0.000000
-33.575600 0.000000
-33.535800 0.000000
-33.496000 0.000000
-33.456200 0.000000
-33.416300 2.180400
-33.376500 6.292900
-33.336700 14.070800
-33.296900 31.958300
-33.257100 29.621300
-33.217300 8.531000
-33.177500 7.917500
-33.137700 24.837700
-33.097900 22.960800
-33.058100 31.115800
-33.018300 17.478000
-32.978500 15.576700
-32.938600 20.723600
-32.898800 20.636400
-32.859000 22.006400
-32.819200 42.641200
-32.779400 0.000000
-32.739600 0.000000
-32.699800 0.000000
-32.660000 0.000000
-32.620200 0.000000
-32.580400 0.000000
-32.540600 0.000000
-32.500700 0.000000
-32.460900 0.000000
-32.421100 0.000000
-32.381300 0.000000
-32.341500 0.000000
-32.301700 0.000000
-32.261900 0.000000
-32.222100 0.000000
-32.182300 0.000000
-32.142500 0.000000
-32.102700 0.000000
-32.062900 0.000000
-32.023000 0.000000
-31.983200 0.000000
-31.943400 0.000000
-31.903600 0.000000
-31.863800 0.000000
-31.824000 0.000000
-31.784200 0.000000
-31.744400 0.000000
-31.704600 0.000000
-31.664800 0.000000
-31.625000 0.000000
-31.585200 0.000000
-31.545300 0.000000
-31.505500 0.000000
-31.465700 0.000000
-31.425900 0.000000
-31.386100 0.000000
-31.346300 0.000000
-31.306500 0.000000
-31.266700 0.000000
-31.226900 0.000000
-31.187100 0.000000
-31.147300 0.000000
-31.107500 0.000000
-31.067600 0.000000
-31.027800 0.000000
-30.988000 0.000000
-30.948200 0.000000
-30.908400 0.000000
-30.868600 0.000000
-30.828800 0.000000
-30.789000 0.000000
-30.749200 0.000000
-30.709400 0.000000
-30.669600 0.000000
-30.629700 0.000000
-30.589900 0.000000
-30.550100 0.000000
-30.510300 0.000000
-30.470500 0.000000
-30.430700 0.000000
-30.390900 0.000000
-30.351100 0.000000
-30.311300 0.000000
-30.271500 0.000000
-30.231700 0.000000
-30.191900 0.000000
-30.152000 0.000000
-30.112200 0.000000
-30.072400 0.000000
-30.032600 0.000000
-29.992800 0.000000
-29.953000 0.000000
-29.913200 0.000000
-29.873400 0.000000
-29.833600 0.000000
-29.793800 0.000000
-29.754000 0.000000
-29.714200 0.000000
-29.674300 0.000000
-29.634500 0.000000
-29.594700 0.000000
-29.554900 0.000000
-29.515100 0.000000
-29.475300 0.000000
-29.435500 0.000000
-29.395700 0.000000
-29.355900 0.000000
-29.316100 0.000000
-29.276300 0.000000
-29.236500 0.000000
-29.196600 0.000000
-29.156800 0.000000
-29.117000 0.000000
-29.077200 0.000000
-29.037400 0.000000
-28.997600 0.000000
-28.957800 0.000000
-28.918000 0.000000
-28.878200 0.000000
-28.838400 0.000000
-28.798600 0.000000
-28.758700 0.000000
-28.718900 0.000000
-28.679100 0.000000
-28.639300 0.000000
-28.599500 0.000000
-28.559700 0.000000
-28.519900 0.000000
-28.480100 0.000000
-28.440300 0.000000
-28.400500 0.000000
-28.360700 0.000000
-28.320900 0.000000
-28.281000 0.000000
-28.241200 0.000000
-28.201400 0.000000
-28.161600 0.000000
-28.121800 0.000000
-28.082000 0.000000
-28.042200 0.000000
-28.002400 0.000000
-27.962600 0.000000
-27.922800 0.000000
-27.883000 0.000000
-27.843200 0.000000
-27.803300 0.000000
-27.763500 0.000000
-27.723700 0.000000
-27.683900 0.000000
-27.644100 0.000000
-27.604300 0.000000
-27.564500 0.000000
-27.524700 0.000000
-27.484900 0.000000
-27.445100 0.000000
-27.405300 0.000000
-27.365500 0.000000
-27.325600 0.000000
-27.285800 0.000000
-27.246000 0.000000
-27.206200 0.000000
-27.166400 0.000000
-27.126600 0.000000
-27.086800 0.000000
-27.047000 0.000000
-27.007200 0.000000
-26.967400 0.000000
-26.927600 0.000000
-26.887700 0.000000
-26.847900 0.000000
-26.808100 0.000000
-26.768300 0.000000
-26.728500 0.000000
-26.688700 0.000000
-26.648900 0.000000
-26.609100 0.000000
-26.569300 0.000000
-26.529500 0.000000
-26.489700 0.000000
-26.449900 0.000000
-26.410000 0.000000
-26.370200 0.000000
-26.330400 0.000000
-26.290600 0.000000
-26.250800 0.000000
-26.211000 0.000000
-26.171200 0.000000
-26.131400 0.000000
-26.091600 0.000000
-26.051800 0.000000
-26.012000 0.000000
-25.972200 0.000000
-25.932300 0.000000
-25.892500 0.000000
-25.852700 0.000000
-25.812900 0.000000
-25.773100 0.000000
-25.733300 0.000000
-25.693500 0.000000
-25.653700 0.000000
-25.613900 0.000000
-25.574100 0.000000
-25.534300 0.000000
-25.494500 0.000000
-25.454600 0.000000
-25.414800 0.000000
-25.375000 0.000000
-25.335200 0.000000
-25.295400 0.000000
-25.255600 0.000000
-25.215800 0.000000
-25.176000 0.000000
-25.136200 0.000000
-25.096400 0.000000
-25.056600 0.000000
-25.016700 0.000000
-24.976900 0.000000
-24.937100 0.000000
-24.897300 0.000000
-24.857500 0.000000
-24.817700 0.000000
-24.777900 0.000000
-24.738100 0.000000
-24.698300 0.000000
-24.658500 0.000000
-24.618700 0.000000
-24.578900 0.000000
-24.539000 0.000000
-24.499200 0.000000
-24.459400 0.000000
-24.419600 0.000000
-24.379800 0.000000
-24.340000 0.000000
-24.300200 0.000000
-24.260400 0.000000
-24.220600 0.000000
-24.180800 0.000000
-24.141000 0.000000
-24.101200 0.000000
-24.061300 0.000000
-24.021500 0.000000
-23.981700 0.000000
-23.941900 0.000000
-23.902100 0.000000
-23.862300 0.000000
-23.822500 0.000000
-23.782700 0.000000
-23.742900 0.000000
-23.703100 0.000000
-23.663300 0.000000
-23.623500 0.000000
-23.583600 0.000000
-23.543800 0.000000
-23.504000 0.000000
-23.464200 0.000000
-23.424400 0.000000
-23.384600 0.000000
-23.344800 0.000000
-23.305000 0.000000
-23.265200 0.000000
-23.225400 0.000000
-23.185600 0.000000
-23.145800 0.000000
-23.105900 0.000000
-23.066100 0.000000
-23.026300 0.000000
-22.986500 0.000000
-22.946700 0.000000
-22.906900 0.000000
-22.867100 0.000000
-22.827300 0.000000
-22.787500 0.000000
-22.747700 0.000000
-22.707900 0.000000
-22.668000 0.000000
-22.628200 0.000000
-22.588400 0.000000
-22.548600 0.000000
-22.508800 0.000000
-22.469000 0.000000
-22.429200 0.000000
-22.389400 0.000000
-22.349600 0.000000
-22.309800 0.000000
-22.270000 0.000000
-22.230200 0.000000
-22.190300 0.000000
-22.150500 0.000000
-22.110700 0.000000
-22.070900 0.000000
-22.031100 0.000000
-21.991300 0.000000
-21.951500 0.000000
-21.911700 0.000000
-21.871900 0.000000
-21.832100 0.000000
-21.792300 0.000000
-21.752500 0.000000
-21.712600 0.000000
-21.672800 0.000000
-21.633000 0.000000
-21.593200 0.000000
-21.553400 0.000000
-21.513600 0.000000
-21.473800 0.000000
-21.434000 0.000000
-21.394200 0.000000
-21.354400 0.000000
-21.314600 0.000000
-21.274800 0.000000
-21.234900 0.000000
-21.195100 0.000000
-21.155300 0.000000
-21.115500 0.000000
-21.075700 0.000000
-21.035900 0.000000
-20.996100 0.000000
-20.956300 0.000000
-20.916500 0.000000
-20.876700 0.000000
-20.836900 0.000000
-20.797000 0.000000
-20.757200 0.000000
-20.717400 0.000000
-20.677600 0.000000
-20.637800 0.000000
-20.598000 0.000000
-20.558200 0.000000
-20.518400 0.000000
-20.478600 0.000000
-20.438800 0.000000
-20.399000 0.000000
-20.359200 0.000000
-20.319300 0.000000
-20.279500 0.000000
-20.239700 0.000000
-20.199900 0.000000
-20.160100 0.000000
-20.120300 0.000000
-20.080500 0.000000
-20.040700 0.000000
-20.000900 0.000000
-19.961100 0.000000
-19.921300 0.000000
-19.881500 0.000000
-19.841600 0.000000
-19.801800 0.000000
-19.762000 0.000000
-19.722200 0.000000
-19.682400 0.000000
-19.642600 0.000000
-19.602800 0.000000
-19.563000 0.000000
-19.523200 0.000000
-19.483400 0.000000
-19.443600 0.000000
-19.403800 0.000000
-19.363900 0.000000
-19.324100 0.000000
-19.284300 0.000000
-19.244500 0.000000
-19.204700 0.000000
-19.164900 0.000000
-19.125100 0.000000
-19.085300 0.000000
-19.045500 0.000000
-19.005700 0.000000
-18.965900 0.000000
-18.926000 0.000000
-18.886200 0.000000
-18.846400 0.000000
-18.806600 0.000000
-18.766800 0.000000
-18.727000 0.000000
-18.687200 0.000000
-18.647400 0.000000
-18.607600 0.000000
-18.567800 0.000000
-18.528000 0.000000
-18.488200 0.000000
-18.448300 0.000000
-18.408500 0.000000
-18.368700 0.000000
-18.328900 0.000000
-18.289100 0.000000
-18.249300 0.000000
-18.209500 0.000000
-18.169700 0.000000
-18.129900 0.000000
-18.090100 0.000000
-18.050300 0.000000
-18.010500 0.000000
-17.970600 0.000000
-17.930800 0.000000
-17.891000 0.000000
-17.851200 0.000000
-17.811400 0.000000
-17.771600 0.000000
-17.731800 0.000000
-17.692000 0.000000
-17.652200 0.000000
-17.612400 0.000000
-17.572600 0.000000
-17.532800 0.000000
-17.492900 0.000000
-17.453100 0.000000
-17.413300 0.000000
-17.373500 0.000000
-17.333700 0.000000
-17.293900 0.000000
-17.254100 0.000000
-17.214300 0.000000
-17.174500 0.000000
-17.134700 0.000000
-17.094900 0.000000
-17.055000 0.000000
-17.015200 0.000000
-16.975400 0.000000
-16.935600 0.000000
-16.895800 0.000000
-16.856000 0.000000
-16.816200 0.000000
-16.776400 0.000000
-16.736600 0.000000
-16.696800 0.000000
-16.657000 0.000000
-16.617200 0.000000
-16.577300 0.000000
-16.537500 0.000000
-16.497700 0.000000
-16.457900 0.000000
-16.418100 0.000000
-16.378300 0.000000
-16.338500 0.000000
-16.298700 0.000000
-16.258900 0.000000
-16.219100 0.000000
-16.179300 0.000000
-16.139500 0.000000
-16.099600 0.000000
-16.059800 0.000000
-16.020000 0.000000
-15.980200 0.000000
-15.940400 0.000000
-15.900600 0.000000
-15.860800 0.000000
-15.821000 0.000000
-15.781200 0.000000
-15.741400 0.000000
-15.701600 0.000000
-15.661800 0.000000
-15.621900 0.000000
-15.582100 0.000000
-15.542300 0.000000
-15.502500 0.000000
-15.462700 0.000000
-15.422900 0.000000
-15.383100 0.000000
-15.343300 0.000000
-15.303500 0.000000
-15.263700 0.000000
-15.223900 0.000000
-15.184000 0.000000
-15.144200 0.000000
-15.104400 0.000000
-15.064600 0.000000
-15.024800 0.000000
-14.985000 0.000000
-14.945200 0.000000
-14.905400 0.000000
-14.865600 0.000000
-14.825800 0.000000
-14.786000 0.000000
-14.746200 0.000000
-14.706300 0.000000
-14.666500 0.000000
-14.626700 0.000000
-14.586900 0.000000
-14.547100 0.000000
-14.507300 0.000000
-14.467500 0.000000
-14.427700 0.000000
-14.387900 0.000000
-14.348100 0.000000
-14.308300 0.000000
-14.268500 0.000000
-14.228600 0.000000
-14.188800 0.000000
-14.149000 0.000000
-14.109200 0.000000
-14.069400 0.000000
-14.029600 0.000000
-13.989800 0.000000
-13.950000 0.000000
-13.910200 0.000000
-13.870400 0.000000
-13.830600 0.000000
-13.790800 0.000000
-13.750900 0.000000
-13.711100 0.000000
-13.671300 0.000000
-13.631500 0.000000
-13.591700 0.000000
-13.551900 0.000000
-13.512100 0.000000
-13.472300 0.000000
-13.432500 0.000000
-13.392700 0.000000
-13.352900 0.000000
-13.313100 0.000000
-13.273200 0.000000
-13.233400 0.000000
-13.193600 0.000000
-13.153800 0.000000
-13.114000 0.000000
-13.074200 0.000000
-13.034400 0.000000
-12.994600 0.000000
-12.954800 0.000000
-12.915000 0.000000
-12.875200 0.000000
-12.835300 0.000000
-12.795500 0.000000
-12.755700 0.000000
-12.715900 0.000000
-12.676100 0.000000
-12.636300 0.000000
-12.596500 0.000000
-12.556700 0.000000
-12.516900 0.000000
-12.477100 0.000000
-12.437300 0.000000
-12.397500 0.000000
-12.357600 0.000000
-12.317800 0.000000
-12.278000 0.000000
-12.238200 0.000000
-12.198400 0.000000
-12.158600 0.000000
-12.118800 0.000000
-12.079000 0.000000
-12.039200 0.000000
-11.999400 0.000000
-11.959600 0.000000
-11.919800 0.000000
-11.879900 0.000000
-11.840100 0.000000
-11.800300 0.000000
-11.760500 0.000000
-11.720700 0.000000
-11.680900 0.000000
-11.641100 0.000000
-11.601300 0.000000
-11.561500 0.000000
-11.521700 0.000000
-11.481900 0.000000
-11.442100 0.000000
-11.402200 0.000000
-11.362400 0.000000
-11.322600 0.000000
-11.282800 0.000000
-11.243000 0.000000
-11.203200 0.000000
-11.163400 0.000000
-11.123600 0.000000
-11.083800 0.000000
-11.044000 0.000000
-11.004200 0.000000
-10.964300 0.000000
-10.924500 0.000000
-10.884700 0.000000
-10.844900 0.000000
-10.805100 0.000000
-10.765300 0.000000
-10.725500 0.000000
-10.685700 0.000000
-10.645900 0.000000
-10.606100 0.000000
-10.566300 0.000000
-10.526500 0.000000
-10.486600 0.000000
-10.446800 0.000000
-10.407000 0.000000
-10.367200 0.000000
-10.327400 0.000000
-10.287600 0.000000
-10.247800 0.000000
-10.208000 0.000000
-10.168200 0.000000
-10.128400 0.000000
-10.088600 0.000000
-10.048800 0.000000
-10.008900 0.000000
-9.969100 0.000000
-9.929300 0.000000
-9.889500 0.000000
-9.849700 0.000000
-9.809900 0.000000
-9.770100 0.000000
-9.730300 0.000000
-9.690500 0.000000
-9.650700 0.000000
-9.610900 0.000000
-9.571100 0.000000
-9.531200 0.000000
-9.491400 0.000000
-9.451600 0.000000
-9.411800 0.000000
-9.372000 0.000000
-9.332200 0.000000
-9.292400 0.000000
-9.252600 0.000000
-9.212800 0.000000
-9.173000 0.000000
-9.133200 0.000000
-9.093300 0.000000
-9.053500 0.000000
-9.013700 0.000000
-8.973900 0.000000
-8.934100 0.000000
-8.894300 0.000000
-8.854500 0.000000
-8.814700 0.000000
-8.774900 0.000000
-8.735100 0.000000
-8.695300 0.000000
-8.655500 0.000000
-8.615600 0.000000
-8.575800 0.000000
-8.536000 0.000000
-8.496200 0.000000
-8.456400 0.000000
-8.416600 0.000000
-8.376800 0.000000
-8.337000 0.000000
-8.297200 0.000000
-8.257400 0.000000
-8.217600 0.000000
-8.177800 0.000000
-8.137900 0.000000
-8.098100 0.000000
-8.058300 0.000000
-8.018500 0.000000
-7.978700 0.000000
-7.938900 0.000000
-7.899100 0.000000
-7.859300 0.000000
-7.819500 0.000000
-7.779700 0.000000
-7.739900 0.000000
-7.700100 0.000000
-7.660200 0.000000
-7.620400 0.000000
-7.580600 0.000000
-7.540800 0.000000
-7.501000 0.000000
-7.461200 0.000000
-7.421400 0.000000
-7.381600 0.000000
-7.341800 0.000000
-7.302000 0.000000
-7.262200 0.000000
-7.222300 0.000000
-7.182500 0.000000
-7.142700 0.000500
-7.102900 0.017000
-7.063100 0.056800
-7.023300 0.082900
-6.983500 0.088100
-6.943700 0.098700
-6.903900 0.113600
-6.864100 0.128900
-6.824300 0.143700
-6.784500 0.152800
-6.744600 0.157500
-6.704800 0.165600
-6.665000 0.174400
-6.625200 0.183400
-6.585400 0.192400
-6.545600 0.201000
-6.505800 0.210300
-6.466000 0.220400
-6.426200 0.229200
-6.386400 0.235700
-6.346600 0.242000
-6.306800 0.248900
-6.266900 0.256400
-6.227100 0.263800
-6.187300 0.271000
-6.147500 0.278600
-6.107700 0.286500
-6.067900 0.294800
-6.028100 0.303400
-5.988300 0.312100
-5.948500 0.320200
-5.908700 0.327400
-5.868900 0.335300
-5.829100 0.344000
-5.789200 0.354400
-5.749400 0.370800
-5.709600 0.382200
-5.669800 0.389800
-5.630000 0.397000
-5.590200 0.403600
-5.550400 0.409400
-5.510600 0.414100
-5.470800 0.417600
-5.431000 0.420500
-5.391200 0.423000
-5.351300 0.425000
-5.311500 0.429500
-5.271700 0.439500
-5.231900 0.453700
-5.192100 0.461400
-5.152300 0.477100
-5.112500 0.492800
-5.072700 0.496600
-5.032900 0.504500
-4.993100 0.513800
-4.953300 0.523300
-4.913500 0.532400
-4.873600 0.540700
-4.833800 0.549300
-4.794000 0.558500
-4.754200 0.567900
-4.714400 0.577800
-4.674600 0.588400
-4.634800 0.600000
-4.595000 0.611700
-4.555200 0.622800
-4.515400 0.636700
-4.475600 0.652400
-4.435800 0.666100
-4.395900 0.678200
-4.356100 0.688900
-4.316300 0.700800
-4.276500 0.713800
-4.236700 0.726700
-4.196900 0.758900
-4.157100 0.797800
-4.117300 0.803400
-4.077500 0.806300
-4.037700 0.815900
-3.997900 0.827400
-3.958100 0.839400
-3.918200 0.848000
-3.878400 0.857800
-3.838600 0.869300
-3.798800 0.881400
-3.759000 0.893500
-3.719200 0.905600
-3.679400 0.918200
-3.639600 0.934100
-3.599800 0.955700
-3.560000 0.982500
-3.520200 1.005900
-3.480400 1.033900
-3.440500 1.061700
-3.400700 1.098800
-3.360900 1.110300
-3.321100 1.108600
-3.281300 1.132400
-3.241500 1.161800
-3.201700 1.189300
-3.161900 1.215500
-3.122100 1.248100
-3.082300 1.302300
-3.042500 1.372400
-3.002600 1.540800
-2.962800 1.615700
-2.923000 1.666800
-2.883200 1.717600
-2.843400 1.768800
-2.803600 1.807800
-2.763800 1.813100
-2.724000 1.841000
-2.684200 1.875400
-2.644400 1.901900
-2.604600 2.003900
-2.564800 2.080800
-2.524900 2.011300
-2.485100 2.018100
-2.445300 2.026700
-2.405500 1.939100
-2.365700 1.802900
-2.325900 1.748300
-2.286100 1.679500
-2.246300 1.563700
-2.206500 1.462000
-2.166700 1.379100
-2.126900 1.361000
-2.087100 1.425600
-2.047200 1.498200
-2.007400 0.967200
-1.967600 0.763800
-1.927800 0.577800
-1.888000 0.578000
-1.848200 0.642600
-1.808400 0.657800
-1.768600 0.795300
-1.728800 0.980000
-1.689000 1.129800
-1.649200 1.339900
-1.609400 1.395500
-1.569500 1.443500
-1.529700 1.500800
-1.489900 1.560000
-1.450100 1.506100
-1.410300 1.554500
-1.370500 1.635100
-1.330700 1.741000
-1.290900 1.920200
-1.251100 2.128900
-1.211300 2.146300
-1.171500 2.121500
-1.131600 2.132400
-1.091800 2.240700
-1.052000 2.302500
-1.012200 2.468600
-0.972400 2.863200
-0.932600 2.996500
-0.892800 3.063200
-0.853000 2.886400
-0.813200 2.676000
-0.773400 2.329400
-0.733600 2.258200
-0.693800 2.173200
-0.653900 2.201400
-0.614100 2.430700
-0.574300 2.582200
-0.534500 2.808800
-0.494700 3.291800
-0.454900 4.045600
-0.415100 3.774900
-0.375300 3.521100
-0.335500 3.466600
-0.295700 3.284900
-0.255900 2.999300
-0.216100 2.256100
-0.176200 1.621200
-0.136400 1.194000
-0.096600 0.861100
-0.056800 0.791600
-0.017000 0.831100
0.022800 0.934800
0.062600 1.048600
0.102400 1.182200
0.142200 1.465600
0.182000 1.820400
0.221800 2.013500
0.261600 2.347900
0.301500 2.426600
0.341300 2.518400
0.381100 2.600800
0.420900 2.703300
0.460700 2.931200
0.500500 3.186500
0.540300 3.574900
0.580100 3.309100
0.619900 2.967700
0.659700 2.802900
0.699500 2.630700
0.739400 2.407200
0.779200 2.076200
0.819000 1.942900
0.858800 1.860400
0.898600 1.782800
0.938400 1.706400
0.978200 1.642900
1.018000 1.596600
1.057800 1.579600
1.097600 1.546300
1.137400 1.503400
1.177200 1.471700
1.217100 1.460400
1.256900 1.442100
1.296700 1.393000
1.336500 1.344200
1.376300 1.282500
1.416100 1.237900
1.455900 1.207500
1.495700 1.187200
1.535500 1.073800
1.575300 1.028100
1.615100 0.940500
1.654900 0.880600
1.694800 0.824400
1.734600 0.728900
1.774400 0.695000
1.814200 0.676700
1.854000 0.663700
1.893800 0.653700
1.933600 0.680200
1.973400 0.777400
2.013200 0.905200
2.053000 1.020500
2.092800 1.179200
2.132600 1.287000
2.172500 1.601900
2.212300 1.767500
2.252100 1.994900
2.291900 2.168600
2.331700 2.295100
2.371500 2.390200
2.411300 2.497100
2.451100 2.593300
2.490900 2.719100
2.530700 3.218500
2.570500 3.650000
2.610400 3.860000
2.650200 3.434500
2.690000 3.110300
2.729800 2.884800
2.769600 2.847400
2.809400 2.798800
2.849200 2.490500
2.889000 2.326600
2.928800 2.277400
