set title 'mp-133 - Density of States'
set xlabel 'Energy (eV)'
set ylabel 'DOS (states/eV)'
set grid
set xrange [-10:10]
set yrange [0:0.867]
set xzeroaxis lt -1
set terminal png size 800,600
set output 'mp-133_dos_gnuplot.png'
plot '-' using 1:2 with lines title 'DOS'
-6.986800 0.000000
-6.967000 0.000000
-6.947300 0.000000
-6.927600 0.000000
-6.907900 0.000000
-6.888200 0.000000
-6.868500 0.000000
-6.848800 0.000000
-6.829100 0.000000
-6.809300 0.000000
-6.789600 0.000000
-6.769900 0.000000
-6.750200 0.000000
-6.730500 0.000000
-6.710800 0.000000
-6.691100 0.000000
-6.671400 0.000000
-6.651600 0.000000
-6.631900 0.000000
-6.612200 0.000000
-6.592500 0.000000
-6.572800 0.000000
-6.553100 0.000000
-6.533400 0.000000
-6.513600 0.000000
-6.493900 0.000000
-6.474200 0.000000
-6.454500 0.000000
-6.434800 0.000000
-6.415100 0.000000
-6.395400 0.000000
-6.375700 0.000000
-6.355900 0.000000
-6.336200 0.000000
-6.316500 0.000000
-6.296800 0.000000
-6.277100 0.000000
-6.257400 0.000000
-6.237700 0.000000
-6.217900 0.000000
-6.198200 0.000000
-6.178500 0.000000
-6.158800 0.000000
-6.139100 0.000000
-6.119400 0.000000
-6.099700 0.000000
-6.080000 0.000000
-6.060200 0.000000
-6.040500 0.000000
-6.020800 0.000000
-6.001100 0.000000
-5.981400 0.000000
-5.961700 0.000000
-5.942000 0.000000
-5.922300 0.000000
-5.902500 0.000000
-5.882800 0.000000
-5.863100 0.000000
-5.843400 0.000000
-5.823700 0.000000
-5.804000 0.000000
-5.784300 0.000000
-5.764500 0.000000
-5.744800 0.000000
-5.725100 0.000000
-5.705400 0.000000
-5.685700 0.000000
-5.666000 0.000000
-5.646300 0.000000
-5.626600 0.000000
-5.606800 0.000000
-5.587100 0.000000
-5.567400 0.000000
-5.547700 0.000000
-5.528000 0.000000
-5.508300 0.000000
-5.488600 0.000000
-5.468900 0.000000
-5.449100 0.000000
-5.429400 0.000000
-5.409700 0.000000
-5.390000 0.000000
-5.370300 0.000000
-5.350600 0.000000
-5.330900 0.000000
-5.311100 0.000000
-5.291400 0.000000
-5.271700 0.000000
-5.252000 0.000000
-5.232300 0.000000
-5.212600 0.000000
-5.192900 0.021700
-5.173200 0.034200
-5.153400 0.048700
-5.133700 0.065300
-5.114000 0.068700
-5.094300 0.075300
-5.074600 0.081000
-5.054900 0.085700
-5.035200 0.091800
-5.015400 0.099100
-4.995700 0.106900
-4.976000 0.111400
-4.956300 0.115900
-4.936600 0.119500
-4.916900 0.122400
-4.897200 0.125500
-4.877500 0.129700
-4.857700 0.134200
-4.838000 0.138900
-4.818300 0.143800
-4.798600 0.148700
-4.778900 0.153600
-4.759200 0.156300
-4.739500 0.159500
-4.719800 0.162300
-4.700000 0.164900
-4.680300 0.167700
-4.660600 0.170900
-4.640900 0.174300
-4.621200 0.177700
-4.601500 0.181100
-4.581800 0.184500
-4.562000 0.187900
-4.542300 0.191300
-4.522600 0.195000
-4.502900 0.198900
-4.483200 0.201700
-4.463500 0.204600
-4.443800 0.207200
-4.424100 0.209600
-4.404300 0.212100
-4.384600 0.214800
-4.364900 0.217500
-4.345200 0.220300
-4.325500 0.223100
-4.305800 0.226000
-4.286100 0.228800
-4.266300 0.231700
-4.246600 0.234700
-4.226900 0.237800
-4.207200 0.241000
-4.187500 0.244200
-4.167800 0.247500
-4.148100 0.250200
-4.128400 0.252800
-4.108600 0.255300
-4.088900 0.257700
-4.069200 0.260100
-4.049500 0.262700
-4.029800 0.265300
-4.010100 0.268000
-3.990400 0.270800
-3.970700 0.273500
-3.950900 0.276200
-3.931200 0.279000
-3.911500 0.281800
-3.891800 0.284700
-3.872100 0.287600
-3.852400 0.290500
-3.832700 0.293500
-3.812900 0.296400
-3.793200 0.299400
-3.773500 0.302200
-3.753800 0.305100
-3.734100 0.307900
-3.714400 0.310700
-3.694700 0.313500
-3.675000 0.316400
-3.655200 0.319400
-3.635500 0.322400
-3.615800 0.325400
-3.596100 0.328400
-3.576400 0.331400
-3.556700 0.334400
-3.537000 0.337400
-3.517300 0.340500
-3.497500 0.343600
-3.477800 0.346700
-3.458100 0.349900
-3.438400 0.353000
-3.418700 0.356100
-3.399000 0.359300
-3.379300 0.363000
-3.359500 0.366800
-3.339800 0.370700
-3.320100 0.374800
-3.300400 0.378900
-3.280700 0.383000
-3.261000 0.387000
-3.241300 0.391000
-3.221600 0.395100
-3.201800 0.399300
-3.182100 0.403400
-3.162400 0.407600
-3.142700 0.411800
-3.123000 0.415900
-3.103300 0.420100
-3.083600 0.424300
-3.063800 0.428400
-3.044100 0.432600
-3.024400 0.440500
-3.004700 0.448200
-2.985000 0.456600
-2.965300 0.465700
-2.945600 0.474500
-2.925900 0.482900
-2.906100 0.491300
-2.886400 0.499700
-2.866700 0.508200
-2.847000 0.516900
-2.827300 0.525800
-2.807600 0.569500
-2.787900 0.580400
-2.768200 0.589300
-2.748400 0.596100
-2.728700 0.577500
-2.709000 0.575200
-2.689300 0.573000
-2.669600 0.570800
-2.649900 0.570600
-2.630200 0.570700
-2.610400 0.570300
-2.590700 0.562600
-2.571000 0.559100
-2.551300 0.555700
-2.531600 0.552400
-2.511900 0.549900
-2.492200 0.548500
-2.472500 0.547000
-2.452700 0.545300
-2.433000 0.543600
-2.413300 0.541700
-2.393600 0.539700
-2.373900 0.534200
-2.354200 0.531200
-2.334500 0.528300
-2.314800 0.525400
-2.295000 0.522800
-2.275300 0.520800
-2.255600 0.518800
-2.235900 0.516700
-2.216200 0.514500
-2.196500 0.512400
-2.176800 0.510200
-2.157000 0.507900
-2.137300 0.505900
-2.117600 0.503800
-2.097900 0.501600
-2.078200 0.497200
-2.058500 0.494300
-2.038800 0.491600
-2.019100 0.489000
-1.999300 0.486800
-1.979600 0.484700
-1.959900 0.482600
-1.940200 0.480400
-1.920500 0.478200
-1.900800 0.476000
-1.881100 0.473700
-1.861300 0.471600
-1.841600 0.469500
-1.821900 0.467400
-1.802200 0.465300
-1.782500 0.463100
-1.762800 0.460900
-1.743100 0.458600
-1.723400 0.454900
-1.703600 0.452300
-1.683900 0.449800
-1.664200 0.447300
-1.644500 0.445200
-1.624800 0.443100
-1.605100 0.441000
-1.585400 0.438900
-1.565700 0.436800
-1.545900 0.434600
-1.526200 0.432400
-1.506500 0.430300
-1.486800 0.428100
-1.467100 0.426000
-1.447400 0.423900
-1.427700 0.421800
-1.407900 0.419700
-1.388200 0.417600
-1.368500 0.415400
-1.348800 0.413200
-1.329100 0.410500
-1.309400 0.408200
-1.289700 0.405900
-1.270000 0.403700
-1.250200 0.401600
-1.230500 0.399400
-1.210800 0.397200
-1.191100 0.395100
-1.171400 0.392900
-1.151700 0.390600
-1.132000 0.388500
-1.112200 0.386300
-1.092500 0.384200
-1.072800 0.382200
-1.053100 0.380100
-1.033400 0.378100
-1.013700 0.376000
-0.994000 0.374000
-0.974300 0.371900
-0.954500 0.369900
-0.934800 0.367900
-0.915100 0.366500
-0.895400 0.364600
-0.875700 0.362600
-0.856000 0.360500
-0.836300 0.358300
-0.816600 0.355900
-0.796800 0.353500
-0.777100 0.351200
-0.757400 0.348900
-0.737700 0.346700
-0.718000 0.344500
-0.698300 0.342400
-0.678600 0.340200
-0.658800 0.338000
-0.639100 0.335800
-0.619400 0.333600
-0.599700 0.331500
-0.580000 0.329300
-0.560300 0.327200
-0.540600 0.325000
-0.520900 0.328000
-0.501100 0.326800
-0.481400 0.325200
-0.461700 0.323100
-0.442000 0.319800
-0.422300 0.316400
-0.402600 0.312800
-0.382900 0.309000
-0.363200 0.305000
-0.343400 0.300900
-0.323700 0.296600
-0.304000 0.291900
-0.284300 0.294200
-0.264600 0.284100
-0.244900 0.274300
-0.225200 0.265000
-0.205400 0.247000
-0.185700 0.241200
-0.166000 0.235600
-0.146300 0.230100
-0.126600 0.224800
-0.106900 0.219500
-0.087200 0.214300
-0.067500 0.209200
-0.047700 0.201500
-0.028000 0.197600
-0.008300 0.193800
0.011400 0.190000
0.031100 0.186300
0.050800 0.182600
0.070500 0.179000
0.090300 0.175500
0.110000 0.172000
0.129700 0.168500
0.149400 0.165200
0.169100 0.160300
0.188800 0.157400
0.208500 0.154600
0.228200 0.151900
0.248000 0.149200
0.267700 0.146500
0.287400 0.143800
0.307100 0.141200
0.326800 0.138700
0.346500 0.136100
0.366200 0.133600
0.385900 0.131200
0.405700 0.128700
0.425400 0.126300
0.445100 0.124000
0.464800 0.120800
0.484500 0.118700
0.504200 0.116700
0.523900 0.114700
0.543700 0.112800
0.563400 0.110800
0.583100 0.108600
0.602800 0.106700
0.622500 0.104800
0.642200 0.103000
0.661900 0.101100
0.681600 0.099300
0.701400 0.097500
0.721100 0.095700
0.740800 0.094000
0.760500 0.092200
0.780200 0.090500
0.799900 0.088800
0.819600 0.087200
0.839300 0.085000
0.859100 0.083500
0.878800 0.082100
0.898500 0.080600
0.918200 0.079200
0.937900 0.077700
0.957600 0.076300
0.977300 0.074900
0.997100 0.073500
1.016800 0.072000
1.036500 0.070600
1.056200 0.069300
1.075900 0.068000
1.095600 0.066700
1.115300 0.065400
1.135000 0.064200
1.154800 0.062900
1.174500 0.061700
1.194200 0.060400
1.213900 0.059200
1.233600 0.058000
1.253300 0.056800
1.273000 0.055400
1.292800 0.054300
1.312500 0.053200
1.332200 0.052100
1.351900 0.051100
1.371600 0.050000
1.391300 0.049000
1.411000 0.048000
1.430700 0.046900
1.450500 0.045800
1.470200 0.044900
1.489900 0.043900
1.509600 0.043000
1.529300 0.042100
1.549000 0.041200
1.568700 0.040200
1.588400 0.039300
1.608200 0.038400
1.627900 0.037500
1.647600 0.097300
1.667300 0.114800
1.687000 0.133600
1.706700 0.128400
1.726400 0.134400
1.746200 0.140300
1.765900 0.146300
1.785600 0.154700
1.805300 0.164200
1.825000 0.174000
1.844700 0.175400
1.864400 0.180900
1.884100 0.186300
1.903900 0.191700
1.923600 0.198700
1.943300 0.206200
1.963000 0.213800
1.982700 0.221500
2.002400 0.229300
2.022100 0.235500
2.041800 0.237400
2.061600 0.240800
2.081300 0.243600
2.101000 0.246500
2.120700 0.250400
2.140400 0.254600
2.160100 0.258800
2.179800 0.263000
2.199600 0.267900
2.219300 0.271600
2.239000 0.275600
2.258700 0.280000
2.278400 0.284600
2.298100 0.287200
2.317800 0.290800
2.337500 0.294400
2.357300 0.297900
2.377000 0.301800
2.396700 0.305700
2.416400 0.309700
2.436100 0.313800
2.455800 0.318000
2.475500 0.322400
2.495300 0.326900
2.515000 0.327200
2.534700 0.332500
2.554400 0.337800
2.574100 0.343200
2.593800 0.347700
2.613500 0.352500
2.633200 0.357400
2.653000 0.362200
2.672700 0.367200
2.692400 0.372300
2.712100 0.376800
2.731800 0.381400
2.751500 0.385900
2.771200 0.390200
2.790900 0.394800
2.810700 0.399400
2.830400 0.404100
2.850100 0.408800
2.869800 0.413500
2.889500 0.418300
2.909200 0.423000
2.928900 0.428000
2.948700 0.433000
2.968400 0.438000
2.988100 0.443100
3.007800 0.448300
3.027500 0.453400
3.047200 0.458700
3.066900 0.463900
3.086600 0.469300
3.106400 0.474600
3.126100 0.480000
3.145800 0.485400
3.165500 0.490900
3.185200 0.496500
3.204900 0.502000
3.224600 0.507700
3.244400 0.516500
3.264100 0.523800
3.283800 0.531300
3.303500 0.538700
3.323200 0.546000
3.342900 0.553400
3.362600 0.560900
3.382300 0.568500
3.402100 0.576400
3.421800 0.584300
3.441500 0.592200
3.461200 0.600200
3.480900 0.608300
3.500600 0.648200
3.520300 0.668500
3.540000 0.688100
3.559800 0.706200
3.579500 0.717500
3.599200 0.728100
3.618900 0.738400
3.638600 0.759300
3.658300 0.757700
3.678000 0.787900
3.697800 0.785800
3.717500 0.773800
3.737200 0.761000
3.756900 0.757100
3.776600 0.752300
3.796300 0.746500
3.816000 0.740700
3.835700 0.733700
3.855500 0.732900
3.875200 0.729300
3.894900 0.729200
3.914600 0.728800
3.934300 0.728700
3.954000 0.728900
3.973700 0.729400
3.993400 0.742100
4.013200 0.749400
4.032900 0.762500
4.052600 0.781100
4.072300 0.768600
4.092000 0.763700
4.111700 0.756100
4.131400 0.745900
4.151200 0.737700
4.170900 0.733000
4.190600 0.729800
4.210300 0.726500
4.230000 0.723500
4.249700 0.720200
4.269400 0.716300
4.289100 0.713700
4.308900 0.711900
4.328600 0.711100
4.348300 0.710600
4.368000 0.710200
4.387700 0.709900
4.407400 0.709300
4.427100 0.708600
4.446900 0.707500
4.466600 0.706100
4.486300 0.705900
4.506000 0.705800
4.525700 0.705700
4.545400 0.720400
4.565100 0.729000
4.584800 0.738500
4.604600 0.748000
4.624300 0.755900
4.644000 0.762300
4.663700 0.742300
4.683400 0.734700
4.703100 0.726400
4.722800 0.720600
4.742500 0.718400
4.762300 0.715800
4.782000 0.713000
4.801700 0.709000
4.821400 0.705700
4.841100 0.702500
4.860800 0.700200
4.880500 0.698800
4.900300 0.697800
4.920000 0.696700
4.939700 0.695500
4.959400 0.693900
4.979100 0.692000
4.998800 0.689900
5.018500 0.688100
5.038200 0.687100
5.058000 0.686300
5.077700 0.685900
5.097400 0.685500
5.117100 0.685100
5.136800 0.684600
5.156500 0.686200
5.176200 0.688500
5.195900 0.693200
5.215700 0.697200
5.235400 0.701400
5.255100 0.706600
5.274800 0.728900
5.294500 0.725500
5.314200 0.724800
5.333900 0.720200
5.353700 0.710600
5.373400 0.699600
5.393100 0.691100
5.412800 0.679900
5.432500 0.699700
5.452200 0.691900
5.471900 0.684900
5.491600 0.678000
5.511400 0.672700
5.531100 0.643100
5.550800 0.664900
5.570500 0.671700
5.590200 0.684600
5.609900 0.666700
5.629600 0.652200
5.649400 0.636300
5.669100 0.620800
5.688800 0.605300
5.708500 0.592100
5.728200 0.596700
5.747900 0.602800
5.767600 0.602100
5.787300 0.601700
5.807100 0.601500
5.826800 0.601300
5.846500 0.601400
5.866200 0.600500
5.885900 0.596800
5.905600 0.593500
5.925300 0.591500
5.945000 0.592800
5.964800 0.598000
5.984500 0.603800
6.004200 0.611300
6.023900 0.597900
6.043600 0.585500
6.063300 0.573600
6.083000 0.612000
6.102800 0.613300
6.122500 0.566300
6.142200 0.565200
6.161900 0.587000
6.181600 0.588800
6.201300 0.580900
6.221000 0.566500
6.240700 0.550700
6.260500 0.544800
6.280200 0.540600
6.299900 0.538100
6.319600 0.536500
6.339300 0.535000
6.359000 0.534000
6.378700 0.532200
6.398500 0.531500
6.418200 0.532000
6.437900 0.533500
6.457600 0.538000
6.477300 0.538800
6.497000 0.538200
6.516700 0.537600
6.536400 0.536900
6.556200 0.538000
6.575900 0.540200
6.595600 0.586800
6.615300 0.541800
6.635000 0.511600
6.654700 0.509500
6.674400 0.509900
6.694100 0.511700
6.713900 0.514900
6.733600 0.519400
6.753300 0.524700
6.773000 0.588200
6.792700 0.510200
6.812400 0.506900
6.832100 0.503200
6.851900 0.499200
6.871600 0.497500
6.891300 0.496800
6.911000 0.497200
6.930700 0.498700
6.950400 0.501000
6.970100 0.503600
6.989800 0.506900
7.009600 0.512000
7.029300 0.516600
7.049000 0.524000
7.068700 0.529600
7.088400 0.525900
7.108100 0.519900
7.127800 0.520300
7.147500 0.520700
7.167300 0.555800
7.187000 0.529900
7.206700 0.523000
7.226400 0.519500
7.246100 0.513300
7.265800 0.508300
7.285500 0.507200
7.305300 0.507200
7.325000 0.507900
7.344700 0.551300
7.364400 0.502400
7.384100 0.511800
7.403800 0.510300
7.423500 0.502300
7.443200 0.499300
7.463000 0.493600
7.482700 0.491100
7.502400 0.618800
7.522100 0.480400
7.541800 0.479500
7.561500 0.478800
7.581200 0.481600
7.601000 0.486300
7.620700 0.492900
7.640400 0.501500
7.660100 0.512000
7.679800 0.507500
7.699500 0.509100
7.719200 0.510900
7.738900 0.513000
7.758700 0.515900
7.778400 0.518600
7.798100 0.522400
7.817800 0.527400
7.837500 0.529000
7.857200 0.528100
7.876900 0.495200
7.896600 0.493300
7.916400 0.492900
7.936100 0.492300
7.955800 0.491800
7.975500 0.491300
7.995200 0.490900
8.014900 0.490600
8.034600 0.490300
8.054400 0.490300
8.074100 0.493000
8.093800 0.495900
8.113500 0.495700
8.133200 0.495500
8.152900 0.495200
8.172600 0.494300
8.192300 0.493800
8.212100 0.497900
8.231800 0.503600
8.251500 0.523600
8.271200 0.479000
8.290900 0.501900
8.310600 0.503000
8.330300 0.504800
8.350000 0.529200
8.369800 0.496000
8.389500 0.492500
8.409200 0.486400
8.428900 0.481100
8.448600 0.479700
8.468300 0.478800
8.488000 0.478400
8.507800 0.478700
8.527500 0.480100
8.547200 0.482700
8.566900 0.490500
8.586600 0.502700
8.606300 0.518800
8.626000 0.534100
8.645700 0.528900
8.665500 0.529200
8.685200 0.528800
8.704900 0.492800
8.724600 0.488200
8.744300 0.487900
8.764000 0.487700
8.783700 0.487400
8.803500 0.487300
8.823200 0.487400
8.842900 0.487600
8.862600 0.488300
8.882300 0.490100
8.902000 0.489900
8.921700 0.489700
8.941400 0.490100
8.961200 0.490500
8.980900 0.492500
9.000600 0.495400
9.020300 0.499100
9.040000 0.504900
9.059700 0.506600
9.079400 0.496700
9.099100 0.492500
9.118900 0.494000
9.138600 0.493900
9.158300 0.493800
9.178000 0.493700
9.197700 0.493600
9.217400 0.496400
9.237100 0.498400
9.256900 0.499600
9.276600 0.500000
9.296300 0.484600
9.316000 0.484700
9.335700 0.484700
9.355400 0.484500
9.375100 0.484900
9.394800 0.506500
9.414600 0.532600
9.434300 0.532700
9.454000 0.536900
9.473700 0.533600
9.493400 0.542400
9.513100 0.554700
9.532800 0.570300
9.552500 0.587800
9.572300 0.607800
9.592000 0.632000
9.611700 0.620500
9.631400 0.590800
9.651100 0.596900
9.670800 0.603200
9.690500 0.610200
9.710300 0.610700
9.730000 0.616200
9.749700 0.626000
9.769400 0.634600
9.789100 0.647000
9.808800 0.655000
9.828500 0.659800
9.848200 0.662400
9.868000 0.670800
9.887700 0.678800
9.907400 0.686800
9.927100 0.695000
9.946800 0.695800
9.966500 0.700400
9.986200 0.702600
10.006000 0.703500
10.025700 0.703000
10.045400 0.701200
10.065100 0.699200
10.084800 0.675700
10.104500 0.655300
10.124200 0.655400
10.143900 0.664300
10.163700 0.667500
10.183400 0.671500
10.203100 0.676200
10.222800 0.681700
10.242500 0.686400
10.262200 0.689100
10.281900 0.717000
10.301600 0.726800
10.321400 0.777200
10.341100 0.772800
10.360800 0.801600
10.380500 0.800700
10.400200 0.786600
10.419900 0.778300
10.439600 0.782500
10.459400 0.792200
10.479100 0.798600
10.498800 0.807600
10.518500 0.809000
10.538200 0.810600
10.557900 0.804100
10.577600 0.799200
10.597300 0.794900
10.617100 0.790100
10.636800 0.785900
10.656500 0.779300
10.676200 0.776400
10.695900 0.771400
10.715600 0.768300
10.735300 0.767400
10.755100 0.767700
10.774800 0.768700
10.794500 0.770900
10.814200 0.773400
10.833900 0.776100
10.853600 0.778800
10.873300 0.774800
10.893000 0.782100
10.912800 0.801100
10.932500 0.807900
10.952200 0.811700
10.971900 0.813200
10.991600 0.811500
11.011300 0.817500
11.031000 0.817200
11.050700 0.817000
11.070500 0.817500
11.090200 0.818100
11.109900 0.818700
11.129600 0.819400
11.149300 0.820100
11.169000 0.820800
11.188700 0.822500
11.208500 0.822800
11.228200 0.823900
11.247900 0.825000
11.267600 0.826000
11.287300 0.826500
11.307000 0.826600
11.326700 0.824900
11.346400 0.822700
11.366200 0.819000
11.385900 0.810400
11.405600 0.809300
11.425300 0.813800
11.445000 0.817400
11.464700 0.831500
11.484400 0.819900
11.504100 0.824000
11.523900 0.828200
11.543600 0.843700
11.563300 0.849000
11.583000 0.853600
11.602700 0.857100
11.622400 0.860700
11.642100 0.886300
11.661900 0.891200
11.681600 0.894400
11.701300 0.902900
11.721000 0.903200
11.740700 0.878500
11.760400 0.864200
11.780100 0.854500
11.799800 0.845500
11.819600 0.837200
11.839300 0.829500
11.859000 0.823000
11.878700 0.837500
11.898400 0.827800
11.918100 0.813800
11.937800 0.807800
11.957600 0.799900
11.977300 0.792100
11.997000 0.787700
12.016700 0.796700
12.036400 0.795700
12.056100 0.794400
12.075800 0.792800
12.095500 0.790800
12.115300 0.792600
12.135000 0.789300
12.154700 0.793100
12.174400 0.808000
12.194100 0.804600
12.213800 0.809100
12.233500 0.805900
12.253200 0.763900
12.273000 0.763700
12.292700 0.760900
12.312400 0.804500
12.332100 0.795000
12.351800 0.783000
12.371500 0.707500
12.391200 0.701900
12.411000 0.698500
12.430700 0.703600
12.450400 0.707400
12.470100 0.703500
12.489800 0.701000
12.509500 0.693200
12.529200 0.693200
12.548900 0.675500
12.568700 0.699600
12.588400 0.669600
12.608100 0.655200
12.627800 0.643600
12.647500 0.633100
12.667200 0.623400
12.686900 0.620700
12.706600 0.620700
12.726400 0.611700
12.746100 0.592800
12.765800 0.586400
12.785500 0.579700
12.805200 0.572200
12.824900 0.566800
12.844600 0.556400
12.864400 0.548100
12.884100 0.532100
12.903800 0.553600
12.923500 0.553800
12.943200 0.561900
12.962900 0.573200
12.982600 0.598300
13.002300 0.609200
13.022100 0.619200
13.041800 0.628100
13.061500 0.636400
13.081200 0.644600
13.100900 0.651700
13.120600 0.657900
13.140300 0.662700
13.160100 0.673300
13.179800 0.685300
13.199500 0.662300
13.219200 0.650400
13.238900 0.636000
13.258600 0.618900
13.278300 0.603700
13.298000 0.600000
13.317800 0.596200
13.337500 0.592500
13.357200 0.597700
13.376900 0.604700
13.396600 0.613100
13.416300 0.584000
13.436000 0.580800
13.455700 0.577400
13.475500 0.574700
13.495200 0.571700
13.514900 0.567700
13.534600 0.564300
13.554300 0.562000
13.574000 0.559900
13.593700 0.581400
13.613500 0.553900
13.633200 0.551100
13.652900 0.548000
13.672600 0.544400
13.692300 0.540800
13.712000 0.538200
13.731700 0.535700
13.751400 0.533300
13.771200 0.531300
13.790900 0.529600
13.810600 0.528000
13.830300 0.526500
13.850000 0.525000
13.869700 0.523500
13.889400 0.522000
13.909200 0.520700
13.928900 0.521000
13.948600 0.519000
13.968300 0.516600
13.988000 0.514400
