set title 'mp-28395 - Density of States'
set xlabel 'Energy (eV)'
set ylabel 'DOS (states/eV)'
set grid
set xrange [-10:10]
set yrange [0:19.517]
set xzeroaxis lt -1
set terminal png size 800,600
set output 'mp-28395_dos_gnuplot.png'
plot '-' using 1:2 with lines title 'DOS'
-11.646200 0.000000
-11.623900 0.000000
-11.601600 0.000000
-11.579300 0.000000
-11.557000 0.000000
-11.534700 0.000000
-11.512500 0.000000
-11.490200 0.000000
-11.467900 0.000000
-11.445600 0.000000
-11.423300 0.000000
-11.401000 0.000000
-11.378700 0.000000
-11.356500 0.000000
-11.334200 0.000000
-11.311900 0.000000
-11.289600 0.000000
-11.267300 0.000000
-11.245000 0.000000
-11.222800 0.000000
-11.200500 0.000000
-11.178200 0.000000
-11.155900 0.000000
-11.133600 0.000000
-11.111300 0.000000
-11.089000 0.000000
-11.066800 0.000000
-11.044500 0.000000
-11.022200 0.000000
-10.999900 0.000000
-10.977600 0.000000
-10.955300 0.000000
-10.933100 0.000000
-10.910800 0.000000
-10.888500 0.000000
-10.866200 0.000000
-10.843900 0.000000
-10.821600 0.000000
-10.799400 0.000000
-10.777100 0.000000
-10.754800 0.000000
-10.732500 0.000000
-10.710200 0.000000
-10.687900 0.000000
-10.665600 0.000000
-10.643400 0.000000
-10.621100 0.000000
-10.598800 0.000000
-10.576500 0.000000
-10.554200 0.000000
-10.531900 0.000000
-10.509700 0.000000
-10.487400 0.000000
-10.465100 0.000000
-10.442800 0.000000
-10.420500 0.000000
-10.398200 0.000000
-10.375900 0.000000
-10.353700 0.000000
-10.331400 0.000000
-10.309100 0.000000
-10.286800 0.000000
-10.264500 0.000000
-10.242200 0.000000
-10.220000 0.000000
-10.197700 0.000000
-10.175400 0.000000
-10.153100 0.000000
-10.130800 0.000000
-10.108500 0.000000
-10.086200 0.000000
-10.064000 0.000000
-10.041700 0.000000
-10.019400 0.000000
-9.997100 0.000000
-9.974800 0.000000
-9.952500 0.000000
-9.930300 0.000000
-9.908000 0.000000
-9.885700 0.000000
-9.863400 0.000000
-9.841100 0.000000
-9.818800 0.000000
-9.796600 0.000000
-9.774300 0.000000
-9.752000 0.000000
-9.729700 0.000000
-9.707400 0.000000
-9.685100 0.000000
-9.662800 0.000000
-9.640600 0.000000
-9.618300 0.000100
-9.596000 0.018300
-9.573700 0.067200
-9.551400 0.146800
-9.529100 0.257200
-9.506900 0.398300
-9.484600 0.570200
-9.462300 0.772800
-9.440000 0.833900
-9.417700 0.837300
-9.395400 0.870600
-9.373100 0.942500
-9.350900 1.016500
-9.328600 1.092500
-9.306300 1.170700
-9.284000 1.250900
-9.261700 1.333200
-9.239400 1.417600
-9.217200 1.507600
-9.194900 1.610200
-9.172600 1.725400
-9.150300 1.861000
-9.128000 2.037400
-9.105700 2.256000
-9.083400 2.519500
-9.061200 2.955700
-9.038900 3.442600
-9.016600 3.849500
-8.994300 4.192200
-8.972000 4.485400
-8.949700 4.758700
-8.927500 4.908000
-8.905200 5.160800
-8.882900 6.394000
-8.860600 6.953600
-8.838300 7.985800
-8.816000 8.373500
-8.793700 0.037300
-8.771500 0.000000
-8.749200 0.000000
-8.726900 0.000000
-8.704600 0.000000
-8.682300 0.000000
-8.660000 0.000000
-8.637800 0.000000
-8.615500 0.000000
-8.593200 0.000000
-8.570900 0.000000
-8.548600 0.000000
-8.526300 0.000000
-8.504100 0.000000
-8.481800 0.000000
-8.459500 0.000000
-8.437200 0.000000
-8.414900 0.000000
-8.392600 0.000000
-8.370300 0.000000
-8.348100 0.000000
-8.325800 0.000000
-8.303500 0.000000
-8.281200 0.000000
-8.258900 0.000000
-8.236600 0.000000
-8.214400 0.000000
-8.192100 0.000000
-8.169800 0.000000
-8.147500 0.000000
-8.125200 0.000000
-8.102900 0.000000
-8.080600 0.000000
-8.058400 0.000000
-8.036100 0.000000
-8.013800 0.000000
-7.991500 0.000000
-7.969200 0.000000
-7.946900 0.000000
-7.924700 0.000000
-7.902400 0.000000
-7.880100 0.000000
-7.857800 0.000000
-7.835500 0.000000
-7.813200 0.000000
-7.790900 0.000000
-7.768700 2.154800
-7.746400 1.529400
-7.724100 1.500400
-7.701800 1.729600
-7.679500 1.932400
-7.657200 2.108700
-7.635000 2.258500
-7.612700 2.381900
-7.590400 2.478900
-7.568100 2.549400
-7.545800 2.605700
-7.523500 2.771500
-7.501300 2.957700
-7.479000 3.164300
-7.456700 3.391400
-7.434400 3.196200
-7.412100 2.917500
-7.389800 2.824600
-7.367500 2.826700
-7.345300 2.858900
-7.323000 3.030900
-7.300700 3.118800
-7.278400 3.122700
-7.256100 3.042500
-7.233800 2.882200
-7.211600 2.671100
-7.189300 2.561100
-7.167000 2.534800
-7.144700 2.467900
-7.122400 2.225400
-7.100100 1.793200
-7.077800 1.270300
-7.055600 1.008700
-7.033300 0.927100
-7.011000 0.858900
-6.988700 0.782200
-6.966400 0.700400
-6.944100 0.627900
-6.921900 0.564600
-6.899600 0.506200
-6.877300 0.450800
-6.855000 0.398300
-6.832700 0.348800
-6.810400 0.302300
-6.788100 0.258700
-6.765900 0.218100
-6.743600 0.180500
-6.721300 0.145800
-6.699000 0.114200
-6.676700 0.086300
-6.654400 0.062400
-6.632200 0.042300
-6.609900 0.026100
-6.587600 0.013800
-6.565300 0.005400
-6.543000 0.000900
-6.520700 0.000000
-6.498400 0.000000
-6.476200 0.000000
-6.453900 0.034000
-6.431600 0.157100
-6.409300 0.370100
-6.387000 0.673100
-6.364700 1.045500
-6.342500 1.369000
-6.320200 1.624800
-6.297900 1.812800
-6.275600 1.933200
-6.253300 2.053900
-6.231000 2.418200
-6.208800 2.252700
-6.186500 1.527300
-6.164200 1.554900
-6.141900 1.581100
-6.119600 1.606100
-6.097300 1.629700
-6.075000 1.652000
-6.052800 1.672900
-6.030500 1.692600
-6.008200 1.711000
-5.985900 1.728000
-5.963600 1.728600
-5.941300 1.728000
-5.919100 1.729800
-5.896800 1.733900
-5.874500 1.693500
-5.852200 1.654400
-5.829900 1.618000
-5.807600 1.584200
-5.785300 1.553100
-5.763100 1.524500
-5.740800 1.496800
-5.718500 1.469600
-5.696200 1.442800
-5.673900 1.416600
-5.651600 1.398800
-5.629400 1.403300
-5.607100 1.403700
-5.584800 1.399100
-5.562500 1.389400
-5.540200 1.374600
-5.517900 1.494500
-5.495600 2.523000
-5.473400 3.489400
-5.451100 3.628200
-5.428800 3.729000
-5.406500 3.808200
-5.384200 3.865800
-5.361900 3.901800
-5.339700 3.917500
-5.317400 3.914600
-5.295100 3.892400
-5.272800 3.908400
-5.250500 3.977300
-5.228200 4.252000
-5.206000 4.684600
-5.183700 4.913200
-5.161400 4.945900
-5.139100 4.824400
-5.116800 4.898500
-5.094500 5.075900
-5.072200 5.300000
-5.050000 5.251800
-5.027700 5.396300
-5.005400 5.636200
-4.983100 5.837400
-4.960800 5.970300
-4.938500 6.097200
-4.916300 6.614300
-4.894000 5.472400
-4.871700 4.958600
-4.849400 4.987900
-4.827100 4.975100
-4.804800 4.921900
-4.782500 4.638500
-4.760300 4.167300
-4.738000 3.762900
-4.715700 3.584000
-4.693400 3.568600
-4.671100 3.518500
-4.648800 3.430200
-4.626600 3.422700
-4.604300 3.395400
-4.582000 3.333500
-4.559700 3.237300
-4.537400 3.001400
-4.515100 2.751300
-4.492800 2.545700
-4.470600 2.345200
-4.448300 2.140000
-4.426000 1.414500
-4.403700 1.117000
-4.381400 0.871600
-4.359100 0.678200
-4.336900 0.537000
-4.314600 0.447900
-4.292300 0.410900
-4.270000 0.426000
-4.247700 0.474300
-4.225400 0.527300
-4.203100 0.584600
-4.180900 0.657800
-4.158600 0.747200
-4.136300 0.867500
-4.114000 1.022700
-4.091700 1.212800
-4.069400 1.485100
-4.047200 1.796600
-4.024900 2.075100
-4.002600 2.320700
-3.980300 2.533300
-3.958000 2.713000
-3.935700 2.859700
-3.913500 2.914900
-3.891200 2.888700
-3.868900 2.804800
-3.846600 2.693800
-3.824300 2.608500
-3.802000 2.567700
-3.779700 2.571500
-3.757500 2.619900
-3.735200 2.518500
-3.712900 2.139000
-3.690600 1.931200
-3.668300 1.899400
-3.646000 1.872000
-3.623800 1.842800
-3.601500 1.811800
-3.579200 1.779000
-3.556900 1.744400
-3.534600 1.705900
-3.512300 1.661700
-3.490000 1.611800
-3.467800 1.556200
-3.445500 1.495000
-3.423200 1.416000
-3.400900 1.318300
-3.378600 1.231500
-3.356300 1.151400
-3.334100 1.075100
-3.311800 1.002700
-3.289500 0.934100
-3.267200 0.869400
-3.244900 0.808500
-3.222600 0.751500
-3.200300 0.698400
-3.178100 0.649100
-3.155800 0.603600
-3.133500 0.562000
-3.111200 0.526600
-3.088900 0.499500
-3.066600 0.467600
-3.044400 0.430400
-3.022100 0.388000
-2.999800 0.340400
-2.977500 0.287600
-2.955200 0.229500
-2.932900 0.166200
-2.910700 0.097600
-2.888400 0.023800
-2.866100 0.000000
-2.843800 0.000000
-2.821500 0.000000
-2.799200 0.000000
-2.776900 0.000000
-2.754700 0.000000
-2.732400 0.000000
-2.710100 0.000000
-2.687800 0.000200
-2.665500 0.035300
-2.643200 0.069400
-2.621000 0.102600
-2.598700 0.135000
-2.576400 0.166300
-2.554100 0.196800
-2.531800 0.226400
-2.509500 0.255000
-2.487200 0.282700
-2.465000 0.317100
-2.442700 0.411300
-2.420400 0.510000
-2.398100 0.617800
-2.375800 0.727900
-2.353500 0.843400
-2.331300 0.972600
-2.309000 1.116000
-2.286700 1.273600
-2.264400 1.523200
-2.242100 2.035900
-2.219800 3.530400
-2.197500 5.906700
-2.175300 8.442800
-2.153000 7.894700
-2.130700 7.310100
-2.108400 6.085500
-2.086100 4.740900
-2.063800 4.063900
-2.041600 3.842600
-2.019300 3.669700
-1.997000 3.531100
-1.974700 3.413500
-1.952400 3.324400
-1.930100 3.285600
-1.907800 3.226100
-1.885600 3.212200
-1.863300 3.247400
-1.841000 3.327100
-1.818700 3.437100
-1.796400 3.501600
-1.774100 3.452900
-1.751900 3.291000
-1.729600 3.185900
-1.707300 2.100000
-1.685000 2.233000
-1.662700 2.378700
-1.640400 2.515500
-1.618200 2.624400
-1.595900 2.709500
-1.573600 2.838900
-1.551300 3.106200
-1.529000 3.515100
-1.506700 3.878400
-1.484400 4.196000
-1.462200 4.511500
-1.439900 4.915600
-1.417600 5.370400
-1.395300 5.654100
-1.373000 5.474500
-1.350700 5.094000
-1.328500 4.621000
-1.306200 4.428900
-1.283900 4.269500
-1.261600 4.142900
-1.239300 4.040200
-1.217000 3.977400
-1.194700 3.887900
-1.172500 3.810500
-1.150200 3.743800
-1.127900 3.680400
-1.105600 3.619100
-1.083300 3.559800
-1.061000 3.502500
-1.038800 3.893700
-1.016500 4.049400
-0.994200 3.827200
-0.971900 3.176100
-0.949600 2.582400
-0.927300 2.306100
-0.905000 2.246300
-0.882800 2.580500
-0.860500 2.741700
-0.838200 2.730300
-0.815900 2.682300
-0.793600 2.753900
-0.771300 2.824900
-0.749100 2.890500
-0.726800 2.950700
-0.704500 3.005600
-0.682200 3.055000
-0.659900 3.192200
-0.637600 5.984600
-0.615400 9.007500
-0.593100 5.425100
-0.570800 5.328500
-0.548500 5.283600
-0.526200 5.179900
-0.503900 5.064400
-0.481600 4.943000
-0.459400 5.028600
-0.437100 4.930000
-0.414800 6.177800
-0.392500 6.912800
-0.370200 5.620800
-0.347900 4.855100
-0.325700 4.324000
-0.303400 3.935300
-0.281100 4.330800
-0.258800 3.424000
-0.236500 1.801400
-0.214200 2.281800
-0.191900 6.183400
-0.169700 8.174800
-0.147400 8.340700
-0.125100 7.657600
-0.102800 5.881200
-0.080500 4.378700
-0.058200 3.393500
-0.036000 2.902200
-0.013700 2.605600
0.008600 2.347800
0.030900 2.194600
0.053200 2.138600
0.075500 2.088000
0.097800 2.042900
0.120000 2.002300
0.142300 1.964500
0.164600 1.929300
0.186900 1.896900
0.209200 1.867100
0.231500 1.840000
0.253700 1.815100
0.276000 1.792100
0.298300 1.771000
0.320600 1.751800
0.342900 1.735400
0.365200 1.722400
0.387500 1.712900
0.409700 1.711500
0.432000 1.773900
0.454300 1.916100
0.476600 2.138200
0.498900 2.448100
0.521200 2.784000
0.543400 3.119100
0.565700 3.872300
0.588000 4.236300
0.610300 4.796400
0.632600 5.212500
0.654900 5.483500
0.677100 5.501200
0.699400 5.196300
0.721700 4.568900
0.744000 3.860300
0.766300 3.036300
0.788600 2.400200
0.810900 2.277700
0.833100 2.620500
0.855400 2.963200
0.877700 3.372600
0.900000 3.757500
0.922300 4.038700
0.944600 4.216300
0.966800 4.290300
0.989100 4.260600
1.011400 4.140300
1.033700 3.915700
1.056000 3.752100
1.078300 3.702900
1.100600 3.724600
1.122800 3.764100
1.145100 3.773200
1.167400 3.752100
1.189700 3.700800
1.212000 3.648900
1.234300 3.691000
1.256500 3.772300
1.278800 3.854000
1.301100 3.946600
1.323400 4.045900
1.345700 4.134000
1.368000 4.371800
1.390300 5.181000
1.412500 5.777000
1.434800 5.869800
1.457100 5.635000
1.479400 5.399600
1.501700 5.165700
1.524000 4.933200
1.546200 4.702200
1.568500 4.487400
1.590800 4.267900
1.613100 3.933000
1.635400 3.491600
1.657700 3.148900
1.680000 2.899200
1.702200 2.723100
1.724500 2.504600
1.746800 2.243700
1.769100 2.044900
1.791400 1.889100
1.813700 1.780900
1.835900 2.133000
1.858200 4.265100
1.880500 3.744300
1.902800 3.106200
1.925100 3.505200
1.947400 4.032100
1.969600 4.476000
1.991900 4.770500
2.014200 5.203500
2.036500 5.261700
2.058800 10.136500
2.081100 3.211600
2.103400 3.198500
2.125600 3.176400
2.147900 3.213400
2.170200 3.291400
2.192500 3.382500
2.214800 3.486800
2.237100 3.602900
2.259300 3.694000
2.281600 3.492900
2.303900 3.225400
2.326200 3.209800
2.348500 3.296100
2.370800 3.482200
2.393100 3.674800
2.415300 3.871300
2.437600 4.057200
2.459900 4.240800
2.482200 4.418300
2.504500 4.589600
2.526800 4.764400
2.549000 10.052600
2.571300 15.189200
2.593600 17.742900
2.615900 14.221200
2.638200 10.734700
2.660500 8.543200
2.682800 6.638100
2.705000 9.563800
2.727300 13.583200
2.749600 15.369500
2.771900 14.765900
2.794200 9.250300
2.816500 6.139300
2.838700 5.524700
2.861000 5.764100
2.883300 5.876900
2.905600 5.754400
2.927900 5.483700
2.950200 5.205700
2.972400 5.127800
2.994700 5.021700
3.017000 5.246500
3.039300 5.676300
3.061600 6.057900
3.083900 6.709200
3.106200 7.524600
3.128400 7.670300
3.150700 6.789000
3.173000 5.903100
3.195300 5.678000
3.217600 6.048900
3.239900 6.881700
3.262100 7.387500
3.284400 6.817200
3.306700 5.946900
3.329000 5.236100
3.351300 4.864100
3.373600 4.737000
3.395900 4.751300
3.418100 5.139100
3.440400 5.861000
3.462700 7.074800
3.485000 9.114500
3.507300 11.739100
3.529600 7.830700
3.551800 7.242600
3.574100 6.827700
3.596400 6.613500
3.618700 6.103200
3.641000 6.123500
3.663300 6.609400
3.685600 7.199700
3.707800 6.424700
3.730100 6.717100
3.752400 7.044500
3.774700 7.403200
3.797000 7.374300
3.819300 7.047000
3.841500 6.478700
3.863800 5.691900
3.886100 5.206300
3.908400 4.903100
3.930700 4.640800
3.953000 4.504300
3.975300 4.389300
3.997500 4.129000
4.019800 3.912800
4.042100 4.019500
4.064400 4.236600
4.086700 4.815000
4.109000 5.763700
4.131200 6.431300
4.153500 7.380600
4.175800 10.673300
4.198100 9.786200
4.220400 10.713600
4.242700 10.693200
4.264900 9.430500
4.287200 7.209000
4.309500 5.129400
4.331800 4.310000
4.354100 3.755500
4.376400 3.141400
4.398700 2.781900
4.420900 6.435200
4.443200 6.029700
4.465500 5.105500
4.487800 4.730800
4.510100 4.515700
4.532400 4.397200
4.554600 4.279000
4.576900 4.160300
4.599200 4.051100
4.621500 3.951500
4.643800 3.850000
4.666100 3.710100
4.688400 3.608300
4.710600 3.544700
4.732900 3.519100
4.755200 3.520700
4.777500 3.529400
4.799800 3.544500
4.822100 3.566000
4.844300 3.534000
4.866600 5.066200
4.888900 2.424600
4.911200 2.182800
4.933500 1.948700
4.955800 1.934300
4.978100 1.909700
5.000300 1.842400
5.022600 1.734800
5.044900 1.597600
5.067200 1.431800
5.089500 1.237500
5.111800 1.014800
5.134000 0.763500
5.156300 0.378900
5.178600 0.000000
5.200900 0.000000
5.223200 0.000000
5.245500 0.000000
5.267700 0.000000
5.290000 0.000000
5.312300 0.000000
5.334600 0.000000
5.356900 0.000000
5.379200 0.000000
5.401500 0.000000
5.423700 0.000000
5.446000 0.000000
5.468300 0.000000
5.490600 0.000000
5.512900 0.000000
5.535200 0.000000
5.557400 0.000000
5.579700 0.000000
5.602000 0.000000
5.624300 0.000000
5.646600 0.000000
5.668900 0.000000
5.691200 0.000000
5.713400 0.000000
5.735700 0.000000
5.758000 0.000000
5.780300 0.000000
5.802600 0.000000
5.824900 0.000000
5.847100 0.000000
5.869400 0.000000
5.891700 0.000000
5.914000 0.000000
5.936300 0.000000
5.958600 0.000000
5.980900 0.000000
6.003100 0.000000
6.025400 0.000000
6.047700 0.000000
6.070000 0.000000
6.092300 0.000000
6.114600 0.000000
6.136800 0.000000
6.159100 0.000000
6.181400 0.000000
6.203700 0.000000
6.226000 0.000000
6.248300 0.000000
6.270600 0.000000
6.292800 0.000000
6.315100 0.000000
6.337400 0.000000
6.359700 0.000000
6.382000 0.000000
6.404300 0.000000
6.426500 0.000000
6.448800 0.000000
6.471100 0.000000
6.493400 0.000000
6.515700 0.000000
6.538000 0.000000
6.560200 0.000000
6.582500 0.000000
6.604800 0.000000
6.627100 0.000000
6.649400 0.000000
6.671700 0.000000
6.694000 0.000000
6.716200 0.000000
6.738500 0.000000
6.760800 0.000000
6.783100 0.000000
6.805400 0.000000
6.827700 0.000000
6.849900 0.000000
6.872200 0.000000
6.894500 0.000000
6.916800 0.000000
6.939100 0.000000
6.961400 0.000000
6.983700 0.000000
7.005900 0.000000
7.028200 0.000000
7.050500 0.000000
7.072800 0.000000
7.095100 0.000000
7.117400 0.000000
7.139600 0.000000
7.161900 0.000000
7.184200 0.000000
7.206500 0.000000
7.228800 0.000000
7.251100 0.000000
7.273400 0.000000
7.295600 0.000000
7.317900 0.000000
7.340200 0.000000
7.362500 0.000000
7.384800 0.000000
7.407100 0.000000
7.429300 0.000000
7.451600 0.000000
7.473900 0.000000
7.496200 0.000000
7.518500 0.000000
7.540800 0.000000
7.563000 0.000000
7.585300 0.000000
7.607600 0.000000
7.629900 0.000000
7.652200 0.000000
7.674500 0.000000
7.696800 0.000000
7.719000 0.000000
7.741300 0.000000
7.763600 0.000000
7.785900 0.000000
7.808200 0.000000
7.830500 0.000000
7.852700 0.000000
7.875000 0.000000
7.897300 0.016300
7.919600 0.083700
7.941900 0.161600
7.964200 0.249900
7.986500 0.348600
8.008700 0.457800
8.031000 0.577500
8.053300 0.721500
8.075600 0.899100
8.097900 1.110400
8.120200 1.355400
8.142400 1.634000
8.164700 1.806000
8.187000 1.867100
8.209300 1.836800
8.231600 1.865400
8.253900 2.000500
8.276200 2.123900
8.298400 2.235700
8.320700 2.335000
8.343000 2.420200
8.365300 2.491200
8.387600 2.548100
8.409900 2.590900
8.432100 2.619500
8.454400 2.634000
8.476700 2.649800
8.499000 2.661600
8.521300 2.680700
8.543600 2.717900
8.565900 2.773200
8.588100 2.846500
8.610400 2.937900
8.632700 3.047400
8.655000 3.382900
8.677300 3.658700
8.699600 3.415800
8.721800 2.729300
8.744100 2.350000
8.766400 1.927000
8.788700 2.091600
8.811000 2.352400
8.833300 2.642900
8.855500 3.089400
8.877800 3.608800
8.900100 4.021600
8.922400 4.234300
8.944700 4.340800
8.967000 4.408700
8.989300 4.457900
9.011500 4.653800
9.033800 4.950600
9.056100 4.960200
9.078400 4.650200
9.100700 4.034400
9.123000 3.482800
9.145200 3.198500
9.167500 2.978200
9.189800 2.760900
9.212100 2.519300
9.234400 2.270600
9.256700 2.004200
9.279000 1.887300
9.301200 1.811600
9.323500 1.743700
9.345800 1.683400
9.368100 1.630900
9.390400 1.586100
9.412700 1.549000
9.434900 2.293400
9.457200 3.041300
9.479500 3.135600
9.501800 3.361300
9.524100 3.636800
9.546400 4.039900
9.568700 4.330600
9.590900 4.475000
9.613200 4.672500
9.635500 5.194400
9.657800 4.929200
9.680100 4.624800
9.702400 4.420400
9.724600 4.987700
9.746900 5.113000
9.769200 4.962200
9.791500 5.101400
9.813800 5.229000
9.836100 5.345000
9.858300 5.267400
9.880600 4.749200
9.902900 4.369900
9.925200 3.953000
9.947500 3.656000
9.969800 3.526600
9.992100 3.663400
10.014300 3.835100
10.036600 4.026000
10.058900 4.134800
10.081200 4.133500
10.103500 4.018500
10.125800 4.322400
10.148000 5.040300
10.170300 5.416700
10.192600 5.310600
10.214900 5.304000
10.237200 5.398700
10.259500 5.527700
10.281800 5.623100
10.304000 5.684800
10.326300 5.712900
10.348600 5.771600
10.370900 5.734700
10.393200 5.501700
10.415500 5.127200
10.437700 4.675300
10.460000 4.014900
10.482300 3.129500
10.504600 2.574300
10.526900 2.393100
10.549200 2.531900
10.571500 2.783400
10.593700 3.163800
10.616000 4.391000
10.638300 5.594800
10.660600 6.630700
10.682900 6.819200
10.705200 6.354300
10.727400 6.026900
10.749700 5.617300
10.772000 5.348300
10.794300 5.157700
10.816600 4.956200
10.838900 4.910900
10.861200 4.888600
10.883400 4.925200
10.905700 4.994900
10.928000 5.033100
10.950300 5.030100
10.972600 5.131700
10.994900 5.628000
11.017100 6.383900
11.039400 5.842100
11.061700 5.239200
11.084000 4.859200
11.106300 4.696100
11.128600 4.596100
11.150800 4.486100
11.173100 4.340800
11.195400 4.077400
11.217700 3.905300
11.240000 3.783500
11.262300 3.711700
11.284600 3.682800
11.306800 3.681800
11.329100 3.695500
11.351400 3.967100
11.373700 4.337900
11.396000 4.636400
11.418300 4.867100
11.440500 5.020800
11.462800 5.127800
11.485100 5.292900
11.507400 5.382600
11.529700 5.440200
11.552000 5.457200
11.574300 5.433600
11.596500 5.371700
11.618800 5.288400
11.641100 5.238100
11.663400 5.288900
11.685700 5.410600
11.708000 5.671400
11.730200 6.049000
11.752500 6.309800
11.774800 6.420700
11.797100 6.392400
11.819400 6.210400
11.841700 5.903700
11.864000 5.731300
11.886200 5.557000
