set title 'mp-985281 - Density of States'
set xlabel 'Energy (eV)'
set ylabel 'DOS (states/eV)'
set grid
set xrange [-10:10]
set yrange [0:4.204]
set xzeroaxis lt -1
set terminal png size 800,600
set output 'mp-985281_dos_gnuplot.png'
plot '-' using 1:2 with lines title 'DOS'
-21.939900 0.000000
-21.906700 0.000000
-21.873500 0.000000
-21.840300 0.000000
-21.807200 0.000000
-21.774000 0.000000
-21.740800 0.000000
-21.707600 0.000000
-21.674500 0.000000
-21.641300 0.000000
-21.608100 0.000000
-21.575000 0.000000
-21.541800 0.000000
-21.508600 0.000000
-21.475400 0.000000
-21.442300 0.000000
-21.409100 0.000000
-21.375900 0.000000
-21.342700 0.000000
-21.309600 0.000000
-21.276400 0.000000
-21.243200 0.000000
-21.210100 0.000000
-21.176900 0.000000
-21.143700 0.000000
-21.110500 0.000000
-21.077400 0.000000
-21.044200 0.000000
-21.011000 0.000000
-20.977800 0.000000
-20.944700 0.000000
-20.911500 0.000000
-20.878300 0.000000
-20.845200 0.000000
-20.812000 0.000000
-20.778800 0.000000
-20.745600 0.000000
-20.712500 0.000000
-20.679300 0.000000
-20.646100 0.000000
-20.612900 0.000000
-20.579800 0.000000
-20.546600 0.000000
-20.513400 0.000000
-20.480200 0.000000
-20.447100 0.000000
-20.413900 0.000000
-20.380700 0.000000
-20.347600 0.000000
-20.314400 0.000000
-20.281200 0.000000
-20.248000 0.000000
-20.214900 0.000000
-20.181700 0.000000
-20.148500 0.000000
-20.115300 0.000000
-20.082200 0.000000
-20.049000 0.000000
-20.015800 0.000000
-19.982700 0.000000
-19.949500 0.000000
-19.916300 0.000000
-19.883100 0.000000
-19.850000 0.000000
-19.816800 0.000000
-19.783600 0.000000
-19.750400 0.000000
-19.717300 0.000000
-19.684100 0.000000
-19.650900 0.000000
-19.617800 0.000000
-19.584600 0.000000
-19.551400 0.000000
-19.518200 0.000000
-19.485100 0.000000
-19.451900 0.000000
-19.418700 0.000000
-19.385500 0.000000
-19.352400 0.000000
-19.319200 0.000000
-19.286000 0.000000
-19.252800 0.000000
-19.219700 0.000000
-19.186500 0.000000
-19.153300 0.000000
-19.120200 0.000000
-19.087000 0.000000
-19.053800 0.000000
-19.020600 0.000000
-18.987500 0.000000
-18.954300 0.000000
-18.921100 0.000000
-18.887900 0.476300
-18.854800 0.420500
-18.821600 0.472700
-18.788400 0.522000
-18.755300 0.470700
-18.722100 0.493700
-18.688900 0.516700
-18.655700 0.540600
-18.622600 0.528300
-18.589400 0.543000
-18.556200 0.557800
-18.523000 0.576000
-18.489900 0.596400
-18.456700 0.613600
-18.423500 0.632900
-18.390400 0.653000
-18.357200 0.673900
-18.324000 0.699300
-18.290800 0.762500
-18.257700 0.800000
-18.224500 0.838000
-18.191300 0.872800
-18.158100 1.094200
-18.125000 1.200700
-18.091800 1.651200
-18.058600 1.058100
-18.025400 0.964700
-17.992300 0.871400
-17.959100 0.765300
-17.925900 0.728900
-17.892800 0.687100
-17.859600 0.644700
-17.826400 0.598100
-17.793200 0.575600
-17.760100 0.552900
-17.726900 0.530300
-17.693700 0.506100
-17.660500 0.485400
-17.627400 0.464600
-17.594200 0.448300
-17.561000 0.435500
-17.527900 0.442100
-17.494700 0.410500
-17.461500 0.386200
-17.428300 0.372200
-17.395200 0.451700
-17.362000 0.354100
-17.328800 0.256500
-17.295600 0.000000
-17.262500 0.000000
-17.229300 0.000000
-17.196100 0.000000
-17.163000 0.000000
-17.129800 0.000000
-17.096600 0.000000
-17.063400 0.000000
-17.030300 0.000000
-16.997100 0.000000
-16.963900 0.000000
-16.930700 0.000000
-16.897600 0.000000
-16.864400 0.000000
-16.831200 0.000000
-16.798000 0.000000
-16.764900 0.000000
-16.731700 0.000000
-16.698500 0.000000
-16.665400 0.000000
-16.632200 0.000000
-16.599000 0.000000
-16.565800 0.000000
-16.532700 0.000000
-16.499500 0.000000
-16.466300 0.000000
-16.433100 0.000000
-16.400000 0.000000
-16.366800 0.000000
-16.333600 0.000000
-16.300500 0.000000
-16.267300 0.000000
-16.234100 0.000000
-16.200900 0.000000
-16.167800 0.000000
-16.134600 0.000000
-16.101400 0.000000
-16.068200 0.000000
-16.035100 0.000000
-16.001900 0.000000
-15.968700 0.000000
-15.935600 0.000000
-15.902400 0.000000
-15.869200 0.000000
-15.836000 0.000000
-15.802900 0.000000
-15.769700 0.000000
-15.736500 0.000000
-15.703300 0.000000
-15.670200 0.000000
-15.637000 0.000000
-15.603800 0.000000
-15.570600 0.000000
-15.537500 0.000000
-15.504300 0.000000
-15.471100 0.000000
-15.438000 0.000000
-15.404800 0.000000
-15.371600 0.000000
-15.338400 0.000000
-15.305300 0.000000
-15.272100 0.000000
-15.238900 0.000000
-15.205700 0.000000
-15.172600 0.000000
-15.139400 0.000000
-15.106200 0.000000
-15.073100 0.000000
-15.039900 0.000000
-15.006700 0.000000
-14.973500 0.000000
-14.940400 0.000000
-14.907200 0.000000
-14.874000 0.000000
-14.840800 0.000000
-14.807700 0.000000
-14.774500 0.000000
-14.741300 0.000000
-14.708200 0.000000
-14.675000 0.000000
-14.641800 0.000000
-14.608600 0.000000
-14.575500 0.000000
-14.542300 0.000000
-14.509100 0.000000
-14.475900 0.000000
-14.442800 0.000000
-14.409600 0.000000
-14.376400 0.000000
-14.343200 0.000000
-14.310100 0.000000
-14.276900 0.000000
-14.243700 0.000000
-14.210600 0.000000
-14.177400 0.000000
-14.144200 0.000000
-14.111000 0.000000
-14.077900 0.000000
-14.044700 0.000000
-14.011500 0.000000
-13.978300 0.000000
-13.945200 0.000000
-13.912000 0.000000
-13.878800 0.000000
-13.845700 0.000000
-13.812500 0.000000
-13.779300 0.000000
-13.746100 0.000000
-13.713000 0.000000
-13.679800 0.000000
-13.646600 0.000000
-13.613400 0.000000
-13.580300 0.000000
-13.547100 0.000000
-13.513900 0.000000
-13.480800 0.000000
-13.447600 0.000000
-13.414400 0.000000
-13.381200 0.000000
-13.348100 0.000000
-13.314900 0.000000
-13.281700 0.000000
-13.248500 0.000000
-13.215400 0.000000
-13.182200 0.000000
-13.149000 0.000000
-13.115800 0.000000
-13.082700 0.000000
-13.049500 0.000000
-13.016300 0.000000
-12.983200 0.000000
-12.950000 0.000000
-12.916800 0.000000
-12.883600 0.000000
-12.850500 0.000000
-12.817300 0.000000
-12.784100 0.000000
-12.750900 0.000000
-12.717800 0.000000
-12.684600 0.000000
-12.651400 0.000000
-12.618300 0.000000
-12.585100 0.000000
-12.551900 0.000000
-12.518700 0.000000
-12.485600 0.000000
-12.452400 0.000000
-12.419200 0.000000
-12.386000 0.000000
-12.352900 0.000000
-12.319700 0.000000
-12.286500 0.000000
-12.253400 0.000000
-12.220200 0.000000
-12.187000 0.000000
-12.153800 0.000000
-12.120700 0.000000
-12.087500 0.000000
-12.054300 0.000000
-12.021100 0.000000
-11.988000 0.000000
-11.954800 0.000000
-11.921600 0.000000
-11.888400 0.000000
-11.855300 0.000000
-11.822100 0.000000
-11.788900 0.000000
-11.755800 0.000000
-11.722600 0.000000
-11.689400 0.000000
-11.656200 0.000000
-11.623100 0.000000
-11.589900 0.000000
-11.556700 0.000000
-11.523500 0.000000
-11.490400 0.000000
-11.457200 0.000000
-11.424000 0.000000
-11.390900 0.000000
-11.357700 0.000000
-11.324500 0.000000
-11.291300 0.000000
-11.258200 0.000000
-11.225000 0.000000
-11.191800 0.000000
-11.158600 0.000000
-11.125500 0.000000
-11.092300 0.000000
-11.059100 0.000000
-11.026000 0.000000
-10.992800 0.000000
-10.959600 0.000000
-10.926400 0.000000
-10.893300 0.000000
-10.860100 0.000000
-10.826900 0.000000
-10.793700 0.000000
-10.760600 0.000000
-10.727400 0.000000
-10.694200 0.000000
-10.661000 0.000000
-10.627900 0.000000
-10.594700 0.000000
-10.561500 0.000000
-10.528400 0.000000
-10.495200 0.000000
-10.462000 0.000000
-10.428800 0.000000
-10.395700 0.000000
-10.362500 0.000000
-10.329300 0.000000
-10.296100 0.000000
-10.263000 0.000000
-10.229800 0.000000
-10.196600 0.000000
-10.163500 0.000000
-10.130300 0.000000
-10.097100 0.000000
-10.063900 0.000000
-10.030800 0.000000
-9.997600 0.000000
-9.964400 0.000000
-9.931200 0.000000
-9.898100 0.000000
-9.864900 0.000000
-9.831700 0.000000
-9.798600 0.000000
-9.765400 0.000000
-9.732200 0.000000
-9.699000 0.000000
-9.665900 0.000000
-9.632700 0.000000
-9.599500 0.000000
-9.566300 0.000000
-9.533200 0.000000
-9.500000 0.000000
-9.466800 0.000000
-9.433600 0.000000
-9.400500 0.000000
-9.367300 0.000000
-9.334100 0.000000
-9.301000 0.000000
-9.267800 0.000000
-9.234600 0.000000
-9.201400 0.000000
-9.168300 0.000000
-9.135100 0.000000
-9.101900 0.000000
-9.068700 0.000000
-9.035600 0.000000
-9.002400 0.000000
-8.969200 0.000000
-8.936100 0.000000
-8.902900 0.000000
-8.869700 0.000000
-8.836500 0.000000
-8.803400 0.000000
-8.770200 0.000000
-8.737000 0.000000
-8.703800 0.000000
-8.670700 0.000000
-8.637500 0.000000
-8.604300 0.000000
-8.571200 0.000000
-8.538000 0.000000
-8.504800 0.000000
-8.471600 0.000000
-8.438500 0.000000
-8.405300 0.000000
-8.372100 0.000000
-8.338900 0.000000
-8.305800 0.000000
-8.272600 0.000000
-8.239400 0.000000
-8.206200 0.000000
-8.173100 0.000000
-8.139900 0.000000
-8.106700 0.000000
-8.073600 0.000000
-8.040400 0.000000
-8.007200 0.000000
-7.974000 0.000000
-7.940900 0.000000
-7.907700 0.000000
-7.874500 0.000000
-7.841300 0.000000
-7.808200 0.000000
-7.775000 0.000000
-7.741800 0.000000
-7.708700 0.000000
-7.675500 0.000000
-7.642300 0.000000
-7.609100 0.000000
-7.576000 0.290100
-7.542800 0.479000
-7.509600 0.356500
-7.476400 0.400300
-7.443300 0.399100
-7.410100 0.402200
-7.376900 0.430700
-7.343800 0.459300
-7.310600 0.477700
-7.277400 0.470600
-7.244200 0.457000
-7.211100 0.454100
-7.177900 0.456700
-7.144700 0.462600
-7.111500 0.469500
-7.078400 0.479000
-7.045200 0.488500
-7.012000 0.498600
-6.978800 0.510300
-6.945700 0.543300
-6.912500 0.560400
-6.879300 0.577600
-6.846200 0.594700
-6.813000 0.612100
-6.779800 0.823300
-6.746600 0.792600
-6.713500 0.760300
-6.680300 0.584900
-6.647100 0.629000
-6.613900 0.579900
-6.580800 0.532000
-6.547600 0.484900
-6.514400 0.471500
-6.481300 0.520200
-6.448100 0.580900
-6.414900 0.411400
-6.381700 0.407800
-6.348600 0.404300
-6.315400 0.400700
-6.282200 0.459500
-6.249000 0.434300
-6.215900 0.409000
-6.182700 0.383800
-6.149500 0.365900
-6.116400 0.367100
-6.083200 0.379300
-6.050000 0.407800
-6.016800 0.436400
-5.983700 0.421100
-5.950500 0.371500
-5.917300 0.387000
-5.884100 0.433800
-5.851000 0.499000
-5.817800 0.520500
-5.784600 0.559000
-5.751500 0.601500
-5.718300 0.669400
-5.685100 0.725300
-5.651900 0.731500
-5.618800 0.745900
-5.585600 0.811700
-5.552400 0.823400
-5.519200 0.767700
-5.486100 0.752400
-5.452900 0.726800
-5.419700 0.704800
-5.386500 0.682700
-5.353400 0.535800
-5.320200 0.484600
-5.287000 0.494400
-5.253900 0.520000
-5.220700 0.587900
-5.187500 0.699300
-5.154300 0.898000
-5.121200 1.022500
-5.088000 1.144700
-5.054800 1.145100
-5.021600 1.145700
-4.988500 1.165600
-4.955300 1.257300
-4.922100 1.228500
-4.889000 0.992700
-4.855800 1.068100
-4.822600 1.164000
-4.789400 1.605100
-4.756300 1.304600
-4.723100 1.255500
-4.689900 1.230600
-4.656700 0.976100
-4.623600 0.925000
-4.590400 0.847300
-4.557200 0.773700
-4.524100 0.607300
-4.490900 0.661000
-4.457700 0.743000
-4.424500 0.875000
-4.391400 1.141600
-4.358200 1.341300
-4.325000 0.998100
-4.291800 0.737800
-4.258700 0.722700
-4.225500 0.717200
-4.192300 0.704200
-4.159100 0.691800
-4.126000 0.772300
-4.092800 0.685700
-4.059600 0.639200
-4.026500 0.569100
-3.993300 0.528000
-3.960100 0.510400
-3.926900 0.323900
-3.893800 0.326300
-3.860600 0.328800
-3.827400 0.331200
-3.794200 0.333700
-3.761100 0.336400
-3.727900 0.339100
-3.694700 0.341800
-3.661600 0.344600
-3.628400 0.348000
-3.595200 0.351400
-3.562000 0.354800
-3.528900 0.359800
-3.495700 0.365800
-3.462500 0.374200
-3.429300 0.413100
-3.396200 0.477000
-3.363000 0.624000
-3.329800 0.518100
-3.296700 0.542600
-3.263500 0.567100
-3.230300 0.590100
-3.197100 0.611600
-3.164000 0.643200
-3.130800 0.634300
-3.097600 0.506900
-3.064400 0.468400
-3.031300 0.447900
-2.998100 0.427600
-2.964900 0.411800
-2.931700 0.402700
-2.898600 0.393700
-2.865400 0.397000
-2.832200 0.408700
-2.799100 0.424300
-2.765900 0.388500
-2.732700 0.352600
-2.699500 0.309800
-2.666400 0.264400
-2.633200 0.218900
-2.600000 0.146400
-2.566800 0.024300
-2.533700 0.000000
-2.500500 0.000000
-2.467300 0.000000
-2.434200 0.000000
-2.401000 0.000000
-2.367800 0.000000
-2.334600 0.000000
-2.301500 0.000000
-2.268300 0.000000
-2.235100 0.000000
-2.201900 0.000000
-2.168800 0.000000
-2.135600 0.000000
-2.102400 0.000000
-2.069300 0.000000
-2.036100 0.000000
-2.002900 0.000000
-1.969700 0.000000
-1.936600 0.000000
-1.903400 0.000000
-1.870200 0.000000
-1.837000 0.000000
-1.803900 0.000000
-1.770700 0.000000
-1.737500 0.000000
-1.704300 0.000000
-1.671200 0.000000
-1.638000 0.000000
-1.604800 0.000000
-1.571700 0.000000
-1.538500 0.000000
-1.505300 0.000000
-1.472100 0.000000
-1.439000 0.000000
-1.405800 0.000000
-1.372600 0.000000
-1.339400 0.000000
-1.306300 0.000000
-1.273100 0.000000
-1.239900 0.000000
-1.206800 0.000000
-1.173600 0.000000
-1.140400 0.000000
-1.107200 0.000000
-1.074100 0.000000
-1.040900 0.000000
-1.007700 0.000000
-0.974500 0.000000
-0.941400 0.000000
-0.908200 0.000000
-0.875000 0.000000
-0.841900 0.000000
-0.808700 0.000000
-0.775500 0.000000
-0.742300 0.000000
-0.709200 0.000000
-0.676000 0.000000
-0.642800 0.000000
-0.609600 0.000000
-0.576500 0.000200
-0.543300 0.003100
-0.510100 0.009400
-0.476900 0.018700
-0.443800 0.027900
-0.410600 0.036100
-0.377400 0.041500
-0.344300 0.044800
-0.311100 0.047200
-0.277900 0.051000
-0.244700 0.056100
-0.211600 0.061800
-0.178400 0.066800
-0.145200 0.071100
-0.112000 0.074700
-0.078900 0.078200
-0.045700 0.082100
-0.012500 0.086800
0.020600 0.092000
0.053800 0.097300
0.087000 0.102700
0.120200 0.108100
0.153300 0.113500
0.186500 0.119000
0.219700 0.124300
0.252900 0.129500
0.286000 0.135800
0.319200 0.142600
0.352400 0.149900
0.385500 0.158700
0.418700 0.171100
0.451900 0.185100
0.485100 0.198700
0.518200 0.211700
0.551400 0.221400
0.584600 0.226900
0.617800 0.233900
0.650900 0.244000
0.684100 0.254800
0.717300 0.264400
0.750500 0.273300
0.783600 0.282300
0.816800 0.296000
0.850000 0.329800
0.883100 0.396100
0.916300 0.485200
0.949500 0.606600
0.982700 0.775800
1.015800 0.802500
1.049000 0.759700
1.082200 0.644500
1.115400 0.591200
1.148500 0.582800
1.181700 0.582900
1.214900 0.625600
1.248000 0.657000
1.281200 0.675600
1.314400 0.653600
1.347600 0.625600
1.380700 0.600500
1.413900 0.681500
1.447100 0.970900
1.480300 0.934800
1.513400 0.938800
1.546600 1.014300
1.579800 1.064100
1.612900 1.051000
1.646100 1.012900
1.679300 1.035400
1.712500 1.097200
1.745600 1.161800
1.778800 1.209500
1.812000 1.217800
1.845200 1.290200
1.878300 1.204100
1.911500 1.035600
1.944700 0.922600
1.977900 0.848800
2.011000 0.847100
2.044200 0.943000
2.077400 1.094300
2.110500 1.277800
2.143700 1.353700
2.176900 1.477100
2.210100 1.599900
2.243200 1.816900
2.276400 2.192000
2.309600 2.687200
2.342800 3.198000
2.375900 3.198300
2.409100 3.186500
2.442300 3.169700
2.475400 3.246400
2.508600 2.899800
2.541800 2.900700
2.575000 2.736000
2.608100 2.615400
2.641300 2.512200
2.674500 2.666700
2.707700 2.857000
2.740800 2.993300
2.774000 3.083700
2.807200 3.086600
2.840300 3.577800
2.873500 3.821600
2.906700 3.095100
2.939900 2.566600
2.973000 2.976800
3.006200 3.094100
3.039400 3.106800
3.072600 2.798600
3.105700 2.680200
3.138900 2.209700
3.172100 1.960000
3.205300 1.993900
3.238400 2.193000
3.271600 2.595800
3.304800 2.541400
3.337900 2.443000
3.371100 2.368900
3.404300 2.429200
3.437500 2.457600
3.470600 2.967500
3.503800 2.900400
3.537000 2.653900
3.570200 2.591900
3.603300 2.097100
3.636500 1.419600
3.669700 0.759800
3.702800 0.719500
3.736000 0.678000
3.769200 0.675800
3.802400 0.745400
3.835500 0.454500
3.868700 0.341700
3.901900 0.335500
3.935100 0.331300
3.968200 0.329800
4.001400 0.329200
4.034600 0.329100
4.067700 0.329500
4.100900 0.332000
4.134100 0.333200
4.167300 0.330700
4.200400 0.327600
4.233600 0.321000
4.266800 0.319400
4.300000 0.309900
4.333100 0.305100
4.366300 0.309300
4.399500 0.315000
4.432700 0.318900
4.465800 0.321400
4.499000 0.324100
4.532200 0.329200
4.565300 0.336000
4.598500 0.342600
4.631700 0.354800
4.664900 0.372400
4.698000 0.392900
4.731200 0.438000
4.764400 0.427700
4.797600 0.308300
4.830700 0.303300
4.863900 0.293400
4.897100 0.292600
4.930200 0.294300
4.963400 0.294100
4.996600 0.297900
5.029800 0.312300
5.062900 0.323700
5.096100 0.334000
5.129300 0.344900
5.162500 0.357200
5.195600 0.371600
5.228800 0.381900
5.262000 0.392400
5.295100 0.403200
5.328300 0.481100
5.361500 0.515700
5.394700 0.483000
5.427800 0.493200
5.461000 0.510300
5.494200 0.552700
5.527400 0.432600
5.560500 0.418900
5.593700 0.465800
5.626900 0.498500
5.660100 0.457100
5.693200 0.395200
5.726400 0.337100
5.759600 0.341400
5.792700 0.342000
5.825900 0.341500
5.859100 0.347400
5.892300 0.354400
5.925400 0.362800
5.958600 0.372300
5.991800 0.383200
6.025000 0.392100
6.058100 0.405700
6.091300 0.423000
6.124500 0.447900
6.157600 0.492500
6.190800 0.521800
6.224000 0.541100
6.257200 0.551500
6.290300 0.548100
6.323500 0.562600
6.356700 0.577000
6.389900 0.590000
6.423000 0.629700
6.456200 0.657700
6.489400 0.690600
6.522500 0.725900
6.555700 0.776300
6.588900 0.809800
6.622100 0.833100
6.655200 0.887400
6.688400 0.883700
6.721600 0.898300
6.754800 0.912500
6.787900 0.951500
6.821100 1.005200
6.854300 1.154600
6.887500 0.940200
6.920600 0.929900
6.953800 0.927800
6.987000 0.929700
7.020100 0.944200
7.053300 0.991300
7.086500 0.940100
7.119700 0.923300
7.152800 0.913000
7.186000 0.893000
7.219200 0.863700
7.252400 0.837000
7.285500 0.748000
7.318700 0.682900
7.351900 0.645900
7.385000 0.625200
7.418200 0.626100
7.451400 0.631600
7.484600 0.635700
7.517700 0.639100
7.550900 0.642800
7.584100 0.646000
7.617300 0.655200
7.650400 0.661200
7.683600 0.674300
7.716800 0.662200
7.749900 0.668200
7.783100 0.675000
7.816300 0.680100
7.849500 0.683700
7.882600 0.683400
7.915800 0.683900
7.949000 0.684000
7.982200 0.688500
8.015300 0.700400
8.048500 0.716900
8.081700 0.730500
8.114900 0.736100
8.148000 0.717600
8.181200 0.704000
8.214400 0.678900
8.247500 0.656300
8.280700 0.648700
8.313900 0.654100
8.347100 0.650900
8.380200 0.656700
8.413400 0.593500
8.446600 0.580500
8.479800 0.572300
8.512900 0.566800
8.546100 0.579000
8.579300 0.581900
8.612400 0.581500
8.645600 0.574700
8.678800 0.589800
8.712000 0.606600
8.745100 0.631800
8.778300 0.658300
8.811500 0.658600
8.844700 0.613400
8.877800 0.600000
8.911000 0.588800
8.944200 0.575700
8.977300 0.569600
9.010500 0.562200
9.043700 0.562900
9.076900 0.566400
9.110000 0.573400
9.143200 0.575800
9.176400 0.572600
9.209600 0.566700
9.242700 0.565700
9.275900 0.563900
9.309100 0.566200
9.342300 0.574600
9.375400 0.583200
9.408600 0.593000
9.441800 0.604400
9.474900 0.618400
9.508100 0.634900
9.541300 0.691200
9.574500 0.770100
9.607600 0.734200
9.640800 0.755100
9.674000 0.810600
9.707200 0.734800
9.740300 0.718800
9.773500 0.718200
9.806700 0.711400
9.839800 0.702400
9.873000 0.697500
9.906200 0.684600
9.939400 0.605300
9.972500 0.549600
10.005700 0.519100
10.038900 0.495900
10.072100 0.479000
10.105200 0.476200
10.138400 0.470900
10.171600 0.477300
10.204700 0.488200
10.237900 0.496300
10.271100 0.500100
10.304300 0.510500
10.337400 0.511700
10.370600 0.519200
10.403800 0.525300
10.437000 0.527100
10.470100 0.529600
10.503300 0.533600
10.536500 0.539400
10.569700 0.552100
10.602800 0.570800
10.636000 0.615400
10.669200 0.688500
10.702300 0.747600
10.735500 0.788600
10.768700 0.827600
10.801900 0.876700
10.835000 0.897600
10.868200 0.925000
10.901400 0.972700
10.934600 0.995800
10.967700 1.004100
11.000900 1.112500
11.034100 1.048900
11.067200 0.972400
11.100400 0.829400
11.133600 0.770300
11.166800 0.719700
11.199900 0.687100
11.233100 0.670100
11.266300 0.657900
11.299500 0.650500
11.332600 0.652100
11.365800 0.659700
11.399000 0.678500
11.432100 0.720800
11.465300 0.765400
11.498500 0.795900
11.531700 0.882300
11.564800 0.832400
11.598000 0.875100
11.631200 0.921700
11.664400 0.967700
11.697500 1.007100
11.730700 1.032300
11.763900 1.012100
11.797100 1.000400
11.830200 0.995000
11.863400 0.982300
11.896600 0.978200
11.929700 0.930100
11.962900 0.933700
11.996100 0.953900
12.029300 1.026600
12.062400 1.001700
12.095600 0.997300
12.128800 0.987300
12.162000 0.982400
12.195100 1.014500
12.228300 1.024800
12.261500 0.975600
12.294600 0.948600
12.327800 0.924800
