set title 'mp-1077889 - Density of States'
set xlabel 'Energy (eV)'
set ylabel 'DOS (states/eV)'
set grid
set xrange [-10:10]
set yrange [0:8.558]
set xzeroaxis lt -1
set terminal png size 800,600
set output 'mp-1077889_dos_gnuplot.png'
plot '-' using 1:2 with lines title 'DOS'
-12.904400 0.000000
-12.879800 0.000000
-12.855300 0.000000
-12.830700 0.000000
-12.806100 0.000000
-12.781600 0.000000
-12.757000 0.000000
-12.732400 0.000000
-12.707900 0.000000
-12.683300 0.000000
-12.658800 0.000000
-12.634200 0.000000
-12.609600 0.000000
-12.585100 0.000000
-12.560500 0.000000
-12.535900 0.000000
-12.511400 0.000000
-12.486800 0.000000
-12.462200 0.000000
-12.437700 0.000000
-12.413100 0.000000
-12.388500 0.000000
-12.364000 0.000000
-12.339400 0.000000
-12.314800 0.000000
-12.290300 0.000000
-12.265700 0.000000
-12.241100 0.000000
-12.216600 0.000000
-12.192000 0.000000
-12.167500 0.000000
-12.142900 0.000000
-12.118300 0.000000
-12.093800 0.000000
-12.069200 0.000000
-12.044600 0.000000
-12.020100 0.000000
-11.995500 0.000000
-11.970900 0.000000
-11.946400 0.000000
-11.921800 0.000000
-11.897200 0.000000
-11.872700 0.000000
-11.848100 0.000000
-11.823500 0.000000
-11.799000 0.000000
-11.774400 0.000000
-11.749900 0.000000
-11.725300 0.000000
-11.700700 0.000000
-11.676200 0.000000
-11.651600 0.000000
-11.627000 0.000000
-11.602500 0.000000
-11.577900 0.000000
-11.553300 0.000000
-11.528800 0.000000
-11.504200 0.000000
-11.479600 0.000000
-11.455100 0.000000
-11.430500 0.000000
-11.405900 0.000000
-11.381400 0.000000
-11.356800 0.000000
-11.332200 0.000000
-11.307700 0.000000
-11.283100 0.000000
-11.258600 0.000000
-11.234000 0.000000
-11.209400 0.000000
-11.184900 0.000000
-11.160300 0.000000
-11.135700 0.000000
-11.111200 0.000000
-11.086600 0.000000
-11.062000 0.000000
-11.037500 0.000000
-11.012900 0.000000
-10.988300 0.000000
-10.963800 0.000000
-10.939200 0.000000
-10.914600 0.000000
-10.890100 0.000000
-10.865500 0.000000
-10.841000 0.000000
-10.816400 0.000000
-10.791800 0.000000
-10.767300 0.000000
-10.742700 0.000000
-10.718100 0.000000
-10.693600 0.000000
-10.669000 0.005600
-10.644400 0.318500
-10.619900 0.617700
-10.595300 0.592300
-10.570700 0.514400
-10.546200 0.541700
-10.521600 0.569000
-10.497000 0.533200
-10.472500 0.551200
-10.447900 0.570900
-10.423300 0.590600
-10.398800 0.585900
-10.374200 0.575400
-10.349700 0.585700
-10.325100 0.581800
-10.300500 0.577700
-10.276000 0.581700
-10.251400 0.588000
-10.226800 0.598600
-10.202300 0.609300
-10.177700 0.619900
-10.153100 0.630500
-10.128600 0.641100
-10.104000 0.634100
-10.079400 0.632900
-10.054900 0.634400
-10.030300 0.639500
-10.005700 0.646800
-9.981200 0.654100
-9.956600 0.661400
-9.932100 0.668700
-9.907500 0.676000
-9.882900 0.684100
-9.858400 0.692600
-9.833800 0.705700
-9.809200 0.716500
-9.784700 0.727300
-9.760100 0.738000
-9.735500 0.745700
-9.711000 0.753000
-9.686400 0.762300
-9.661800 0.771700
-9.637300 0.781000
-9.612700 0.790700
-9.588100 0.800800
-9.563600 0.838600
-9.539000 0.861700
-9.514400 0.884900
-9.489900 0.908400
-9.465300 0.931500
-9.440800 0.953800
-9.416200 0.976100
-9.391600 0.998500
-9.367100 1.020800
-9.342500 1.246700
-9.317900 1.477300
-9.293400 1.257800
-9.268800 1.075500
-9.244200 1.074100
-9.219700 1.067700
-9.195100 1.061300
-9.170500 0.954200
-9.146000 0.958500
-9.121400 0.962800
-9.096800 0.967100
-9.072300 0.970500
-9.047700 0.955600
-9.023200 0.938200
-8.998600 0.921800
-8.974000 0.928700
-8.949500 0.935700
-8.924900 0.966800
-8.900300 0.991600
-8.875800 1.014700
-8.851200 1.035600
-8.826600 1.056300
-8.802100 1.069200
-8.777500 1.097700
-8.752900 1.127900
-8.728400 1.161500
-8.703800 1.199500
-8.679200 1.248000
-8.654700 1.296500
-8.630100 1.369800
-8.605600 1.806100
-8.581000 2.361300
-8.556400 2.789600
-8.531900 1.902900
-8.507300 1.827000
-8.482700 3.026800
-8.458200 0.000000
-8.433600 0.000000
-8.409000 0.000000
-8.384500 0.000000
-8.359900 0.000000
-8.335300 0.000000
-8.310800 0.000000
-8.286200 0.000000
-8.261600 0.000000
-8.237100 0.000000
-8.212500 0.000000
-8.187900 0.000000
-8.163400 0.000000
-8.138800 0.000000
-8.114300 0.000000
-8.089700 0.000000
-8.065100 0.000000
-8.040600 0.000000
-8.016000 0.000000
-7.991400 0.000000
-7.966900 0.000000
-7.942300 0.000000
-7.917700 0.000000
-7.893200 0.000000
-7.868600 0.000000
-7.844000 0.000000
-7.819500 0.000000
-7.794900 0.000000
-7.770300 0.000000
-7.745800 0.000000
-7.721200 0.000000
-7.696700 0.000000
-7.672100 0.000000
-7.647500 0.000000
-7.623000 0.000000
-7.598400 0.000000
-7.573800 0.000000
-7.549300 0.000000
-7.524700 0.000000
-7.500100 0.000000
-7.475600 0.000000
-7.451000 0.000000
-7.426400 0.000000
-7.401900 0.000000
-7.377300 0.000000
-7.352700 0.000000
-7.328200 0.000000
-7.303600 0.000000
-7.279000 0.000000
-7.254500 0.000000
-7.229900 0.000000
-7.205400 0.000000
-7.180800 0.000000
-7.156200 0.000000
-7.131700 0.000000
-7.107100 0.039800
-7.082500 0.113900
-7.058000 0.198100
-7.033400 0.263400
-7.008800 0.316700
-6.984300 0.374100
-6.959700 0.405700
-6.935100 0.396900
-6.910600 0.383900
-6.886000 0.389300
-6.861400 0.395800
-6.836900 0.402800
-6.812300 0.408100
-6.787800 0.408500
-6.763200 0.409900
-6.738600 0.412800
-6.714100 0.416200
-6.689500 0.419200
-6.664900 0.420000
-6.640400 0.420600
-6.615800 0.423000
-6.591200 0.429900
-6.566700 0.739800
-6.542100 0.713400
-6.517500 0.712000
-6.493000 0.728500
-6.468400 0.746400
-6.443800 0.765300
-6.419300 0.780400
-6.394700 0.777700
-6.370100 0.778000
-6.345600 0.789200
-6.321000 0.802100
-6.296500 0.814500
-6.271900 0.825500
-6.247300 0.824600
-6.222800 0.838000
-6.198200 0.853700
-6.173600 0.872500
-6.149100 0.897000
-6.124500 0.937100
-6.099900 0.999600
-6.075400 1.064000
-6.050800 1.082200
-6.026200 1.060100
-6.001700 0.982200
-5.977100 0.927700
-5.952500 0.917000
-5.928000 0.908100
-5.903400 0.906800
-5.878900 0.907800
-5.854300 0.913000
-5.829700 0.860100
-5.805200 1.016400
-5.780600 1.165900
-5.756000 1.309600
-5.731500 1.271200
-5.706900 1.253200
-5.682300 1.294300
-5.657800 1.337700
-5.633200 1.391100
-5.608600 1.487300
-5.584100 1.589800
-5.559500 2.124900
-5.534900 2.277700
-5.510400 2.373900
-5.485800 2.515800
-5.461200 2.644700
-5.436700 2.787100
-5.412100 3.053700
-5.387600 3.159300
-5.363000 2.992500
-5.338400 3.035600
-5.313900 3.031100
-5.289300 3.112300
-5.264700 3.286500
-5.240200 3.476500
-5.215600 3.664200
-5.191000 3.896100
-5.166500 4.204200
-5.141900 4.738100
-5.117300 4.076800
-5.092800 3.316500
-5.068200 3.053900
-5.043600 2.838500
-5.019100 2.610900
-4.994500 2.551800
-4.970000 2.536200
-4.945400 2.619600
-4.920800 2.734000
-4.896300 2.790100
-4.871700 3.039700
-4.847100 2.948800
-4.822600 2.478700
-4.798000 2.237400
-4.773400 2.549000
-4.748900 3.586300
-4.724300 3.850000
-4.699700 3.554400
-4.675200 4.196000
-4.650600 1.588900
-4.626000 2.681800
-4.601500 3.214300
-4.576900 3.325600
-4.552300 2.752100
-4.527800 2.611200
-4.503200 2.580300
-4.478700 2.660200
-4.454100 2.421900
-4.429500 1.621600
-4.405000 1.445100
-4.380400 1.178600
-4.355800 1.116200
-4.331300 1.065000
-4.306700 1.027000
-4.282100 1.077400
-4.257600 1.090900
-4.233000 1.102200
-4.208400 1.113900
-4.183900 1.129500
-4.159300 1.151500
-4.134700 1.402700
-4.110200 1.761400
-4.085600 1.728600
-4.061100 1.144100
-4.036500 1.117900
-4.011900 1.094000
-3.987400 1.070700
-3.962800 1.047300
-3.938200 1.021700
-3.913700 0.995700
-3.889100 0.969400
-3.864500 0.933300
-3.840000 0.893700
-3.815400 0.883900
-3.790800 0.874300
-3.766300 0.863000
-3.741700 0.851700
-3.717100 0.840300
-3.692600 0.829000
-3.668000 0.817800
-3.643400 0.811100
-3.618900 0.803900
-3.594300 0.789400
-3.569800 0.773300
-3.545200 0.768900
-3.520600 0.764500
-3.496100 0.790700
-3.471500 0.782000
-3.446900 0.773200
-3.422400 0.764300
-3.397800 0.755500
-3.373200 0.746600
-3.348700 0.721500
-3.324100 0.687500
-3.299500 0.654200
-3.275000 0.633100
-3.250400 0.620000
-3.225800 0.606900
-3.201300 0.593800
-3.176700 0.580700
-3.152200 0.567600
-3.127600 0.554500
-3.103000 0.492200
-3.078500 0.480200
-3.053900 0.469600
-3.029300 0.459100
-3.004800 0.448600
-2.980200 0.438100
-2.955600 0.429800
-2.931100 0.424500
-2.906500 0.420800
-2.881900 0.417200
-2.857400 0.413600
-2.832800 0.409900
-2.808200 0.406300
-2.783700 0.609200
-2.759100 0.541600
-2.734600 0.482300
-2.710000 0.422900
-2.685400 0.363600
-2.660900 0.319600
-2.636300 0.267600
-2.611700 0.204600
-2.587200 0.141500
-2.562600 0.078400
-2.538000 0.015400
-2.513500 0.000000
-2.488900 0.000000
-2.464300 0.004400
-2.439800 0.026300
-2.415200 0.048300
-2.390600 0.070200
-2.366100 0.092200
-2.341500 0.859400
-2.316900 0.637100
-2.292400 0.708300
-2.267800 0.779600
-2.243300 0.896900
-2.218700 0.830600
-2.194100 0.836200
-2.169600 0.909600
-2.145000 0.981700
-2.120400 1.328600
-2.095900 1.693700
-2.071300 2.019100
-2.046700 2.227800
-2.022200 2.483200
-1.997600 2.526400
-1.973000 3.492900
-1.948500 2.471600
-1.923900 2.388000
-1.899300 2.390800
-1.874800 2.399200
-1.850200 2.498400
-1.825700 2.687700
-1.801100 2.706400
-1.776500 2.807100
-1.752000 2.902200
-1.727400 2.901200
-1.702800 2.866800
-1.678300 2.915600
-1.653700 3.146600
-1.629100 3.497100
-1.604600 4.111300
-1.580000 4.361700
-1.555400 4.354000
-1.530900 5.338700
-1.506300 4.211400
-1.481700 2.567300
-1.457200 2.256100
-1.432600 2.048500
-1.408000 1.914400
-1.383500 1.957300
-1.358900 2.005300
-1.334400 2.013500
-1.309800 1.974200
-1.285200 1.890100
-1.260700 1.786000
-1.236100 1.703000
-1.211500 1.767500
-1.187000 1.842000
-1.162400 2.022100
-1.137800 2.475900
-1.113300 3.362600
-1.088700 3.761500
-1.064100 4.039900
-1.039600 4.250600
-1.015000 3.889100
-0.990400 3.914500
-0.965900 3.969600
-0.941300 3.773400
-0.916800 3.544300
-0.892200 3.326900
-0.867600 2.889800
-0.843100 2.477700
-0.818500 2.200300
-0.793900 1.470000
-0.769400 0.609400
-0.744800 0.239000
-0.720200 0.373400
-0.695700 0.564900
-0.671100 0.724200
-0.646500 0.868700
-0.622000 1.027100
-0.597400 1.700100
-0.572800 1.454900
-0.548300 1.137600
-0.523700 1.121600
-0.499100 1.111200
-0.474600 1.113500
-0.450000 1.123500
-0.425500 1.164100
-0.400900 1.293300
-0.376300 1.437600
-0.351800 1.624600
-0.327200 1.956100
-0.302600 2.692600
-0.278100 3.656300
-0.253500 4.872500
-0.228900 3.100400
-0.204400 1.845700
-0.179800 1.468500
-0.155200 1.299800
-0.130700 1.304000
-0.106100 1.325300
-0.081500 1.343900
-0.057000 1.388100
-0.032400 1.731100
-0.007900 2.344900
0.016700 2.937700
0.041300 3.324200
0.065800 3.513200
0.090400 3.652000
0.115000 3.775100
0.139500 4.267500
0.164100 5.151500
0.188700 5.646100
0.213200 5.730700
0.237800 6.053300
0.262400 6.843900
0.286900 6.579100
0.311500 5.637500
0.336100 5.000300
0.360600 3.904700
0.385200 3.192900
0.409800 2.469600
0.434300 2.651500
0.458900 2.885800
0.483400 3.142700
0.508000 3.606100
0.532600 4.104100
0.557100 4.374300
0.581700 4.577900
0.606300 4.419700
0.630800 4.251900
0.655400 4.156900
0.680000 4.222900
0.704500 4.264400
0.729100 4.902000
0.753700 5.858300
0.778200 5.376900
0.802800 4.265400
0.827400 3.813400
0.851900 2.923400
0.876500 2.611600
0.901000 2.808000
0.925600 4.079300
0.950200 2.326200
0.974700 2.419200
0.999300 2.194700
1.023900 2.166200
1.048400 2.113000
1.073000 2.128500
1.097600 2.152900
1.122100 2.200100
1.146700 2.117800
1.171300 2.023800
1.195800 1.860100
1.220400 1.982000
1.245000 2.410400
1.269500 2.714300
1.294100 3.080700
1.318700 3.515900
1.343200 3.831000
1.367800 3.965800
1.392300 4.093400
1.416900 4.037200
1.441500 4.225700
1.466000 4.176700
1.490600 4.283400
1.515200 4.765300
1.539700 5.237900
1.564300 5.533900
1.588900 5.387100
1.613400 5.540900
1.638000 5.106500
1.662600 4.985000
1.687100 4.558200
1.711700 4.113900
1.736300 4.122300
1.760800 3.897000
1.785400 3.904100
1.809900 4.566600
1.834500 4.915800
1.859100 5.657800
1.883600 6.394900
1.908200 6.353100
1.932800 5.838200
1.957300 5.401000
1.981900 4.229500
2.006500 3.628300
2.031000 3.398800
2.055600 3.315900
2.080200 3.218400
2.104700 3.305400
2.129300 3.372300
2.153900 3.346700
2.178400 3.077100
2.203000 2.901800
2.227600 3.912800
2.252100 4.320700
2.276700 3.611900
2.301200 4.086400
2.325800 4.281600
2.350400 4.775400
2.374900 5.344100
2.399500 6.268500
2.424100 4.357900
2.448600 3.792900
2.473200 3.509100
2.497800 3.437400
2.522300 3.483400
2.546900 4.030400
2.571500 4.679700
2.596000 5.120600
2.620600 5.262200
2.645200 5.751400
2.669700 7.780100
2.694300 6.058200
2.718800 5.541800
2.743400 5.693300
2.768000 6.040200
2.792500 5.850100
2.817100 5.833600
2.841700 5.561200
2.866200 4.048800
2.890800 4.242000
2.915400 5.249700
2.939900 4.798500
2.964500 4.240400
2.989100 4.698000
3.013600 5.456100
3.038200 5.999000
3.062800 5.483900
3.087300 5.513000
3.111900 5.592000
3.136400 5.569700
3.161000 5.002800
3.185600 4.512500
3.210100 4.449300
3.234700 4.945300
3.259300 5.078200
3.283800 5.463900
3.308400 4.965000
3.333000 4.473800
3.357500 3.993500
3.382100 3.390900
3.406700 2.663200
3.431200 2.445000
3.455800 2.773200
3.480400 3.189200
3.504900 3.423200
3.529500 3.295000
3.554100 3.206000
3.578600 3.161800
3.603200 2.572500
3.627700 2.427100
3.652300 2.260900
3.676900 2.339100
3.701400 2.339300
3.726000 2.588100
3.750600 2.833000
3.775100 3.060600
3.799700 3.954500
3.824300 3.409800
3.848800 3.298100
3.873400 3.168700
3.898000 2.368500
3.922500 2.216100
3.947100 2.112500
3.971700 1.991800
3.996200 2.013500
4.020800 2.113500
4.045300 2.386800
4.069900 2.655200
4.094500 2.675600
4.119000 2.710900
4.143600 2.806200
4.168200 3.184800
4.192700 3.009300
4.217300 2.835800
4.241900 2.749800
4.266400 2.591500
4.291000 2.499600
4.315600 2.520100
4.340100 2.596300
4.364700 2.589400
4.389300 2.450300
4.413800 2.537600
4.438400 2.639800
4.463000 2.675400
4.487500 2.467900
4.512100 2.510200
4.536600 2.582800
4.561200 2.666000
4.585800 2.676700
4.610300 2.670300
4.634900 2.801600
4.659500 2.657800
4.684000 2.632900
4.708600 2.698500
4.733200 2.811400
4.757700 2.833100
4.782300 2.729300
4.806900 2.645600
4.831400 2.580000
4.856000 2.517200
4.880600 2.364800
4.905100 2.264900
4.929700 2.267200
4.954200 2.325600
4.978800 2.462000
5.003400 2.652100
5.027900 2.789500
5.052500 2.743200
5.077100 2.784200
5.101600 2.732700
5.126200 2.596100
5.150800 2.709700
5.175300 2.664900
5.199900 2.708200
5.224500 2.778600
5.249000 2.894500
5.273600 2.946700
5.298200 3.308700
5.322700 3.063500
5.347300 2.480100
5.371900 2.262600
5.396400 2.022900
5.421000 1.640500
5.445500 1.466900
5.470100 1.454700
5.494700 1.442200
5.519200 1.433800
5.543800 1.443400
5.568400 1.488800
5.592900 1.417900
5.617500 1.383700
5.642100 1.367200
5.666600 1.369000
5.691200 1.459400
5.715800 1.728500
5.740300 1.779700
5.764900 1.835800
5.789500 1.726400
5.814000 1.430800
5.838600 1.203100
5.863100 1.082600
5.887700 1.004700
5.912300 0.954200
5.936800 0.919200
5.961400 0.882400
5.986000 0.892900
6.010500 1.106200
6.035100 1.329700
6.059700 1.310100
6.084200 1.314900
6.108800 1.371300
6.133400 1.317600
6.157900 1.270100
6.182500 1.247000
6.207100 1.270400
6.231600 1.327900
6.256200 1.408000
6.280800 1.412900
6.305300 1.374600
6.329900 1.346600
6.354400 1.361100
6.379000 1.357100
6.403600 1.356100
6.428100 1.398500
6.452700 1.431900
6.477300 1.427600
6.501800 1.442800
6.526400 1.467200
6.551000 1.463400
6.575500 1.480000
6.600100 1.511300
6.624700 1.690000
6.649200 1.752500
6.673800 1.922800
6.698400 2.113600
6.722900 2.209200
6.747500 2.297700
6.772000 2.287800
6.796600 2.375100
6.821200 2.541300
6.845700 2.992100
6.870300 3.108600
6.894900 3.331400
6.919400 3.865400
6.944000 3.229800
6.968600 2.820700
6.993100 2.783800
7.017700 2.728600
7.042300 2.635000
7.066800 2.523900
7.091400 2.417400
7.116000 2.325100
7.140500 2.268100
7.165100 2.192700
7.189700 2.134300
7.214200 2.085300
7.238800 2.110700
7.263300 2.199200
7.287900 2.309400
7.312500 2.460300
7.337000 2.666200
7.361600 2.762500
7.386200 2.840200
7.410700 2.936700
7.435300 3.061700
7.459900 3.282300
7.484400 3.381800
7.509000 3.452100
7.533600 3.514400
7.558100 3.450700
7.582700 3.372400
7.607300 3.384800
7.631800 3.121100
7.656400 2.865300
7.680900 2.627300
7.705500 2.440600
7.730100 2.350000
7.754600 2.310400
7.779200 2.159700
7.803800 2.097200
7.828300 2.104900
7.852900 2.165600
7.877500 2.412000
7.902000 2.589000
7.926600 2.619900
7.951200 2.687400
7.975700 2.743100
8.000300 2.794300
8.024900 2.890500
8.049400 3.022400
8.074000 3.148000
8.098600 3.237300
8.123100 3.384100
8.147700 3.546200
8.172200 3.647900
8.196800 3.880200
8.221400 4.279700
8.245900 3.993300
8.270500 3.825500
8.295100 3.846000
8.319600 4.018000
8.344200 3.842600
8.368800 3.696400
8.393300 3.611800
8.417900 3.561100
8.442500 3.480700
8.467000 3.368500
8.491600 3.126700
8.516200 2.944800
8.540700 2.872700
8.565300 2.883600
8.589800 3.002900
8.614400 3.142900
8.639000 3.171500
8.663500 3.188300
8.688100 3.156100
8.712700 2.977500
8.737200 2.859400
8.761800 2.705400
8.786400 2.873100
8.810900 2.818100
8.835500 2.658400
8.860100 2.259200
8.884600 2.457000
8.909200 2.617700
8.933800 2.741500
8.958300 2.681200
8.982900 2.599600
9.007400 2.543300
9.032000 2.592200
9.056600 2.508600
9.081100 2.484200
9.105700 2.455900
9.130300 2.455300
9.154800 2.495400
9.179400 2.616700
9.204000 2.769400
9.228500 3.025200
9.253100 3.955600
9.277700 3.303700
9.302200 3.227100
9.326800 3.059100
9.351400 2.119700
9.375900 2.055300
9.400500 2.045400
9.425100 2.070900
9.449600 2.088300
9.474200 1.934600
9.498700 1.962700
9.523300 2.195600
9.547900 3.404500
9.572400 3.984500
9.597000 4.329700
9.621600 4.008800
9.646100 3.101700
9.670700 2.596700
9.695300 2.442300
9.719800 2.581500
9.744400 2.824800
9.769000 3.057600
9.793500 3.083100
9.818100 3.371700
9.842700 3.937700
9.867200 4.351600
9.891800 4.264900
9.916300 4.174500
9.940900 4.056900
9.965500 3.715800
9.990000 3.381400
10.014600 3.099900
10.039200 3.378800
10.063700 3.850800
10.088300 3.393500
10.112900 2.744100
10.137400 1.996800
10.162000 1.810400
10.186600 1.723800
10.211100 1.644500
10.235700 1.571700
10.260300 1.522100
10.284800 1.474800
10.309400 1.427800
10.334000 1.374700
10.358500 1.321400
10.383100 1.257600
10.407600 1.184900
10.432200 1.123800
10.456800 1.078100
10.481300 1.041000
10.505900 1.018000
10.530500 1.061800
10.555000 1.148600
10.579600 1.267600
10.604200 1.433200
10.628700 1.564700
10.653300 1.667800
10.677900 1.750800
10.702400 1.828600
10.727000 1.902600
10.751600 1.976000
10.776100 2.063300
10.800700 2.156900
10.825200 2.266200
10.849800 2.255900
10.874400 2.285100
10.898900 2.310600
10.923500 2.207500
10.948100 2.076700
10.972600 1.918100
10.997200 1.780100
11.021800 1.687700
11.046300 1.699600
11.070900 1.768700
11.095500 2.038400
11.120000 2.351300
11.144600 2.506200
11.169200 2.640300
11.193700 2.562400
11.218300 2.411300
11.242900 2.293400
11.267400 2.264000
11.292000 2.300500
11.316500 2.347900
11.341100 2.433900
11.365700 2.505300
11.390200 3.518200
11.414800 2.463600
11.439400 2.099800
11.463900 1.737300
11.488500 1.629800
11.513100 1.562100
11.537600 1.464900
11.562200 1.390500
11.586800 1.299200
11.611300 1.209800
11.635900 1.148600
11.660500 1.092500
11.685000 1.001800
11.709600 0.957100
11.734100 0.928300
11.758700 0.895300
11.783300 0.863100
11.807800 0.838100
11.832400 0.818100
11.857000 0.803000
11.881500 0.790400
11.906100 0.778100
11.930700 0.774500
11.955200 0.777900
11.979800 0.788600
12.004400 0.810100
12.028900 0.848600
12.053500 0.873700
12.078100 0.898800
12.102600 0.916300
12.127200 0.917400
12.151800 0.912300
12.176300 0.908800
12.200900 0.896300
12.225400 0.903800
12.250000 0.933000
12.274600 0.995400
12.299100 1.063300
12.323700 1.164900
12.348300 1.254500
12.372800 1.390800
12.397400 1.642200
12.422000 1.889300
12.446500 2.217300
12.471100 2.581900
12.495700 2.991200
12.520200 2.602300
12.544800 2.089400
12.569400 1.463700
12.593900 1.474500
12.618500 1.532600
12.643000 1.622600
12.667600 1.721000
12.692200 1.700500
12.716700 1.721000
12.741300 1.644700
12.765900 1.605700
12.790400 1.590500
12.815000 1.586800
12.839600 1.595700
12.864100 1.609100
12.888700 1.621700
12.913300 1.646300
12.937800 1.703200
