set title 'mp-99 - Density of States'
set xlabel 'Energy (eV)'
set ylabel 'DOS (states/eV)'
set grid
set xrange [-10:10]
set yrange [0:2.696]
set xzeroaxis lt -1
set terminal png size 800,600
set output 'mp-99_dos_gnuplot.png'
plot '-' using 1:2 with lines title 'DOS'
-26.052100 0.000000
-26.007200 0.000000
-25.962300 0.000000
-25.917300 0.000000
-25.872400 0.000000
-25.827500 0.000000
-25.782500 0.000000
-25.737600 0.000000
-25.692700 0.000000
-25.647700 0.000000
-25.602800 0.000000
-25.557900 0.000000
-25.512900 0.000000
-25.468000 0.000000
-25.423000 0.000000
-25.378100 0.000000
-25.333200 0.000000
-25.288200 0.000000
-25.243300 0.000000
-25.198400 0.000000
-25.153400 0.000000
-25.108500 0.000000
-25.063600 0.000000
-25.018600 0.000000
-24.973700 0.000000
-24.928800 0.000000
-24.883800 0.000000
-24.838900 0.000000
-24.794000 0.000000
-24.749000 0.000000
-24.704100 0.000000
-24.659200 0.000000
-24.614200 0.000000
-24.569300 0.000000
-24.524400 0.000000
-24.479400 0.000000
-24.434500 0.000000
-24.389600 0.000000
-24.344600 0.000000
-24.299700 0.000000
-24.254800 0.000000
-24.209800 0.000000
-24.164900 0.000000
-24.119900 0.000000
-24.075000 0.000000
-24.030100 0.000000
-23.985100 0.000000
-23.940200 0.000000
-23.895300 0.000000
-23.850300 0.000000
-23.805400 0.000000
-23.760500 0.000000
-23.715500 0.000000
-23.670600 0.000000
-23.625700 0.000000
-23.580700 0.000000
-23.535800 0.000000
-23.490900 0.000000
-23.445900 0.000000
-23.401000 0.000000
-23.356100 0.000000
-23.311100 0.000000
-23.266200 0.000000
-23.221300 0.000000
-23.176300 0.000000
-23.131400 0.000000
-23.086500 0.000000
-23.041500 0.000000
-22.996600 0.000000
-22.951700 0.000000
-22.906700 0.000000
-22.861800 0.000000
-22.816800 0.000000
-22.771900 0.000000
-22.727000 0.000000
-22.682000 0.000000
-22.637100 0.000000
-22.592200 0.000000
-22.547200 0.000000
-22.502300 0.000000
-22.457400 0.000000
-22.412400 0.000000
-22.367500 0.000000
-22.322600 0.000000
-22.277600 0.000000
-22.232700 0.000000
-22.187800 0.000000
-22.142800 0.000000
-22.097900 0.000000
-22.053000 0.000000
-22.008000 0.000000
-21.963100 0.034200
-21.918200 0.759100
-21.873200 6.852600
-21.828300 15.186000
-21.783400 9.191700
-21.738400 7.498800
-21.693500 5.792000
-21.648600 6.872300
-21.603600 10.165900
-21.558700 12.871700
-21.513700 13.300900
-21.468800 19.175500
-21.423900 23.041900
-21.378900 7.035600
-21.334000 1.042800
-21.289100 0.000000
-21.244100 0.000000
-21.199200 0.000000
-21.154300 0.000000
-21.109300 0.000000
-21.064400 0.000000
-21.019500 0.000000
-20.974500 0.000000
-20.929600 0.000000
-20.884700 0.000000
-20.839700 0.000000
-20.794800 0.000000
-20.749900 0.000000
-20.704900 0.000000
-20.660000 0.000000
-20.615100 0.000000
-20.570100 0.000000
-20.525200 0.000000
-20.480300 0.000000
-20.435300 0.000000
-20.390400 0.000000
-20.345500 0.000000
-20.300500 0.000000
-20.255600 0.000000
-20.210700 0.000000
-20.165700 0.000000
-20.120800 0.000000
-20.075800 0.000000
-20.030900 0.000000
-19.986000 0.000000
-19.941000 0.000000
-19.896100 0.000000
-19.851200 0.000000
-19.806200 0.000000
-19.761300 0.000000
-19.716400 0.000000
-19.671400 0.000000
-19.626500 0.000000
-19.581600 0.000000
-19.536600 0.000000
-19.491700 0.000000
-19.446800 0.000000
-19.401800 0.000000
-19.356900 0.000000
-19.312000 0.000000
-19.267000 0.000000
-19.222100 0.000000
-19.177200 0.000000
-19.132200 0.000000
-19.087300 0.000000
-19.042400 0.000000
-18.997400 0.000000
-18.952500 0.000000
-18.907600 0.000000
-18.862600 0.000000
-18.817700 0.000000
-18.772700 0.000000
-18.727800 0.000000
-18.682900 0.000000
-18.637900 0.000000
-18.593000 0.000000
-18.548100 0.000000
-18.503100 0.000000
-18.458200 0.000000
-18.413300 0.000000
-18.368300 0.000000
-18.323400 0.000000
-18.278500 0.000000
-18.233500 0.000000
-18.188600 0.000000
-18.143700 0.000000
-18.098700 0.000000
-18.053800 0.000000
-18.008900 0.000000
-17.963900 0.000000
-17.919000 0.000000
-17.874100 0.000000
-17.829100 0.000000
-17.784200 0.000000
-17.739300 0.000000
-17.694300 0.000000
-17.649400 0.000000
-17.604500 0.000000
-17.559500 0.000000
-17.514600 0.000000
-17.469600 0.000000
-17.424700 0.000000
-17.379800 0.000000
-17.334800 0.000000
-17.289900 0.000000
-17.245000 0.000000
-17.200000 0.000000
-17.155100 0.000000
-17.110200 0.000000
-17.065200 0.000000
-17.020300 0.000000
-16.975400 0.000000
-16.930400 0.000000
-16.885500 0.000000
-16.840600 0.000000
-16.795600 0.000000
-16.750700 0.000000
-16.705800 0.000000
-16.660800 0.000000
-16.615900 0.000000
-16.571000 0.000000
-16.526000 0.000000
-16.481100 0.000000
-16.436200 0.000000
-16.391200 0.000000
-16.346300 0.000000
-16.301400 0.000000
-16.256400 0.000000
-16.211500 0.000000
-16.166500 0.000000
-16.121600 0.000000
-16.076700 0.000000
-16.031700 0.000000
-15.986800 0.000000
-15.941900 0.000000
-15.896900 0.000000
-15.852000 0.000000
-15.807100 0.000000
-15.762100 0.000000
-15.717200 0.000000
-15.672300 0.000000
-15.627300 0.000000
-15.582400 0.000000
-15.537500 0.000000
-15.492500 0.000000
-15.447600 0.000000
-15.402700 0.000000
-15.357700 0.000000
-15.312800 0.000000
-15.267900 0.000000
-15.222900 0.000000
-15.178000 0.000000
-15.133100 0.000000
-15.088100 0.000000
-15.043200 0.000000
-14.998300 0.000000
-14.953300 0.000000
-14.908400 0.000000
-14.863500 0.000000
-14.818500 0.000000
-14.773600 0.000000
-14.728600 0.000000
-14.683700 0.000000
-14.638800 0.000000
-14.593800 0.000000
-14.548900 0.000000
-14.504000 0.000000
-14.459000 0.000000
-14.414100 0.000000
-14.369200 0.000000
-14.324200 0.000000
-14.279300 0.000000
-14.234400 0.000000
-14.189400 0.000000
-14.144500 0.000000
-14.099600 0.000000
-14.054600 0.000000
-14.009700 0.000000
-13.964800 0.000000
-13.919800 0.000000
-13.874900 0.000000
-13.830000 0.000000
-13.785000 0.000000
-13.740100 0.000000
-13.695200 0.000000
-13.650200 0.000000
-13.605300 0.000000
-13.560400 0.000000
-13.515400 0.000000
-13.470500 0.000000
-13.425500 0.000000
-13.380600 0.000000
-13.335700 0.000000
-13.290700 0.000000
-13.245800 0.000000
-13.200900 0.000000
-13.155900 0.000000
-13.111000 0.000000
-13.066100 0.000000
-13.021100 0.000000
-12.976200 0.000000
-12.931300 0.000000
-12.886300 0.000000
-12.841400 0.000000
-12.796500 0.000000
-12.751500 0.000000
-12.706600 0.000000
-12.661700 0.000000
-12.616700 0.000000
-12.571800 0.000000
-12.526900 0.000000
-12.481900 0.000000
-12.437000 0.000000
-12.392100 0.000000
-12.347100 0.000000
-12.302200 0.000000
-12.257300 0.000000
-12.212300 0.000000
-12.167400 0.000000
-12.122400 0.000000
-12.077500 0.000000
-12.032600 0.000000
-11.987600 0.000000
-11.942700 0.000000
-11.897800 0.000000
-11.852800 0.000000
-11.807900 0.000000
-11.763000 0.000000
-11.718000 0.000000
-11.673100 0.000000
-11.628200 0.000000
-11.583200 0.000000
-11.538300 0.000000
-11.493400 0.000000
-11.448400 0.000000
-11.403500 0.000000
-11.358600 0.000000
-11.313600 0.000000
-11.268700 0.000000
-11.223800 0.000000
-11.178800 0.000000
-11.133900 0.000000
-11.089000 0.000000
-11.044000 0.000000
-10.999100 0.000000
-10.954200 0.000000
-10.909200 0.000000
-10.864300 0.000000
-10.819300 0.000000
-10.774400 0.000000
-10.729500 0.000000
-10.684500 0.000000
-10.639600 0.000000
-10.594700 0.000000
-10.549700 0.000000
-10.504800 0.000000
-10.459900 0.000000
-10.414900 0.000000
-10.370000 0.000000
-10.325100 0.000000
-10.280100 0.000000
-10.235200 0.000000
-10.190300 0.000000
-10.145300 0.000000
-10.100400 0.000000
-10.055500 0.000000
-10.010500 0.000000
-9.965600 0.000000
-9.920700 0.000000
-9.875700 0.000000
-9.830800 0.000000
-9.785900 0.000000
-9.740900 0.000000
-9.696000 0.000000
-9.651100 0.000000
-9.606100 0.000000
-9.561200 0.000000
-9.516300 0.000000
-9.471300 0.000000
-9.426400 0.000000
-9.381400 0.000000
-9.336500 0.000000
-9.291600 0.000000
-9.246600 0.000000
-9.201700 0.000000
-9.156800 0.000000
-9.111800 0.000000
-9.066900 0.000000
-9.022000 0.000000
-8.977000 0.000000
-8.932100 0.000000
-8.887200 0.000000
-8.842200 0.000000
-8.797300 0.000000
-8.752400 0.000000
-8.707400 0.000000
-8.662500 0.000000
-8.617600 0.000000
-8.572600 0.000000
-8.527700 0.000000
-8.482800 0.000000
-8.437800 0.000000
-8.392900 0.000000
-8.348000 0.000000
-8.303000 0.000000
-8.258100 0.000000
-8.213200 0.000000
-8.168200 0.000000
-8.123300 0.000000
-8.078300 0.000000
-8.033400 0.000000
-7.988500 0.000000
-7.943500 0.000000
-7.898600 0.000000
-7.853700 0.000000
-7.808700 0.000000
-7.763800 0.000000
-7.718900 0.000000
-7.673900 0.000000
-7.629000 0.000000
-7.584100 0.000000
-7.539100 0.000000
-7.494200 0.000000
-7.449300 0.000000
-7.404300 0.000000
-7.359400 0.000000
-7.314500 0.000000
-7.269500 0.000000
-7.224600 0.000000
-7.179700 0.000000
-7.134700 0.000000
-7.089800 0.000000
-7.044900 0.000000
-6.999900 0.000000
-6.955000 0.000000
-6.910100 0.000000
-6.865100 0.000000
-6.820200 0.000000
-6.775200 0.000000
-6.730300 0.000000
-6.685400 0.000000
-6.640400 0.000000
-6.595500 0.000000
-6.550600 0.000000
-6.505600 0.000000
-6.460700 0.000000
-6.415800 0.000000
-6.370800 0.000000
-6.325900 0.000000
-6.281000 0.000000
-6.236000 0.000000
-6.191100 0.000000
-6.146200 0.000000
-6.101200 0.000000
-6.056300 0.000000
-6.011400 0.000000
-5.966400 0.000000
-5.921500 0.000000
-5.876600 0.000000
-5.831600 0.000000
-5.786700 0.000000
-5.741800 0.000000
-5.696800 0.000000
-5.651900 0.000000
-5.607000 0.000000
-5.562000 0.000000
-5.517100 0.000000
-5.472100 0.000000
-5.427200 0.000000
-5.382300 0.000000
-5.337300 0.000000
-5.292400 0.000000
-5.247500 0.000000
-5.202500 0.000000
-5.157600 0.000000
-5.112700 0.000000
-5.067700 0.000000
-5.022800 0.000000
-4.977900 0.000000
-4.932900 0.000000
-4.888000 0.000000
-4.843100 0.000000
-4.798100 0.000000
-4.753200 0.000000
-4.708300 0.000000
-4.663300 0.000000
-4.618400 0.000000
-4.573500 0.000000
-4.528500 0.000000
-4.483600 0.000000
-4.438700 0.000000
-4.393700 0.000000
-4.348800 0.000000
-4.303900 0.000000
-4.258900 0.000000
-4.214000 0.000000
-4.169100 0.000000
-4.124100 0.000000
-4.079200 0.000000
-4.034200 0.000000
-3.989300 0.000000
-3.944400 0.000000
-3.899400 0.000000
-3.854500 0.000000
-3.809600 0.000000
-3.764600 0.000000
-3.719700 0.000000
-3.674800 0.000000
-3.629800 0.000000
-3.584900 0.000000
-3.540000 0.000000
-3.495000 0.000000
-3.450100 0.000000
-3.405200 0.000000
-3.360200 0.000000
-3.315300 0.000000
-3.270400 0.000000
-3.225400 0.000000
-3.180500 0.000000
-3.135600 0.000000
-3.090600 0.000000
-3.045700 0.000000
-3.000800 0.000000
-2.955800 0.000000
-2.910900 0.000000
-2.866000 0.000000
-2.821000 0.000000
-2.776100 0.000000
-2.731100 0.000000
-2.686200 0.000000
-2.641300 0.000000
-2.596300 0.000000
-2.551400 0.000000
-2.506500 0.000000
-2.461500 0.002400
-2.416600 0.014700
-2.371700 0.036000
-2.326700 0.043000
-2.281800 0.043900
-2.236900 0.050800
-2.191900 0.058200
-2.147000 0.066000
-2.102100 0.073300
-2.057100 0.077700
-2.012200 0.079700
-1.967300 0.083500
-1.922300 0.088100
-1.877400 0.092900
-1.832500 0.097700
-1.787500 0.102500
-1.742600 0.107600
-1.697700 0.113000
-1.652700 0.117300
-1.607800 0.120700
-1.562900 0.124500
-1.517900 0.128400
-1.473000 0.132300
-1.428000 0.136200
-1.383100 0.140300
-1.338200 0.144900
-1.293200 0.149600
-1.248300 0.154500
-1.203400 0.159500
-1.158400 0.164600
-1.113500 0.180400
-1.068600 0.195200
-1.023600 0.187700
-0.978700 0.190800
-0.933800 0.194000
-0.888800 0.197100
-0.843900 0.200200
-0.799000 0.201100
-0.754000 0.202300
-0.709100 0.204900
-0.664200 0.207800
-0.619200 0.210700
-0.574300 0.213700
-0.529400 0.223300
-0.484400 0.242400
-0.439500 0.245500
-0.394600 0.252800
-0.349600 0.260400
-0.304700 0.268500
-0.259800 0.277200
-0.214800 0.284600
-0.169900 0.291200
-0.124900 0.298800
-0.080000 0.307300
-0.035100 0.316000
0.009900 0.325500
0.054800 0.336300
0.099700 0.347900
0.144700 0.359400
0.189600 0.371600
0.234500 0.384800
0.279500 0.399000
0.324400 0.414100
0.369300 0.430400
0.414300 0.448800
0.459200 0.469400
0.504100 0.495100
0.549100 0.526600
0.594000 0.563900
0.638900 0.609600
0.683900 0.658400
0.728800 0.721500
0.773700 0.800800
0.818700 0.924600
0.863600 0.915200
0.908500 0.813000
0.953500 0.782500
0.998400 0.735200
1.043300 0.732200
1.088300 0.767100
1.133200 0.796700
1.178100 0.769700
1.223100 0.740600
1.268000 0.748700
1.313000 0.758200
1.357900 0.768000
1.402800 0.782700
1.447800 0.765600
1.492700 0.771800
1.537600 0.783500
1.582600 0.828200
1.627500 0.913200
1.672400 0.976100
1.717400 0.954700
1.762300 0.956900
1.807200 0.947600
1.852200 0.935500
1.897100 0.982100
1.942000 0.970400
1.987000 0.843000
2.031900 0.748100
2.076800 0.739700
2.121800 0.837400
2.166700 1.506700
2.211600 1.042100
2.256600 1.000000
2.301500 0.908600
2.346400 0.894400
2.391400 1.049200
2.436300 1.169600
2.481200 1.240600
2.526200 1.219700
2.571100 1.338300
2.616100 1.411800
2.661000 1.555500
2.705900 1.663400
2.750900 1.827700
2.795800 1.741400
2.840700 1.699600
2.885700 1.705600
2.930600 1.749000
2.975500 2.451000
3.020500 1.968900
3.065400 1.549300
3.110300 1.846300
3.155300 2.063400
3.200200 1.806700
3.245100 1.122400
3.290100 0.811300
3.335000 0.757500
3.379900 0.859800
3.424900 0.716300
3.469800 0.719100
3.514700 0.741300
3.559700 0.769200
3.604600 0.738900
3.649500 0.761100
3.694500 0.757900
3.739400 0.760000
3.784300 0.773600
3.829300 0.812200
3.874200 0.856900
3.919200 0.917500
3.964100 1.009900
4.009000 1.111000
4.054000 1.281300
4.098900 1.679700
4.143800 2.082200
4.188800 2.184500
4.233700 2.177500
4.278600 2.127200
4.323600 2.145300
4.368500 2.178100
4.413400 2.124200
4.458400 2.058000
4.503300 2.217500
4.548200 2.310100
4.593200 2.316000
4.638100 1.828600
4.683000 1.636100
4.728000 1.540800
4.772900 1.425800
4.817800 1.155300
4.862800 1.390700
4.907700 1.594100
4.952600 2.018000
4.997600 1.989900
5.042500 1.751100
5.087400 1.758600
5.132400 1.779000
5.177300 2.236300
5.222300 1.994900
5.267200 1.804600
5.312100 1.496400
5.357100 1.331700
5.402000 1.332800
5.446900 1.169400
5.491900 1.207800
5.536800 1.081500
5.581700 0.885400
5.626700 0.797700
5.671600 0.811500
5.716500 0.904400
5.761500 0.782200
5.806400 0.673100
5.851300 0.433600
5.896300 0.386100
5.941200 0.466200
5.986100 0.544300
6.031100 0.646400
6.076000 0.658600
6.120900 0.674500
6.165900 0.695900
6.210800 0.748700
6.255700 0.877200
6.300700 0.800400
6.345600 0.976300
6.390500 0.715700
6.435500 0.721200
6.480400 0.726800
6.525300 0.717800
6.570300 0.718600
6.615200 0.720300
6.660200 0.721700
6.705100 0.723200
6.750000 0.728000
6.795000 0.731800
6.839900 0.737000
6.884800 0.743100
6.929800 0.751900
6.974700 0.759900
7.019600 0.767100
7.064600 0.774700
7.109500 0.779800
7.154400 0.782300
7.199400 0.792800
7.244300 0.806500
7.289200 0.819300
7.334200 0.831800
7.379100 0.844900
7.424000 0.860100
7.469000 1.143900
7.513900 1.034600
7.558800 1.049900
7.603800 0.988900
7.648700 0.967300
7.693600 1.209300
7.738600 1.021500
7.783500 1.010900
7.828400 1.041000
7.873400 1.086600
7.918300 1.100800
7.963300 1.229800
8.008200 1.392500
8.053100 1.796600
8.098100 2.054900
8.143000 1.835900
8.187900 1.768300
8.232900 1.749100
8.277800 1.485300
8.322700 1.446500
8.367700 1.510000
8.412600 1.601600
8.457500 1.687100
8.502500 1.916700
8.547400 1.924900
8.592300 1.974800
8.637300 1.870700
8.682200 1.833200
8.727100 1.750100
8.772100 1.753800
8.817000 1.805100
8.861900 1.804800
8.906900 1.665700
8.951800 1.602200
8.996700 1.638800
9.041700 1.727600
9.086600 1.730500
9.131500 1.716700
9.176500 1.734300
9.221400 1.751000
9.266400 1.728300
9.311300 1.663800
9.356200 1.544200
9.401200 1.086500
9.446100 0.903300
9.491000 1.066500
9.536000 0.982100
9.580900 0.867300
9.625800 0.727000
9.670800 0.664500
9.715700 0.621900
9.760600 0.600600
9.805600 0.589900
9.850500 0.585200
9.895400 0.579400
9.940400 0.568500
9.985300 0.552300
10.030200 0.583400
10.075200 0.613000
10.120100 0.628100
10.165000 0.682200
10.210000 0.665000
10.254900 0.625800
10.299800 0.513000
10.344800 0.609800
10.389700 0.643700
10.434600 0.601800
10.479600 0.565300
10.524500 0.532100
10.569500 0.574000
10.614400 0.605700
10.659300 0.609900
10.704300 0.609100
10.749200 0.604600
10.794100 0.614500
10.839100 0.640100
10.884000 0.671900
10.928900 0.721200
10.973900 0.793300
11.018800 0.909200
11.063700 1.021100
11.108700 1.112700
11.153600 1.274300
11.198500 1.276200
11.243500 1.175900
11.288400 1.122900
11.333300 1.051300
11.378300 0.970000
11.423200 0.931300
11.468100 0.914100
11.513100 0.957800
11.558000 0.854800
11.602900 0.786500
11.647900 0.718200
11.692800 0.631700
11.737700 0.578700
11.782700 0.540400
11.827600 0.512500
11.872500 0.497600
11.917500 0.484800
11.962400 0.474900
12.007400 0.469400
12.052300 0.466200
12.097200 0.471100
12.142200 0.504700
12.187100 0.463200
12.232000 0.482500
12.277000 0.523800
12.321900 0.549000
12.366800 0.556300
12.411800 0.550100
12.456700 0.558500
12.501600 0.572000
12.546600 0.590500
12.591500 0.618700
12.636400 0.651000
12.681400 0.715900
12.726300 0.749800
12.771200 0.766900
12.816200 0.778000
12.861100 0.815000
12.906000 0.862600
12.951000 0.920400
12.995900 0.886000
13.040800 0.859700
13.085800 0.838200
13.130700 0.830800
13.175600 0.819100
13.220600 0.817400
13.265500 0.836900
13.310500 0.855100
13.355400 0.874000
13.400300 0.897500
13.445300 0.930400
13.490200 0.968300
13.535100 1.044400
13.580100 1.256900
13.625000 1.040700
13.669900 0.984800
13.714900 0.984600
13.759800 0.998400
13.804700 1.021300
13.849700 1.053300
13.894600 1.085100
13.939500 1.122900
13.984500 1.165000
14.029400 1.203900
14.074300 1.223300
14.119300 1.241300
14.164200 1.225800
14.209100 1.233800
14.254100 1.294500
14.299000 1.249200
14.343900 1.247800
14.388900 1.243800
14.433800 1.296900
14.478700 1.356600
14.523700 1.242700
14.568600 1.209300
14.613600 1.197300
14.658500 1.146800
14.703400 1.175800
14.748400 1.170100
14.793300 1.176100
14.838200 1.128100
14.883200 1.087600
14.928100 1.014600
14.973000 1.103700
15.018000 1.169800
15.062900 1.174500
15.107800 1.201600
15.152800 1.367100
15.197700 2.015600
15.242600 1.094200
15.287600 0.974200
15.332500 0.978800
15.377400 1.183200
15.422400 1.230200
15.467300 1.355400
15.512200 1.473000
15.557200 1.455300
15.602100 1.363400
15.647000 1.274400
15.692000 1.199800
15.736900 1.208500
15.781800 1.187300
15.826800 1.151100
15.871700 1.194600
15.916700 1.133200
15.961600 1.084100
16.006500 1.134400
16.051500 1.155500
16.096400 1.077000
16.141300 1.062300
16.186300 1.101800
16.231200 1.196500
16.276100 1.020100
16.321100 0.941400
16.366000 0.935800
16.410900 0.945800
16.455900 0.963300
16.500800 0.977500
16.545700 0.980200
16.590700 0.828300
16.635600 0.865100
16.680500 0.879800
16.725500 0.912800
16.770400 0.943300
16.815300 0.941400
16.860300 0.943400
16.905200 0.937400
16.950100 1.010200
16.995100 1.139600
17.040000 0.997500
17.084900 0.771300
17.129900 0.773700
17.174800 0.782700
17.219700 0.804700
17.264700 0.820400
17.309600 0.842900
17.354600 0.880500
17.399500 0.998400
17.444400 0.965000
17.489400 0.950900
17.534300 0.938300
17.579200 0.917100
17.624200 0.817400
17.669100 0.777300
17.714000 0.741700
17.759000 0.733000
17.803900 0.736200
17.848800 0.787600
17.893800 0.718200
17.938700 0.695600
17.983600 0.800300
18.028600 0.932900
18.073500 1.210800
18.118400 1.043500
18.163400 1.019200
18.208300 0.982200
18.253200 0.922900
18.298200 0.821600
18.343100 0.746900
18.388000 0.709300
18.433000 0.677600
18.477900 0.653100
18.522800 0.609700
18.567800 0.570600
18.612700 0.571900
18.657700 0.590200
18.702600 0.610100
18.747500 0.634200
18.792500 0.657800
18.837400 0.683000
18.882300 0.695800
18.927300 0.673100
18.972200 0.652700
19.017100 0.634200
19.062100 0.649700
19.107000 0.583000
19.151900 0.538900
19.196900 0.550500
19.241800 0.558300
19.286700 0.572400
19.331700 0.591500
19.376600 0.607300
19.421500 0.680500
19.466500 0.763000
19.511400 0.790500
19.556300 0.823100
19.601300 0.937500
19.646200 0.904900
19.691100 0.918300
19.736100 0.983500
19.781000 1.011200
19.825900 0.995300
19.870900 0.934200
19.915800 0.917100
19.960800 0.914900
20.005700 0.917700
20.050600 0.953700
20.095600 0.988200
20.140500 0.956900
20.185400 0.940200
20.230400 0.989100
