set title 'mp-1184550 - Density of States'
set xlabel 'Energy (eV)'
set ylabel 'DOS (states/eV)'
set grid
set xrange [-10:10]
set yrange [0:6.973]
set xzeroaxis lt -1
set terminal png size 800,600
set output 'mp-1184550_dos_gnuplot.png'
plot '-' using 1:2 with lines title 'DOS'
-19.731100 0.000000
-19.697900 0.000000
-19.664700 0.000000
-19.631500 0.000000
-19.598300 0.000000
-19.565000 0.000000
-19.531800 0.000000
-19.498600 0.000000
-19.465400 0.000000
-19.432200 0.000000
-19.398900 0.000000
-19.365700 0.000000
-19.332500 0.000000
-19.299300 0.000000
-19.266100 0.000000
-19.232800 0.000000
-19.199600 0.000000
-19.166400 0.000000
-19.133200 0.000000
-19.100000 0.000000
-19.066800 0.000000
-19.033500 0.000000
-19.000300 0.000000
-18.967100 0.000000
-18.933900 0.000000
-18.900700 0.000000
-18.867400 0.000000
-18.834200 0.000000
-18.801000 0.000000
-18.767800 0.000000
-18.734600 0.000000
-18.701300 0.000000
-18.668100 0.000000
-18.634900 0.000000
-18.601700 0.000000
-18.568500 0.000000
-18.535200 0.000000
-18.502000 0.000000
-18.468800 0.000000
-18.435600 0.000000
-18.402400 0.000000
-18.369100 0.000000
-18.335900 0.000000
-18.302700 0.000000
-18.269500 0.000000
-18.236300 0.000000
-18.203100 0.000000
-18.169800 0.000000
-18.136600 0.000000
-18.103400 0.000000
-18.070200 0.000000
-18.037000 0.000000
-18.003700 0.000000
-17.970500 0.000000
-17.937300 0.000000
-17.904100 0.000000
-17.870900 0.000000
-17.837600 0.000000
-17.804400 0.000000
-17.771200 0.000000
-17.738000 0.000000
-17.704800 0.000000
-17.671500 0.000000
-17.638300 0.000000
-17.605100 0.000000
-17.571900 0.000000
-17.538700 0.000000
-17.505400 0.000000
-17.472200 0.000000
-17.439000 0.000000
-17.405800 0.000000
-17.372600 0.000000
-17.339400 0.000000
-17.306100 0.000000
-17.272900 0.000000
-17.239700 0.000000
-17.206500 0.000000
-17.173300 0.000000
-17.140000 0.000000
-17.106800 0.000000
-17.073600 0.000000
-17.040400 0.000000
-17.007200 0.000000
-16.973900 0.000000
-16.940700 0.000000
-16.907500 0.000000
-16.874300 0.000000
-16.841100 0.000000
-16.807800 0.000000
-16.774600 0.000000
-16.741400 0.000000
-16.708200 14.655800
-16.675000 79.921100
-16.641800 138.270900
-16.608500 150.384000
-16.575300 223.515100
-16.542100 0.000000
-16.508900 0.000000
-16.475700 0.000000
-16.442400 0.000000
-16.409200 0.000000
-16.376000 0.000000
-16.342800 0.000000
-16.309600 0.000000
-16.276300 0.000000
-16.243100 0.000000
-16.209900 0.000000
-16.176700 0.000000
-16.143500 0.000000
-16.110200 0.000000
-16.077000 0.000000
-16.043800 0.000000
-16.010600 0.000000
-15.977400 0.000000
-15.944100 0.000000
-15.910900 0.000000
-15.877700 0.000000
-15.844500 0.000000
-15.811300 0.000000
-15.778100 0.000000
-15.744800 0.000000
-15.711600 0.000000
-15.678400 0.000000
-15.645200 0.000000
-15.612000 0.000000
-15.578700 0.000000
-15.545500 0.000000
-15.512300 0.000000
-15.479100 0.000000
-15.445900 0.000000
-15.412600 0.000000
-15.379400 0.000000
-15.346200 0.000000
-15.313000 0.000000
-15.279800 0.000000
-15.246500 0.000000
-15.213300 0.000000
-15.180100 0.000000
-15.146900 0.000000
-15.113700 0.000000
-15.080400 0.000000
-15.047200 0.000000
-15.014000 0.000000
-14.980800 0.000000
-14.947600 0.000000
-14.914400 0.000000
-14.881100 0.000000
-14.847900 0.000000
-14.814700 0.000000
-14.781500 0.000000
-14.748300 0.000000
-14.715000 0.000000
-14.681800 0.000000
-14.648600 0.000000
-14.615400 0.000000
-14.582200 0.000000
-14.548900 0.000000
-14.515700 0.000000
-14.482500 0.000000
-14.449300 0.000000
-14.416100 0.000000
-14.382800 0.000000
-14.349600 0.000000
-14.316400 0.000000
-14.283200 0.000000
-14.250000 0.000000
-14.216700 0.000000
-14.183500 0.000000
-14.150300 0.000000
-14.117100 0.000000
-14.083900 0.000000
-14.050700 0.000000
-14.017400 0.000000
-13.984200 0.000000
-13.951000 0.000000
-13.917800 0.000000
-13.884600 0.000000
-13.851300 0.000000
-13.818100 0.000000
-13.784900 0.000000
-13.751700 0.000000
-13.718500 0.000000
-13.685200 0.000000
-13.652000 0.000000
-13.618800 0.000000
-13.585600 0.000000
-13.552400 0.000000
-13.519100 0.000000
-13.485900 0.000000
-13.452700 0.000000
-13.419500 0.000000
-13.386300 0.000000
-13.353100 0.000000
-13.319800 0.000000
-13.286600 0.000000
-13.253400 0.000000
-13.220200 0.000000
-13.187000 0.000000
-13.153700 0.000000
-13.120500 0.000000
-13.087300 0.000000
-13.054100 0.000000
-13.020900 0.000000
-12.987600 0.000000
-12.954400 0.000000
-12.921200 0.000000
-12.888000 0.000000
-12.854800 0.000000
-12.821500 0.000000
-12.788300 0.000000
-12.755100 0.000000
-12.721900 0.000000
-12.688700 0.000000
-12.655400 0.000000
-12.622200 0.000000
-12.589000 0.000000
-12.555800 0.000000
-12.522600 0.000000
-12.489400 0.000000
-12.456100 0.000000
-12.422900 0.000000
-12.389700 0.000000
-12.356500 0.000000
-12.323300 0.000000
-12.290000 0.000000
-12.256800 0.000000
-12.223600 0.000000
-12.190400 0.000000
-12.157200 0.000000
-12.123900 0.000000
-12.090700 0.000000
-12.057500 0.000000
-12.024300 0.000000
-11.991100 0.000000
-11.957800 0.000000
-11.924600 0.000000
-11.891400 0.000000
-11.858200 0.000000
-11.825000 0.000000
-11.791700 0.000000
-11.758500 0.000000
-11.725300 0.000000
-11.692100 0.000000
-11.658900 0.000000
-11.625700 0.000000
-11.592400 0.000000
-11.559200 0.000000
-11.526000 0.000000
-11.492800 0.000000
-11.459600 0.000000
-11.426300 0.000000
-11.393100 0.000000
-11.359900 0.000000
-11.326700 0.000000
-11.293500 0.000000
-11.260200 0.000000
-11.227000 0.000000
-11.193800 0.000000
-11.160600 0.000000
-11.127400 0.000000
-11.094100 0.000000
-11.060900 0.000000
-11.027700 0.000000
-10.994500 0.000000
-10.961300 0.000000
-10.928000 0.000000
-10.894800 0.000000
-10.861600 0.000000
-10.828400 0.000000
-10.795200 0.000000
-10.762000 0.000000
-10.728700 0.000000
-10.695500 0.000000
-10.662300 0.000000
-10.629100 0.000000
-10.595900 0.000000
-10.562600 0.000000
-10.529400 0.000000
-10.496200 0.000000
-10.463000 0.000000
-10.429800 0.000000
-10.396500 0.000000
-10.363300 0.000000
-10.330100 0.000000
-10.296900 0.000000
-10.263700 0.000000
-10.230400 0.000000
-10.197200 0.000000
-10.164000 0.000000
-10.130800 0.000000
-10.097600 0.000000
-10.064400 0.000000
-10.031100 0.000000
-9.997900 0.000000
-9.964700 0.000000
-9.931500 0.000000
-9.898300 0.000000
-9.865000 0.000000
-9.831800 0.000000
-9.798600 0.000000
-9.765400 0.000000
-9.732200 0.000000
-9.698900 0.000000
-9.665700 0.000000
-9.632500 0.000000
-9.599300 0.000000
-9.566100 0.000000
-9.532800 0.000000
-9.499600 0.000000
-9.466400 0.000000
-9.433200 0.000000
-9.400000 0.000000
-9.366700 0.000000
-9.333500 0.000000
-9.300300 0.000000
-9.267100 0.000000
-9.233900 0.000000
-9.200700 0.000000
-9.167400 0.000000
-9.134200 0.000000
-9.101000 0.000000
-9.067800 0.000000
-9.034600 0.000000
-9.001300 0.000000
-8.968100 0.000000
-8.934900 0.000000
-8.901700 0.000000
-8.868500 0.000000
-8.835200 0.000000
-8.802000 0.000000
-8.768800 0.000000
-8.735600 0.000000
-8.702400 0.000000
-8.669100 0.000100
-8.635900 0.006200
-8.602700 0.021100
-8.569500 0.044900
-8.536300 0.077600
-8.503000 0.119200
-8.469800 0.165100
-8.436600 0.185700
-8.403400 0.201200
-8.370200 0.211400
-8.337000 0.216600
-8.303700 0.216500
-8.270500 0.224300
-8.237300 0.238000
-8.204100 0.252100
-8.170900 0.266400
-8.137600 0.280900
-8.104400 0.295700
-8.071200 0.310800
-8.038000 0.325100
-8.004800 0.338100
-7.971500 0.349700
-7.938300 0.370500
-7.905100 0.401500
-7.871900 0.428300
-7.838700 0.452600
-7.805400 0.474700
-7.772200 0.494600
-7.739000 0.432600
-7.705800 0.437100
-7.672600 0.441900
-7.639300 0.446500
-7.606100 0.451000
-7.572900 0.455300
-7.539700 0.459500
-7.506500 0.463500
-7.473300 0.467400
-7.440000 0.471000
-7.406800 0.474500
-7.373600 0.477900
-7.340400 0.478300
-7.307200 0.477500
-7.273900 0.475500
-7.240700 0.473000
-7.207500 0.470700
-7.174300 0.468600
-7.141100 0.469200
-7.107800 0.470600
-7.074600 0.480000
-7.041400 0.509400
-7.008200 0.540300
-6.975000 0.572700
-6.941700 0.606600
-6.908500 0.642100
-6.875300 0.592200
-6.842100 0.601500
-6.808900 0.611100
-6.775700 0.620900
-6.742400 0.631000
-6.709200 0.641300
-6.676000 0.651700
-6.642800 0.662300
-6.609600 0.673000
-6.576300 0.678400
-6.543100 0.689600
-6.509900 0.701100
-6.476700 0.708800
-6.443500 0.715800
-6.410200 0.722700
-6.377000 0.729700
-6.343800 0.736500
-6.310600 0.743900
-6.277400 0.754000
-6.244100 0.764100
-6.210900 0.774800
-6.177700 0.786500
-6.144500 0.799100
-6.111300 0.812800
-6.078000 0.827600
-6.044800 0.843300
-6.011600 0.859600
-5.978400 0.876700
-5.945200 0.895300
-5.912000 0.915200
-5.878700 0.936600
-5.845500 0.959500
-5.812300 0.986900
-5.779100 1.035500
-5.745900 1.074200
-5.712600 1.112400
-5.679400 1.146300
-5.646200 1.169100
-5.613000 1.176800
-5.579800 1.183100
-5.546500 1.189300
-5.513300 1.194700
-5.480100 1.198200
-5.446900 1.199900
-5.413700 1.199800
-5.380400 1.202600
-5.347200 1.228400
-5.314000 1.279500
-5.280800 1.351900
-5.247600 1.341000
-5.214300 1.318900
-5.181100 1.343800
-5.147900 1.255100
-5.114700 1.193000
-5.081500 1.160500
-5.048300 1.129400
-5.015000 1.099600
-4.981800 1.071300
-4.948600 1.044400
-4.915400 1.021300
-4.882200 1.002500
-4.848900 0.986100
-4.815700 0.995500
-4.782500 1.042400
-4.749300 1.083100
-4.716100 1.115400
-4.682800 0.925800
-4.649600 0.931900
-4.616400 0.939400
-4.583200 0.948000
-4.550000 0.957500
-4.516700 1.082000
-4.483500 1.070900
-4.450300 1.056600
-4.417100 1.039300
-4.383900 1.019200
-4.350600 0.996200
-4.317400 0.970800
-4.284200 0.947300
-4.251000 0.959300
-4.217800 1.031400
-4.184600 1.164400
-4.151300 1.364200
-4.118100 1.524100
-4.084900 1.362000
-4.051700 1.193300
-4.018500 1.173900
-3.985200 1.188600
-3.952000 1.220200
-3.918800 1.403500
-3.885600 1.694800
-3.852400 1.654000
-3.819100 1.662300
-3.785900 1.614600
-3.752700 1.499900
-3.719500 1.168600
-3.686300 0.814500
-3.653000 0.556400
-3.619800 0.373700
-3.586600 0.214900
-3.553400 0.080200
-3.520200 0.000000
-3.486900 0.000000
-3.453700 0.000000
-3.420500 0.000000
-3.387300 0.000000
-3.354100 0.000000
-3.320900 0.000000
-3.287600 0.000000
-3.254400 0.000000
-3.221200 0.000000
-3.188000 0.000000
-3.154800 0.000000
-3.121500 0.000000
-3.088300 0.000000
-3.055100 0.000000
-3.021900 0.000000
-2.988700 0.000000
-2.955400 0.000000
-2.922200 0.000000
-2.889000 0.000000
-2.855800 0.000000
-2.822600 0.000000
-2.789300 0.000000
-2.756100 0.000000
-2.722900 0.000000
-2.689700 0.000000
-2.656500 0.000000
-2.623300 0.000000
-2.590000 0.000000
-2.556800 0.000000
-2.523600 0.000000
-2.490400 0.000000
-2.457200 0.000000
-2.423900 0.000000
-2.390700 0.000000
-2.357500 0.000000
-2.324300 0.000000
-2.291100 0.000000
-2.257800 0.000000
-2.224600 0.000000
-2.191400 0.000000
-2.158200 0.000000
-2.125000 0.000000
-2.091700 0.000000
-2.058500 0.000000
-2.025300 0.000000
-1.992100 0.000000
-1.958900 0.155800
-1.925600 0.411400
-1.892400 0.666100
-1.859200 0.911500
-1.826000 1.106900
-1.792800 1.224400
-1.759600 1.127300
-1.726300 1.241800
-1.693100 1.352500
-1.659900 1.475400
-1.626700 1.621900
-1.593500 2.826000
-1.560200 1.939900
-1.527000 1.780900
-1.493800 1.784000
-1.460600 1.759600
-1.427400 1.746400
-1.394100 1.712300
-1.360900 1.657100
-1.327700 1.608700
-1.294500 1.524000
-1.261300 1.437800
-1.228000 1.406400
-1.194800 1.416900
-1.161600 1.437100
-1.128400 1.465400
-1.095200 1.501900
-1.061900 1.407300
-1.028700 1.203700
-0.995500 1.175100
-0.962300 1.148700
-0.929100 1.123000
-0.895900 1.097500
-0.862600 1.071300
-0.829400 1.046100
-0.796200 1.022500
-0.763000 0.999600
-0.729800 0.977300
-0.696500 0.955600
-0.663300 0.934600
-0.630100 0.881000
-0.596900 0.856600
-0.563700 0.852000
-0.530400 0.849400
-0.497200 0.847700
-0.464000 0.847000
-0.430800 0.848900
-0.397600 0.852700
-0.364300 0.858500
-0.331100 0.866500
-0.297900 0.876700
-0.264700 0.888700
-0.231500 0.902300
-0.198200 0.917700
-0.165000 0.923200
-0.131800 0.926200
-0.098600 0.928800
-0.065400 0.931000
-0.032200 0.932900
0.001100 0.934400
0.034300 0.935500
0.067500 0.934400
0.100700 0.927700
0.133900 0.915400
0.167200 0.898400
0.200400 0.876300
0.233600 0.848700
0.266800 0.815500
0.300000 0.776800
0.333300 0.750500
0.366500 0.740700
0.399700 0.743200
0.432900 0.735900
0.466100 0.730900
0.499400 0.728000
0.532600 0.727300
0.565800 0.729100
0.599000 0.732600
0.632200 0.736900
0.665400 0.742000
0.698700 0.747800
0.731900 0.754500
0.765100 0.762000
0.798300 0.770300
0.831500 0.779400
0.864800 0.789300
0.898000 0.802000
0.931200 0.818200
0.964400 0.835800
0.997600 0.887400
1.030900 1.023700
1.064100 1.336300
1.097300 1.649700
1.130500 0.868000
1.163700 0.920200
1.197000 0.984400
1.230200 1.055900
1.263400 1.102600
1.296600 1.133100
1.329800 1.150100
1.363100 1.164700
1.396300 1.156900
1.429500 1.152700
1.462700 1.148300
1.495900 1.143600
1.529100 1.138700
1.562400 1.133500
1.595600 1.128000
1.628800 1.122300
1.662000 1.116300
1.695200 1.111300
1.728500 1.108700
1.761700 1.078400
1.794900 1.080900
1.828100 1.077700
1.861300 1.066700
1.894600 1.052900
1.927800 1.032600
1.961000 1.005400
1.994200 0.970500
2.027400 1.039500
2.060700 1.119800
2.093900 1.130800
2.127100 1.169700
2.160300 1.209500
2.193500 1.250200
2.226800 1.291600
2.260000 1.334000
2.293200 1.377200
2.326400 1.421200
2.359600 1.457500
2.392800 1.491200
2.426100 1.527100
2.459300 1.564900
2.492500 1.578600
2.525700 1.628300
2.558900 1.679300
2.592200 1.728000
2.625400 1.774500
2.658600 1.823500
2.691800 1.899700
2.725000 1.904800
2.758300 1.694100
2.791500 1.641800
2.824700 1.622600
2.857900 1.597100
2.891100 1.575900
2.924400 1.560900
2.957600 1.576700
2.990800 1.597900
3.024000 2.721600
3.057200 1.845900
3.090500 1.795800
3.123700 1.747100
3.156900 1.700300
3.190100 1.656400
3.223300 1.619900
3.256500 1.620000
3.289800 1.865900
3.323000 1.759200
3.356200 1.738800
3.389400 1.788900
3.422600 1.818600
3.455900 1.833200
3.489100 1.830200
3.522300 1.776500
3.555500 1.772500
3.588700 1.731800
3.622000 1.782600
3.655200 1.972100
3.688400 2.007400
3.721600 2.047800
3.754800 2.091200
3.788100 2.138400
3.821300 2.185900
3.854500 2.222700
3.887700 2.259000
3.920900 2.371800
3.954100 2.542000
3.987400 2.610900
4.020600 2.625100
4.053800 2.616200
4.087000 2.582400
4.120200 2.278400
4.153500 2.259800
4.186700 2.237200
4.219900 2.223100
4.253100 2.207700
4.286300 2.189500
4.319600 2.166900
4.352800 2.135700
4.386000 2.104000
4.419200 2.077100
4.452400 2.085100
4.485700 2.085600
4.518900 2.104000
4.552100 2.149700
4.585300 2.150200
4.618500 2.181100
4.651800 2.522800
4.685000 2.663000
4.718200 2.804400
4.751400 2.945600
4.784600 4.200300
4.817800 6.339200
4.851100 4.034500
4.884300 2.662100
4.917500 2.263300
4.950700 2.166300
4.983900 2.111500
5.017200 2.057400
5.050400 2.012600
5.083600 1.992000
5.116800 1.967800
5.150000 1.937100
5.183300 1.881100
5.216500 1.832700
5.249700 1.780400
5.282900 1.724900
5.316100 1.666400
5.349400 1.604800
5.382600 1.539100
5.415800 1.471500
5.449000 1.411200
5.482200 1.390500
5.515500 1.349200
5.548700 1.284300
5.581900 1.231600
5.615100 1.181000
5.648300 1.132600
5.681500 1.086400
5.714800 1.042300
5.748000 1.000500
5.781200 0.961500
5.814400 0.925400
5.847600 0.892200
5.880900 0.867000
5.914100 0.842100
5.947300 0.813500
5.980500 0.785500
6.013700 0.761400
6.047000 0.738500
6.080200 0.775000
6.113400 0.743900
6.146600 0.710800
6.179800 0.666900
6.213100 0.633200
6.246300 0.594600
6.279500 0.550400
6.312700 0.503400
6.345900 0.466200
6.379200 0.433800
6.412400 0.402200
6.445600 0.371400
6.478800 0.341400
6.512000 0.312300
6.545200 0.289800
6.578500 0.277500
6.611700 0.263500
6.644900 0.246400
6.678100 0.226100
6.711300 0.202700
6.744600 0.173100
6.777800 0.114800
6.811000 0.068300
6.844200 0.033800
6.877400 0.011300
6.910700 0.000800
6.943900 0.000000
6.977100 0.000000
7.010300 0.000000
7.043500 0.000000
7.076800 0.000000
7.110000 0.000000
7.143200 0.000000
7.176400 0.000000
7.209600 0.000000
7.242800 0.000000
7.276100 0.000000
7.309300 0.000000
7.342500 0.000000
7.375700 0.000000
7.408900 0.000000
7.442200 0.000000
7.475400 0.000000
7.508600 0.000000
7.541800 0.000000
7.575000 0.000000
7.608300 0.000000
7.641500 0.000000
7.674700 0.000000
7.707900 0.000000
7.741100 0.000000
7.774400 0.000000
7.807600 0.000000
7.840800 0.000000
7.874000 0.000000
7.907200 0.000000
7.940500 0.000000
7.973700 0.000000
8.006900 0.000000
8.040100 0.000000
8.073300 0.000000
8.106500 0.000000
8.139800 0.000000
8.173000 0.000000
8.206200 0.000000
8.239400 0.000000
8.272600 0.000000
8.305900 0.000000
8.339100 0.000000
8.372300 0.000000
8.405500 0.000000
8.438700 0.000000
8.472000 0.000000
8.505200 0.000000
8.538400 0.000000
8.571600 0.000000
8.604800 0.000000
8.638100 0.000000
8.671300 0.000000
8.704500 0.000000
8.737700 0.000000
8.770900 0.000000
8.804200 0.000000
8.837400 0.000000
8.870600 0.000000
8.903800 0.000000
8.937000 0.000000
8.970200 0.000000
9.003500 0.000000
9.036700 0.000000
9.069900 0.000000
9.103100 0.000000
9.136300 0.000000
9.169600 0.000000
9.202800 0.000000
9.236000 0.000000
9.269200 0.000000
9.302400 0.000000
9.335700 0.000000
9.368900 0.082300
9.402100 0.156600
9.435300 0.243900
9.468500 0.334200
9.501800 0.392300
9.535000 0.451300
9.568200 0.511300
9.601400 0.569500
9.634600 0.615200
9.667900 0.645400
9.701100 0.664500
9.734300 0.684600
9.767500 0.705900
9.800700 0.729100
9.833900 0.754000
9.867200 0.780800
9.900400 0.861900
9.933600 0.910500
9.966800 0.962600
10.000000 1.018200
10.033300 1.077500
10.066500 1.151900
10.099700 1.239400
10.132900 1.324100
10.166100 1.416300
10.199400 1.516900
10.232600 1.626000
10.265800 1.743500
10.299000 1.870800
10.332200 1.995500
10.365500 2.105300
10.398700 2.180600
10.431900 2.209700
10.465100 2.213500
10.498300 2.199500
10.531600 2.211300
10.564800 2.236300
10.598000 2.333900
10.631200 2.470200
10.664400 2.968000
10.697600 2.788200
10.730900 2.610600
10.764100 2.435200
10.797300 2.262000
10.830500 2.094300
10.863700 2.015700
10.897000 1.929600
10.930200 1.851500
10.963400 1.781600
10.996600 1.720000
11.029800 1.671600
11.063100 1.645700
11.096300 1.597700
11.129500 1.558600
11.162700 1.530000
11.195900 1.512100
11.229200 1.539800
11.262400 1.737700
11.295600 2.005300
11.328800 1.983300
11.362000 2.134600
11.395200 2.242300
11.428500 2.277500
11.461700 2.282800
11.494900 2.464300
11.528100 2.357500
11.561300 2.187600
11.594600 1.970000
11.627800 1.840200
11.661000 1.319800
11.694200 1.180400
11.727400 1.074800
11.760700 0.981800
11.793900 0.954700
11.827100 0.942500
11.860300 0.942900
11.893500 0.943500
11.926800 0.936900
11.960000 0.917200
11.993200 0.952600
12.026400 1.034200
12.059600 1.137300
12.092900 1.260600
12.126100 1.512900
12.159300 1.685500
12.192500 1.882200
12.225700 2.092200
12.258900 2.305400
12.292200 2.546100
12.325400 2.815000
12.358600 3.053400
12.391800 3.251600
12.425000 3.715400
12.458300 4.135600
12.491500 4.073000
12.524700 4.058800
12.557900 3.942900
12.591100 3.135000
12.624400 2.266500
12.657600 1.860200
12.690800 1.820800
12.724000 1.757400
12.757200 1.405700
12.790500 1.379900
12.823700 1.366200
12.856900 1.357200
12.890100 1.364800
12.923300 1.384200
12.956600 1.424600
12.989800 1.487300
13.023000 1.573900
13.056200 1.703200
13.089400 1.931700
13.122600 2.846200
13.155900 3.340700
13.189100 3.707300
13.222300 4.041800
13.255500 4.330700
13.288700 3.501600
13.322000 3.358700
13.355200 3.247100
13.388400 3.159700
13.421600 2.746600
13.454800 2.034800
13.488100 1.794000
13.521300 1.635000
13.554500 1.527600
13.587700 1.450300
13.620900 1.415200
13.654200 1.419000
13.687400 1.428700
13.720600 1.451100
13.753800 1.494300
13.787000 1.645600
13.820300 1.513700
13.853500 1.361100
13.886700 1.402300
13.919900 1.465900
13.953100 1.418400
13.986300 1.166500
14.019600 1.258000
14.052800 1.444000
14.086000 1.420700
14.119200 1.511500
14.152400 1.659800
14.185700 1.829900
14.218900 2.009600
14.252100 2.198800
14.285300 2.379900
14.318500 2.565500
14.351800 3.195600
14.385000 2.700300
14.418200 3.047700
14.451400 3.631200
14.484600 2.860200
14.517900 2.504400
14.551100 2.347300
14.584300 2.370000
14.617500 2.414800
14.650700 2.454400
14.683900 2.559400
