set title 'mp-158 - Density of States'
set xlabel 'Energy (eV)'
set ylabel 'DOS (states/eV)'
set grid
set xrange [-10:10]
set yrange [0:7.717]
set xzeroaxis lt -1
set terminal png size 800,600
set output 'mp-158_dos_gnuplot.png'
plot '-' using 1:2 with lines title 'DOS'
-11.650400 0.000000
-11.636800 0.000000
-11.623100 0.000000
-11.609500 0.000000
-11.595800 0.000000
-11.582200 0.000000
-11.568600 0.000000
-11.554900 0.000000
-11.541300 0.000000
-11.527700 0.000000
-11.514000 0.000000
-11.500400 0.000000
-11.486800 0.000000
-11.473100 0.000000
-11.459500 0.000000
-11.445900 0.000000
-11.432200 0.000000
-11.418600 0.000000
-11.404900 0.000000
-11.391300 0.000000
-11.377700 0.000000
-11.364000 0.000000
-11.350400 0.000000
-11.336800 0.000000
-11.323100 0.000000
-11.309500 0.000000
-11.295900 0.000000
-11.282200 0.000000
-11.268600 0.000000
-11.255000 0.000000
-11.241300 0.000000
-11.227700 0.000000
-11.214000 0.000000
-11.200400 0.000000
-11.186800 0.000000
-11.173100 0.000000
-11.159500 0.000000
-11.145900 0.000000
-11.132200 0.000000
-11.118600 0.000000
-11.105000 0.000000
-11.091300 0.000000
-11.077700 0.000000
-11.064100 0.000000
-11.050400 0.000000
-11.036800 0.000000
-11.023100 0.000000
-11.009500 0.000000
-10.995900 0.000000
-10.982200 0.000000
-10.968600 0.000000
-10.955000 0.000000
-10.941300 0.000000
-10.927700 0.000000
-10.914100 0.000000
-10.900400 0.000000
-10.886800 0.000000
-10.873200 0.000000
-10.859500 0.000000
-10.845900 0.000000
-10.832200 0.000000
-10.818600 0.000000
-10.805000 0.000000
-10.791300 0.000000
-10.777700 0.000000
-10.764100 0.000000
-10.750400 0.000000
-10.736800 0.000000
-10.723200 0.000000
-10.709500 0.000000
-10.695900 0.000000
-10.682300 0.000000
-10.668600 0.000000
-10.655000 0.000000
-10.641300 0.000000
-10.627700 0.000000
-10.614100 0.000000
-10.600400 0.000000
-10.586800 0.000000
-10.573200 0.000000
-10.559500 0.000000
-10.545900 0.000000
-10.532300 0.000000
-10.518600 0.000000
-10.505000 0.000000
-10.491400 0.000000
-10.477700 0.000000
-10.464100 0.000000
-10.450400 0.000000
-10.436800 0.000000
-10.423200 0.000000
-10.409500 0.000300
-10.395900 0.050300
-10.382300 0.164500
-10.368600 0.261500
-10.355000 0.299300
-10.341400 0.331400
-10.327700 0.372600
-10.314100 0.414100
-10.300500 0.461900
-10.286800 0.512600
-10.273200 0.554000
-10.259500 0.586100
-10.245900 0.619300
-10.232300 0.657100
-10.218600 0.698300
-10.205000 0.752800
-10.191400 0.837200
-10.177700 0.925000
-10.164100 0.970500
-10.150500 0.954000
-10.136800 0.938900
-10.123200 0.951800
-10.109500 0.965300
-10.095900 0.971600
-10.082300 0.968800
-10.068600 0.962600
-10.055000 0.951000
-10.041400 0.948000
-10.027700 0.952400
-10.014100 0.957300
-10.000500 0.962300
-9.986800 0.967700
-9.973200 0.973200
-9.959600 0.977900
-9.945900 0.980800
-9.932300 0.980700
-9.918600 0.980700
-9.905000 0.980900
-9.891400 0.979700
-9.877700 0.979400
-9.864100 0.979700
-9.850500 0.980900
-9.836800 0.982700
-9.823200 0.985000
-9.809600 0.987900
-9.795900 0.991100
-9.782300 0.994100
-9.768700 0.995900
-9.755000 0.997400
-9.741400 0.999600
-9.727700 1.003000
-9.714100 1.006500
-9.700500 1.008600
-9.686800 1.008600
-9.673200 1.007700
-9.659600 1.008900
-9.645900 1.011900
-9.632300 1.015200
-9.618700 1.018600
-9.605000 1.021900
-9.591400 1.024000
-9.577800 1.025800
-9.564100 1.027800
-9.550500 1.029400
-9.536800 1.031000
-9.523200 1.033100
-9.509600 1.035900
-9.495900 1.038800
-9.482300 1.042000
-9.468700 1.045300
-9.455000 1.048600
-9.441400 1.052200
-9.427800 1.141500
-9.414100 1.206300
-9.400500 1.203500
-9.386900 1.177400
-9.373200 1.170000
-9.359600 1.168700
-9.345900 1.171400
-9.332300 1.172700
-9.318700 1.203300
-9.305000 1.201000
-9.291400 1.128000
-9.277800 1.036800
-9.264100 1.018400
-9.250500 0.999800
-9.236900 0.981400
-9.223200 0.963800
-9.209600 0.944500
-9.196000 0.922500
-9.182300 0.907600
-9.168700 0.899200
-9.155000 0.884600
-9.141400 0.874100
-9.127800 0.947000
-9.114100 1.076300
-9.100500 1.148800
-9.086900 1.148300
-9.073200 1.211300
-9.059600 1.311700
-9.046000 1.272700
-9.032300 1.192500
-9.018700 1.208400
-9.005100 1.206400
-8.991400 1.207900
-8.977800 1.210300
-8.964100 1.210400
-8.950500 1.199900
-8.936900 1.200400
-8.923200 1.208700
-8.909600 1.217200
-8.896000 1.225900
-8.882300 1.234700
-8.868700 1.240300
-8.855100 1.240000
-8.841400 1.243400
-8.827800 1.253800
-8.814200 1.266600
-8.800500 1.273500
-8.786900 1.284500
-8.773200 1.294600
-8.759600 1.304800
-8.746000 1.314900
-8.732300 1.324900
-8.718700 1.333700
-8.705100 1.341800
-8.691400 1.349600
-8.677800 1.356600
-8.664200 1.362700
-8.650500 1.377700
-8.636900 1.396100
-8.623300 1.412100
-8.609600 1.425600
-8.596000 1.444300
-8.582300 1.462800
-8.568700 1.481200
-8.555100 1.501400
-8.541400 1.534100
-8.527800 1.579300
-8.514200 1.617200
-8.500500 1.659800
-8.486900 1.746000
-8.473300 1.879000
-8.459600 1.963500
-8.446000 1.966100
-8.432300 1.926600
-8.418700 1.952800
-8.405100 1.988200
-8.391400 2.035600
-8.377800 2.095700
-8.364200 2.180100
-8.350500 2.242400
-8.336900 2.210500
-8.323300 2.196500
-8.309600 2.171300
-8.296000 2.141900
-8.282400 2.104900
-8.268700 2.057100
-8.255100 2.008800
-8.241400 1.981200
-8.227800 1.954400
-8.214200 1.926600
-8.200500 1.906200
-8.186900 1.890000
-8.173300 1.876400
-8.159600 1.872600
-8.146000 1.867200
-8.132400 1.861100
-8.118700 1.853300
-8.105100 1.846400
-8.091500 1.838100
-8.077800 1.822800
-8.064200 1.810600
-8.050500 1.818200
-8.036900 1.814100
-8.023300 1.798100
-8.009600 1.775500
-7.996000 1.714800
-7.982400 1.638600
-7.968700 1.638900
-7.955100 1.717000
-7.941500 1.943200
-7.927800 2.288500
-7.914200 2.032000
-7.900600 2.071900
-7.886900 2.183500
-7.873300 2.289000
-7.859600 7.015700
-7.846000 3.082000
-7.832400 3.252000
-7.818700 2.806600
-7.805100 2.238800
-7.791500 1.802200
-7.777800 1.617400
-7.764200 1.574600
-7.750600 1.529300
-7.736900 1.480800
-7.723300 1.431200
-7.709700 1.382300
-7.696000 1.334200
-7.682400 1.290500
-7.668700 1.250300
-7.655100 1.212500
-7.641500 1.178500
-7.627800 1.145300
-7.614200 1.112900
-7.600600 1.090200
-7.586900 1.072500
-7.573300 1.045400
-7.559700 1.013800
-7.546000 0.979200
-7.532400 0.952200
-7.518800 0.935700
-7.505100 0.923600
-7.491500 0.911000
-7.477800 0.885000
-7.464200 0.842400
-7.450600 0.800100
-7.436900 0.763100
-7.423300 0.735300
-7.409700 0.707800
-7.396000 0.679100
-7.382400 0.648900
-7.368800 0.616500
-7.355100 0.582500
-7.341500 0.548600
-7.327900 0.515500
-7.314200 0.481800
-7.300600 0.447500
-7.286900 0.413400
-7.273300 0.380200
-7.259700 0.348300
-7.246000 0.319700
-7.232400 0.296000
-7.218800 0.274600
-7.205100 0.254400
-7.191500 0.235400
-7.177900 0.217400
-7.164200 0.199300
-7.150600 0.181500
-7.137000 0.164700
-7.123300 0.149100
-7.109700 0.134100
-7.096000 0.120000
-7.082400 0.106900
-7.068800 0.094800
-7.055100 0.084000
-7.041500 0.073800
-7.027900 0.063900
-7.014200 0.054400
-7.000600 0.047200
-6.987000 0.049500
-6.973300 0.056400
-6.959700 0.066300
-6.946100 0.078300
-6.932400 0.091800
-6.918800 0.106900
-6.905100 0.124400
-6.891500 0.143300
-6.877900 0.162300
-6.864200 0.181400
-6.850600 0.200900
-6.837000 0.220800
-6.823300 0.239300
-6.809700 0.255400
-6.796100 0.269400
-6.782400 0.284600
-6.768800 0.303600
-6.755200 0.326300
-6.741500 0.346400
-6.727900 0.363600
-6.714200 0.379300
-6.700600 0.394400
-6.687000 0.409900
-6.673300 0.426700
-6.659700 0.445400
-6.646100 0.465100
-6.632400 0.484600
-6.618800 0.504200
-6.605200 0.524000
-6.591500 0.544000
-6.577900 0.564200
-6.564200 0.584800
-6.550600 0.605700
-6.537000 0.624400
-6.523300 0.645400
-6.509700 0.666400
-6.496100 0.686900
-6.482400 0.705600
-6.468800 0.724700
-6.455200 0.744400
-6.441500 0.765800
-6.427900 0.787500
-6.414300 0.806700
-6.400600 0.824700
-6.387000 0.841200
-6.373300 0.856700
-6.359700 0.872000
-6.346100 0.887600
-6.332400 0.904800
-6.318800 0.925000
-6.305200 0.948900
-6.291500 0.974700
-6.277900 1.001600
-6.264300 1.029500
-6.250600 1.057700
-6.237000 1.087000
-6.223400 1.117400
-6.209700 1.147000
-6.196100 1.179000
-6.182400 1.214300
-6.168800 1.252800
-6.155200 1.299600
-6.141500 1.395500
-6.127900 1.473000
-6.114300 1.525400
-6.100600 1.548500
-6.087000 1.576300
-6.073400 1.602400
-6.059700 1.624200
-6.046100 1.642500
-6.032500 1.659800
-6.018800 1.675200
-6.005200 1.694800
-5.991500 1.707700
-5.977900 1.715000
-5.964300 1.722400
-5.950600 1.725400
-5.937000 1.738700
-5.923400 1.825500
-5.909700 1.878800
-5.896100 1.944100
-5.882500 1.910500
-5.868800 1.824100
-5.855200 1.803700
-5.841600 1.778400
-5.827900 1.795300
-5.814300 2.718000
-5.800600 2.426200
-5.787000 2.687500
-5.773400 2.960600
-5.759700 3.118600
-5.746100 3.164300
-5.732500 3.207000
-5.718800 3.200000
-5.705200 3.216200
-5.691600 3.358200
-5.677900 3.412600
-5.664300 3.433800
-5.650700 3.469100
-5.637000 3.540300
-5.623400 3.611200
-5.609700 3.562900
-5.596100 3.089700
-5.582500 2.963800
-5.568800 2.739400
-5.555200 2.445200
-5.541600 2.254900
-5.527900 2.246300
-5.514300 2.275500
-5.500700 2.021000
-5.487000 1.793800
-5.473400 1.610000
-5.459800 1.487500
-5.446100 1.418300
-5.432500 1.369900
-5.418800 1.325500
-5.405200 1.289700
-5.391600 1.256600
-5.377900 1.221900
-5.364300 1.194900
-5.350700 1.167900
-5.337000 1.140300
-5.323400 1.111500
-5.309800 1.091200
-5.296100 1.075100
-5.282500 1.076800
-5.268900 1.066700
-5.255200 1.058200
-5.241600 1.049700
-5.227900 1.074400
-5.214300 1.178700
-5.200700 1.328400
-5.187000 1.280400
-5.173400 1.236300
-5.159800 1.179500
-5.146100 1.164300
-5.132500 1.150600
-5.118900 1.133200
-5.105200 1.114700
-5.091600 1.101400
-5.078000 1.095700
-5.064300 1.136200
-5.050700 1.124600
-5.037000 0.873600
-5.023400 0.877200
-5.009800 0.880600
-4.996100 0.886600
-4.982500 0.889300
-4.968900 0.893200
-4.955200 0.896900
-4.941600 0.900100
-4.928000 0.902700
-4.914300 0.904900
-4.900700 0.907200
-4.887000 0.908200
-4.873400 0.909700
-4.859800 0.913800
-4.846100 0.919200
-4.832500 0.927500
-4.818900 0.933100
-4.805200 0.934900
-4.791600 0.942200
-4.778000 0.944600
-4.764300 0.949700
-4.750700 0.956100
-4.737100 0.968400
-4.723400 0.994600
-4.709800 1.070400
-4.696100 0.947900
-4.682500 0.837600
-4.668900 0.832400
-4.655200 0.826600
-4.641600 0.820500
-4.628000 0.814200
-4.614300 0.807900
-4.600700 0.802300
-4.587100 0.797100
-4.573400 0.792000
-4.559800 0.787000
-4.546200 0.782100
-4.532500 0.777200
-4.518900 0.772300
-4.505200 0.766600
-4.491600 0.760400
-4.478000 0.756500
-4.464300 0.752700
-4.450700 0.748800
-4.437100 0.744700
-4.423400 0.740300
-4.409800 0.735900
-4.396200 0.731200
-4.382500 0.726300
-4.368900 0.720900
-4.355300 0.714200
-4.341600 0.707500
-4.328000 0.700800
-4.314300 0.693600
-4.300700 0.687300
-4.287100 0.680900
-4.273400 0.675800
-4.259800 0.671200
-4.246200 0.666900
-4.232500 0.662800
-4.218900 0.658800
-4.205300 0.655100
-4.191600 0.651600
-4.178000 0.648500
-4.164400 0.645500
-4.150700 0.642400
-4.137100 0.639200
-4.123400 0.635900
-4.109800 0.632500
-4.096200 0.628700
-4.082500 0.624200
-4.068900 0.616600
-4.055300 0.612400
-4.041600 0.608600
-4.028000 0.605000
-4.014400 0.601500
-4.000700 0.597900
-3.987100 0.594200
-3.973500 0.590600
-3.959800 0.587000
-3.946200 0.583400
-3.932500 0.580000
-3.918900 0.576700
-3.905300 0.573600
-3.891600 0.570700
-3.878000 0.567300
-3.864400 0.563500
-3.850700 0.559400
-3.837100 0.555300
-3.823500 0.551100
-3.809800 0.546900
-3.796200 0.542500
-3.782600 0.538000
-3.768900 0.533500
-3.755300 0.528800
-3.741600 0.524300
-3.728000 0.520300
-3.714400 0.516300
-3.700700 0.512700
-3.687100 0.509000
-3.673500 0.505100
-3.659800 0.501700
-3.646200 0.498600
-3.632600 0.496100
-3.618900 0.494100
-3.605300 0.492100
-3.591700 0.490100
-3.578000 0.488000
-3.564400 0.485900
-3.550700 0.483800
-3.537100 0.482000
-3.523500 0.475900
-3.509800 0.474200
-3.496200 0.472900
-3.482600 0.471000
-3.468900 0.468900
-3.455300 0.466200
-3.441700 0.462700
-3.428000 0.458600
-3.414400 0.454600
-3.400800 0.450900
-3.387100 0.447400
-3.373500 0.444000
-3.359800 0.440900
-3.346200 0.438200
-3.332600 0.435100
-3.318900 0.432000
-3.305300 0.428900
-3.291700 0.425600
-3.278000 0.422100
-3.264400 0.418600
-3.250800 0.414900
-3.237100 0.411000
-3.223500 0.407600
-3.209900 0.405200
-3.196200 0.403100
-3.182600 0.401500
-3.168900 0.400200
-3.155300 0.399300
-3.141700 0.398200
-3.128000 0.397100
-3.114400 0.396400
-3.100800 0.393500
-3.087100 0.389600
-3.073500 0.385900
-3.059900 0.382300
-3.046200 0.378300
-3.032600 0.375400
-3.018900 0.372100
-3.005300 0.369400
-2.991700 0.367200
-2.978000 0.365200
-2.964400 0.363400
-2.950800 0.362600
-2.937100 0.366300
-2.923500 0.369000
-2.909900 0.369700
-2.896200 0.367900
-2.882600 0.363000
-2.869000 0.357100
-2.855300 0.350300
-2.841700 0.343000
-2.828000 0.335300
-2.814400 0.327300
-2.800800 0.318900
-2.787100 0.310300
-2.773500 0.299600
-2.759900 0.282800
-2.746200 0.264700
-2.732600 0.247900
-2.719000 0.234000
-2.705300 0.222900
-2.691700 0.212600
-2.678100 0.202300
-2.664400 0.191700
-2.650800 0.180900
-2.637100 0.170600
-2.623500 0.161100
-2.609900 0.152500
-2.596200 0.145600
-2.582600 0.140100
-2.569000 0.134600
-2.555300 0.127600
-2.541700 0.118500
-2.528100 0.107500
-2.514400 0.096100
-2.500800 0.084800
-2.487200 0.073900
-2.473500 0.063300
-2.459900 0.052900
-2.446200 0.041500
-2.432600 0.030100
-2.419000 0.019700
-2.405300 0.010200
-2.391700 0.003600
-2.378100 0.000400
-2.364400 0.000000
-2.350800 0.000000
-2.337200 0.000000
-2.323500 0.000000
-2.309900 0.000000
-2.296300 0.000000
-2.282600 0.000000
-2.269000 0.000000
-2.255300 0.000000
-2.241700 0.000000
-2.228100 0.000000
-2.214400 0.000000
-2.200800 0.000000
-2.187200 0.000000
-2.173500 0.000000
-2.159900 0.000000
-2.146300 0.000000
-2.132600 0.000000
-2.119000 0.000000
-2.105400 0.000000
-2.091700 0.000000
-2.078100 0.000000
-2.064400 0.000000
-2.050800 0.000000
-2.037200 0.000000
-2.023500 0.000000
-2.009900 0.000000
-1.996300 0.000000
-1.982600 0.000000
-1.969000 0.000000
-1.955400 0.000000
-1.941700 0.000000
-1.928100 0.000000
-1.914500 0.000000
-1.900800 0.000000
-1.887200 0.000000
-1.873500 0.000000
-1.859900 0.000000
-1.846300 0.000000
-1.832600 0.000000
-1.819000 0.000000
-1.805400 0.000000
-1.791700 0.000000
-1.778100 0.000000
-1.764500 0.000000
-1.750800 0.000000
-1.737200 0.000000
-1.723600 0.000000
-1.709900 0.000000
-1.696300 0.000000
-1.682600 0.000000
-1.669000 0.000000
-1.655400 0.000000
-1.641700 0.000000
-1.628100 0.000000
-1.614500 0.000000
-1.600800 0.003500
-1.587200 0.015000
-1.573600 0.034400
-1.559900 0.057200
-1.546300 0.081200
-1.532700 0.109600
-1.519000 0.185600
-1.505400 0.284500
-1.491700 0.397800
-1.478100 0.665200
-1.464500 0.647900
-1.450800 0.671500
-1.437200 0.689800
-1.423600 0.743100
-1.409900 0.797900
-1.396300 0.855700
-1.382700 0.899600
-1.369000 0.931300
-1.355400 0.970700
-1.341700 1.007700
-1.328100 1.052300
-1.314500 1.223900
-1.300800 1.266900
-1.287200 1.301500
-1.273600 1.346600
-1.259900 1.403800
-1.246300 1.470700
-1.232700 1.543200
-1.219000 1.614400
-1.205400 1.700600
-1.191800 1.803800
-1.178100 1.942300
-1.164500 2.079200
-1.150800 2.168600
-1.137200 2.290400
-1.123600 2.371100
-1.109900 2.397100
-1.096300 2.440800
-1.082700 2.508700
-1.069000 2.427500
-1.055400 2.216600
-1.041800 2.193600
-1.028100 2.286800
-1.014500 2.242500
-1.000900 2.192300
-0.987200 2.218500
-0.973600 2.263700
-0.959900 2.290900
-0.946300 2.302700
-0.932700 2.333100
-0.919000 2.358000
-0.905400 2.398000
-0.891800 2.415700
-0.878100 2.339500
-0.864500 2.266200
-0.850900 2.202000
-0.837200 2.153900
-0.823600 2.119400
-0.810000 2.100900
-0.796300 2.082600
-0.782700 2.060100
-0.769000 2.035200
-0.755400 2.019500
-0.741800 2.006800
-0.728100 1.996500
-0.714500 1.989800
-0.700900 1.985600
-0.687200 1.976400
-0.673600 1.979600
-0.660000 1.988800
-0.646300 2.001600
-0.632700 2.016700
-0.619100 2.039700
-0.605400 2.050600
-0.591800 2.055000
-0.578100 2.061000
-0.564500 2.077400
-0.550900 2.104100
-0.537200 2.137200
-0.523600 2.167800
-0.510000 2.212800
-0.496300 2.265900
-0.482700 2.334200
-0.469100 2.409700
-0.455400 2.492600
-0.441800 2.549400
-0.428200 2.624800
-0.414500 2.681000
-0.400900 2.693700
-0.387200 2.698200
-0.373600 2.652300
-0.360000 2.639200
-0.346300 2.696300
-0.332700 2.697800
-0.319100 2.724100
-0.305400 2.795500
-0.291800 2.989900
-0.278200 3.175800
-0.264500 3.274700
-0.250900 3.333200
-0.237300 3.341800
-0.223600 3.373200
-0.210000 3.309700
-0.196300 3.308400
-0.182700 3.328600
-0.169100 3.365100
-0.155400 3.427400
-0.141800 3.502900
-0.128200 3.458500
-0.114500 3.433000
-0.100900 3.370800
-0.087300 3.333400
-0.073600 3.280800
-0.060000 3.148200
-0.046400 3.057000
-0.032700 2.878500
-0.019100 2.810900
-0.005400 2.753000
0.008200 2.705600
0.021800 2.663400
0.035500 2.635100
0.049100 2.648700
0.062700 2.670500
0.076400 2.749800
0.090000 2.788700
0.103600 2.822600
0.117300 2.859300
0.130900 2.877600
0.144500 2.839900
0.158200 2.714900
0.171800 2.598600
0.185500 2.489500
0.199100 2.397300
0.212700 2.291500
0.226400 2.177100
0.240000 2.092900
0.253600 2.055500
0.267300 2.039400
0.280900 2.031100
0.294500 2.018000
0.308200 2.002000
0.321800 1.984900
0.335400 1.975900
0.349100 1.926700
0.362700 1.899400
0.376400 1.896000
0.390000 1.901900
0.403600 1.916500
0.417300 1.933500
0.430900 1.948600
0.444500 1.961600
0.458200 1.979600
0.471800 1.999100
0.485400 2.018100
0.499100 2.092300
0.512700 2.096100
0.526400 2.096400
0.540000 2.107200
0.553600 2.121000
0.567300 2.138300
0.580900 2.161400
0.594500 2.185400
0.608200 2.210700
0.621800 2.236500
0.635400 2.261400
0.649100 2.295900
0.662700 2.331800
0.676300 2.365000
0.690000 2.398800
0.703600 2.435200
0.717300 2.487300
0.730900 2.557400
0.744500 2.621100
0.758200 2.666500
0.771800 2.710000
0.785400 2.780200
0.799100 2.867400
0.812700 2.948700
0.826300 2.985600
0.840000 3.008900
0.853600 3.035100
0.867200 3.046200
0.880900 3.048100
0.894500 3.038300
0.908200 3.010500
0.921800 3.038500
0.935400 2.900100
0.949100 2.831800
0.962700 2.764300
0.976300 2.684900
0.990000 2.643100
1.003600 2.613900
1.017200 2.588800
1.030900 2.595700
1.044500 2.646700
1.058100 2.660300
1.071800 2.667500
1.085400 2.673300
1.099100 2.710500
1.112700 2.691800
1.126300 2.683100
1.140000 2.656400
1.153600 2.676700
1.167200 2.711000
1.180900 2.755800
1.194500 2.870800
1.208100 3.026500
1.221800 3.215500
1.235400 3.291900
1.249000 3.179600
1.262700 3.171700
1.276300 3.226400
1.290000 3.261600
1.303600 3.232200
1.317200 3.143400
1.330900 3.023800
1.344500 2.968400
1.358100 2.888600
1.371800 2.761500
1.385400 2.634600
1.399000 2.603000
1.412700 2.472300
1.426300 2.422200
1.439900 2.380200
1.453600 2.350400
1.467200 2.331800
1.480900 2.321400
1.494500 2.312700
1.508100 2.302000
1.521800 2.298700
1.535400 2.292400
1.549000 2.285500
1.562700 2.267800
1.576300 2.265300
1.589900 2.259900
1.603600 2.270900
1.617200 2.305800
1.630800 2.366500
1.644500 2.446900
1.658100 2.514900
1.671800 2.591300
1.685400 2.693100
1.699000 2.761900
1.712700 2.805700
1.726300 2.855900
1.739900 2.879600
1.753600 2.830100
1.767200 2.827200
1.780800 2.835600
1.794500 2.863400
1.808100 2.894300
1.821700 2.952500
1.835400 2.978800
1.849000 3.036500
1.862700 2.850800
1.876300 2.765800
1.889900 2.718300
1.903600 2.699500
1.917200 2.686400
1.930800 2.679700
1.944500 2.682600
1.958100 2.709700
1.971700 2.781700
1.985400 2.880000
1.999000 2.964700
2.012600 3.074200
2.026300 3.300900
2.039900 3.303400
2.053600 3.299000
2.067200 3.275000
2.080800 3.236300
2.094500 3.241700
2.108100 3.263000
2.121700 3.284300
2.135400 3.314700
2.149000 3.357700
2.162600 3.431100
2.176300 3.496100
2.189900 3.577500
2.203600 3.677400
2.217200 3.635400
2.230800 3.604500
2.244500 3.707400
2.258100 4.000700
2.271700 4.211300
2.285400 4.212100
2.299000 3.993200
2.312600 3.968400
2.326300 3.990800
2.339900 3.991100
2.353500 3.993600
2.367200 4.126800
2.380800 4.004700
2.394500 3.673200
2.408100 3.537800
2.421700 3.475600
2.435400 3.411500
2.449000 3.345100
2.462600 3.295300
2.476300 3.284100
2.489900 3.327300
2.503500 3.330600
2.517200 3.094500
2.530800 2.953600
