set title 'mp-1187812 - Density of States'
set xlabel 'Energy (eV)'
set ylabel 'DOS (states/eV)'
set grid
set xrange [-10:10]
set yrange [0:35.295]
set xzeroaxis lt -1
set terminal png size 800,600
set output 'mp-1187812_dos_gnuplot.png'
plot '-' using 1:2 with lines title 'DOS'
-9.865500 0.000000
-9.837100 0.000000
-9.808600 0.000000
-9.780100 0.000000
-9.751600 0.000000
-9.723200 0.000000
-9.694700 0.000000
-9.666200 0.000000
-9.637700 0.000000
-9.609300 0.000000
-9.580800 0.000000
-9.552300 0.000000
-9.523900 0.000000
-9.495400 0.000000
-9.466900 0.000000
-9.438400 0.000000
-9.410000 0.000000
-9.381500 0.000000
-9.353000 0.000000
-9.324500 0.000000
-9.296100 0.000000
-9.267600 0.000000
-9.239100 0.000000
-9.210600 0.000000
-9.182200 0.000000
-9.153700 0.000000
-9.125200 0.000000
-9.096800 0.000000
-9.068300 0.000000
-9.039800 0.000000
-9.011300 0.000000
-8.982900 0.000000
-8.954400 0.000000
-8.925900 0.000000
-8.897400 0.000000
-8.869000 0.000000
-8.840500 0.000000
-8.812000 0.000000
-8.783600 0.000000
-8.755100 0.000000
-8.726600 0.000000
-8.698100 0.000000
-8.669700 0.000000
-8.641200 0.000000
-8.612700 0.000000
-8.584200 0.000000
-8.555800 0.000000
-8.527300 0.000000
-8.498800 0.000000
-8.470300 0.000000
-8.441900 0.000000
-8.413400 0.000000
-8.384900 0.000000
-8.356500 0.000000
-8.328000 0.000000
-8.299500 0.000000
-8.271000 0.000000
-8.242600 0.000000
-8.214100 0.000000
-8.185600 0.000000
-8.157100 0.000000
-8.128700 0.000000
-8.100200 0.000000
-8.071700 0.000000
-8.043300 0.000000
-8.014800 0.000000
-7.986300 0.000000
-7.957800 0.000000
-7.929400 0.000000
-7.900900 0.000000
-7.872400 0.000000
-7.843900 0.000000
-7.815500 0.000000
-7.787000 0.000000
-7.758500 0.000000
-7.730000 0.000000
-7.701600 0.000000
-7.673100 0.000000
-7.644600 0.000000
-7.616200 0.000000
-7.587700 0.000000
-7.559200 0.000000
-7.530700 0.000000
-7.502300 0.000000
-7.473800 0.000000
-7.445300 0.000000
-7.416800 0.000000
-7.388400 0.000000
-7.359900 0.000000
-7.331400 0.000000
-7.302900 0.000000
-7.274500 0.000100
-7.246000 0.009200
-7.217500 0.025700
-7.189100 0.047200
-7.160600 0.072000
-7.132100 0.100300
-7.103600 0.131200
-7.075200 0.123600
-7.046700 0.128500
-7.018200 0.136100
-6.989700 0.144100
-6.961300 0.153100
-6.932800 0.161700
-6.904300 0.170500
-6.875900 0.180100
-6.847400 0.189600
-6.818900 0.198800
-6.790400 0.208000
-6.762000 0.217700
-6.733500 0.226900
-6.705000 0.236500
-6.676500 0.244700
-6.648100 0.251000
-6.619600 0.255700
-6.591100 0.258800
-6.562600 0.259700
-6.534200 0.263000
-6.505700 0.272200
-6.477200 0.283000
-6.448800 0.293600
-6.420300 0.301300
-6.391800 0.308200
-6.363300 0.315600
-6.334900 0.323500
-6.306400 0.332100
-6.277900 0.340900
-6.249400 0.349900
-6.221000 0.358800
-6.192500 0.367500
-6.164000 0.376400
-6.135600 0.385800
-6.107100 0.396200
-6.078600 0.406200
-6.050100 0.417700
-6.021700 0.429600
-5.993200 0.442200
-5.964700 0.455200
-5.936200 0.469700
-5.907800 0.485900
-5.879300 0.502500
-5.850800 0.519500
-5.822300 0.537100
-5.793900 0.556900
-5.765400 0.581300
-5.736900 0.607500
-5.708500 0.634600
-5.680000 0.664100
-5.651500 0.700900
-5.623000 0.743600
-5.594600 0.788200
-5.566100 0.846000
-5.537600 0.907300
-5.509100 1.009800
-5.480700 1.228600
-5.452200 1.473100
-5.423700 1.609600
-5.395300 1.552300
-5.366800 1.688000
-5.338300 1.878400
-5.309800 2.131800
-5.281400 5.417900
-5.252900 10.188300
-5.224400 12.413200
-5.195900 12.574400
-5.167500 12.160100
-5.139000 12.084000
-5.110500 12.557200
-5.082000 14.121900
-5.053600 16.201600
-5.025100 16.624500
-4.996600 16.939900
-4.968200 20.195300
-4.939700 17.821100
-4.911200 18.563200
-4.882700 16.932000
-4.854300 17.489700
-4.825800 19.022500
-4.797300 18.463600
-4.768800 20.461300
-4.740400 32.086600
-4.711900 17.778700
-4.683400 17.540700
-4.654900 18.028000
-4.626500 16.954500
-4.598000 15.867800
-4.569500 25.545600
-4.541100 15.710100
-4.512600 17.441600
-4.484100 19.999300
-4.455600 20.326600
-4.427200 21.532500
-4.398700 20.708700
-4.370200 23.403600
-4.341700 28.094500
-4.313300 27.671800
-4.284800 25.151400
-4.256300 24.797800
-4.227900 23.194800
-4.199400 26.249800
-4.170900 28.306200
-4.142400 25.555300
-4.114000 25.867800
-4.085500 27.122200
-4.057000 28.593100
-4.028500 26.149300
-4.000100 28.725000
-3.971600 23.034200
-3.943100 19.762400
-3.914600 18.256600
-3.886200 20.214400
-3.857700 23.665700
-3.829200 11.987600
-3.800800 8.773800
-3.772300 4.997500
-3.743800 0.896100
-3.715300 0.843000
-3.686900 0.808000
-3.658400 0.780900
-3.629900 0.758100
-3.601400 0.741500
-3.573000 0.734800
-3.544500 0.728900
-3.516000 0.718500
-3.487600 0.701200
-3.459100 0.695000
-3.430600 0.689900
-3.402100 0.685700
-3.373700 0.682300
-3.345200 0.679500
-3.316700 0.677300
-3.288200 0.676500
-3.259800 0.678600
-3.231300 0.682100
-3.202800 0.684300
-3.174300 0.685300
-3.145900 0.684900
-3.117400 0.684300
-3.088900 0.683600
-3.060500 0.674300
-3.032000 0.666900
-3.003500 0.661300
-2.975000 0.656400
-2.946600 0.651500
-2.918100 0.646900
-2.889600 0.643600
-2.861100 0.641400
-2.832700 0.639700
-2.804200 0.638500
-2.775700 0.637300
-2.747300 0.636500
-2.718800 0.636000
-2.690300 0.635700
-2.661800 0.635000
-2.633400 0.633800
-2.604900 0.632100
-2.576400 0.631800
-2.547900 0.633200
-2.519500 0.634300
-2.491000 0.635400
-2.462500 0.636500
-2.434000 0.637900
-2.405600 0.639700
-2.377100 0.641400
-2.348600 0.643100
-2.320200 0.644900
-2.291700 0.646800
-2.263200 0.648700
-2.234700 0.650400
-2.206300 0.652000
-2.177800 0.653400
-2.149300 0.654800
-2.120800 0.656500
-2.092400 0.658200
-2.063900 0.660000
-2.035400 0.661900
-2.006900 0.663800
-1.978500 0.665600
-1.950000 0.667500
-1.921500 0.669500
-1.893100 0.671400
-1.864600 0.673200
-1.836100 0.675100
-1.807600 0.677000
-1.779200 0.678300
-1.750700 0.678900
-1.722200 0.679000
-1.693700 0.678900
-1.665300 0.679000
-1.636800 0.679900
-1.608300 0.681000
-1.579900 0.682100
-1.551400 0.683200
-1.522900 0.684300
-1.494400 0.685500
-1.466000 0.686600
-1.437500 0.687700
-1.409000 0.688900
-1.380500 0.690000
-1.352100 0.691200
-1.323600 0.692400
-1.295100 0.693700
-1.266600 0.695000
-1.238200 0.696400
-1.209700 0.698100
-1.181200 0.699900
-1.152800 0.702000
-1.124300 0.704200
-1.095800 0.706600
-1.067300 0.708700
-1.038900 0.710900
-1.010400 0.713200
-0.981900 0.715500
-0.953400 0.717800
-0.925000 0.720200
-0.896500 0.722600
-0.868000 0.725000
-0.839600 0.727400
-0.811100 0.729900
-0.782600 0.732400
-0.754100 0.734700
-0.725700 0.737000
-0.697200 0.739100
-0.668700 0.741700
-0.640200 0.744900
-0.611800 0.748800
-0.583300 0.752900
-0.554800 0.756900
-0.526300 0.760500
-0.497900 0.763900
-0.469400 0.767100
-0.440900 0.770800
-0.412500 0.779400
-0.384000 0.790700
-0.355500 0.797900
-0.327000 0.802800
-0.298600 0.806700
-0.270100 0.809700
-0.241600 0.813400
-0.213100 0.818500
-0.184700 0.824100
-0.156200 0.828500
-0.127700 0.831500
-0.099300 0.833200
-0.070800 0.833000
-0.042300 0.832600
-0.013800 0.831600
0.014600 0.829800
0.043100 0.827200
0.071600 0.824000
0.100100 0.820800
0.128500 0.817800
0.157000 0.814900
0.185500 0.812300
0.214000 0.818200
0.242400 0.887000
0.270900 0.880900
0.299400 0.894400
0.327800 0.901800
0.356300 0.907300
0.384800 0.911000
0.413300 0.913500
0.441700 0.920300
0.470200 0.924200
0.498700 0.924100
0.527200 0.920300
0.555600 0.912600
0.584100 0.904500
0.612600 0.898100
0.641000 0.887200
0.669500 0.875600
0.698000 0.857400
0.726500 0.835600
0.754900 0.822200
0.783400 0.814000
0.811900 0.809800
0.840400 0.809500
0.868800 0.812000
0.897300 0.815300
0.925800 0.818900
0.954300 0.823600
0.982700 0.830000
1.011200 0.837400
1.039700 0.845700
1.068100 0.855200
1.096600 0.881500
1.125100 0.908900
1.153600 0.961700
1.182000 0.910900
1.210500 0.887600
1.239000 0.860000
1.267500 0.834300
1.295900 0.810600
1.324400 0.790400
1.352900 0.775900
1.381400 0.763100
1.409800 0.751300
1.438300 0.741300
1.466800 0.735300
1.495200 0.739200
1.523700 0.751200
1.552200 0.778600
1.580700 0.808300
1.609100 0.833600
1.637600 0.854400
1.666100 0.875200
1.694600 0.900200
1.723000 0.942100
1.751500 1.002200
1.780000 1.047900
1.808400 1.116300
1.836900 0.975900
1.865400 0.997400
1.893900 1.142400
1.922300 1.127900
1.950800 1.052700
1.979300 1.028600
2.007800 1.010500
2.036200 0.988800
2.064700 0.972300
2.093200 0.981200
2.121700 0.974900
2.150100 0.929000
2.178600 0.862700
2.207100 0.835500
2.235500 0.834900
2.264000 0.842100
2.292500 0.829700
2.321000 0.776700
2.349400 0.740400
2.377900 0.721400
2.406400 0.710100
2.434900 0.697900
2.463300 0.705100
2.491800 0.711200
2.520300 0.725800
2.548700 0.754400
2.577200 0.794400
2.605700 0.829100
2.634200 0.890200
2.662600 0.947200
2.691100 0.802600
2.719600 0.750100
2.748100 0.748600
2.776500 0.738200
2.805000 0.722400
2.833500 0.707700
2.862000 0.694000
2.890400 0.680800
2.918900 0.668200
2.947400 0.655000
2.975800 0.641200
3.004300 0.631200
3.032800 0.620200
3.061300 0.604100
3.089700 0.585100
3.118200 0.558600
3.146700 0.547200
3.175200 0.548800
3.203600 0.556600
3.232100 0.570500
3.260600 0.583100
3.289000 0.590600
3.317500 0.596700
3.346000 0.602200
3.374500 0.607100
3.402900 0.611500
3.431400 0.615500
3.459900 0.617600
3.488400 0.622800
3.516800 0.633200
3.545300 0.641700
3.573800 0.649200
3.602300 0.657600
3.630700 0.673000
3.659200 0.693500
3.687700 0.717100
3.716100 0.740100
3.744600 0.762100
3.773100 0.788600
3.801600 0.832700
3.830000 0.897800
3.858500 0.935400
3.887000 0.919600
3.915500 0.877200
3.943900 0.845000
3.972400 0.842800
4.000900 0.856500
4.029400 0.845600
4.057800 1.087800
4.086300 0.888700
4.114800 0.805800
4.143200 0.822700
4.171700 0.839300
4.200200 0.857400
4.228700 0.887100
4.257100 0.927100
4.285600 0.953500
4.314100 0.962400
4.342600 0.943600
4.371000 0.978600
4.399500 1.016700
4.428000 1.050900
4.456400 1.084800
4.484900 1.112800
4.513400 1.135700
4.541900 1.152100
4.570300 1.184000
4.598800 1.241600
4.627300 1.468800
4.655800 1.299300
4.684200 1.213600
4.712700 1.183000
4.741200 1.165000
4.769700 1.143800
4.798100 1.107300
4.826600 1.071800
4.855100 1.054900
4.883500 1.053200
4.912000 1.063100
4.940500 1.076900
4.969000 1.090000
4.997400 1.101200
5.025900 1.109700
5.054400 1.114100
5.082900 1.163500
5.111300 1.154400
5.139800 1.098300
5.168300 1.087200
5.196700 1.062300
5.225200 1.040400
5.253700 1.029800
5.282200 1.021800
5.310600 1.009900
5.339100 1.000000
5.367600 0.993200
5.396100 0.988900
5.424500 0.986500
5.453000 0.982700
5.481500 0.981500
5.510000 0.966100
5.538400 0.934100
5.566900 0.925500
5.595400 0.929800
5.623800 0.938200
5.652300 0.940400
5.680800 0.925100
5.709300 0.915700
5.737700 0.927600
5.766200 0.941700
5.794700 0.972400
5.823200 0.982600
5.851600 0.984900
5.880100 0.989000
5.908600 0.994500
5.937000 1.000500
5.965500 1.005400
5.994000 1.008300
6.022500 1.005200
6.050900 0.995400
6.079400 0.988300
6.107900 0.986100
6.136400 0.988400
6.164800 0.992000
6.193300 0.995600
6.221800 0.999000
6.250300 1.002200
6.278700 1.004700
6.307200 1.006600
6.335700 1.008100
6.364100 1.011000
6.392600 1.020400
6.421100 1.033900
6.449600 1.119800
6.478000 1.162500
6.506500 1.164300
6.535000 1.167700
6.563500 1.170700
6.591900 1.177100
6.620400 1.181000
6.648900 1.181400
6.677300 1.171200
6.705800 1.148500
6.734300 1.131700
6.762800 1.120900
6.791200 1.111000
6.819700 1.097400
6.848200 1.082400
6.876700 1.068400
6.905100 1.055300
6.933600 1.047200
6.962100 1.048000
6.990600 1.052000
7.019000 1.078000
7.047500 1.120500
7.076000 1.126600
7.104400 1.114500
7.132900 1.097100
7.161400 1.083900
7.189900 1.077000
7.218300 1.076700
7.246800 1.083200
7.275300 1.093400
7.303800 1.105900
7.332200 1.121600
7.360700 1.143800
7.389200 1.160300
7.417700 1.171800
7.446100 1.187200
7.474600 1.202700
7.503100 1.217900
7.531500 1.224600
7.560000 1.217800
7.588500 1.206500
7.617000 1.194400
7.645400 1.199100
7.673900 1.210100
7.702400 1.220600
7.730900 1.230200
7.759300 1.239200
7.787800 1.247000
7.816300 1.236300
7.844700 1.232900
7.873200 1.229700
7.901700 1.222700
7.930200 1.215500
7.958600 1.210200
7.987100 1.204000
8.015600 1.195400
8.044100 1.186900
8.072500 1.182300
8.101000 1.180600
8.129500 1.182700
8.158000 1.189400
8.186400 1.163400
8.214900 1.131100
8.243400 1.111300
8.271800 1.097800
8.300300 1.089000
8.328800 1.082300
8.357300 1.077700
8.385700 1.075700
8.414200 1.075200
8.442700 1.076100
8.471200 1.078800
8.499600 1.082900
8.528100 1.074600
8.556600 1.068300
8.585000 1.065200
8.613500 1.065300
8.642000 1.068400
8.670500 1.069400
8.698900 1.068800
8.727400 1.070000
8.755900 1.073000
8.784400 1.077700
8.812800 1.084300
8.841300 1.092100
8.869800 1.102800
8.898300 1.118700
8.926700 1.144600
8.955200 1.181000
8.983700 1.215400
9.012100 1.236700
9.040600 1.259300
9.069100 1.281900
9.097600 1.304700
9.126000 1.302900
9.154500 1.264300
9.183000 1.241100
9.211500 1.228600
9.239900 1.222700
9.268400 1.220100
9.296900 1.221100
9.325300 1.224900
9.353800 1.235300
9.382300 1.250100
9.410800 1.264300
9.439200 1.276600
9.467700 1.285400
9.496200 1.289500
9.524700 1.287900
9.553100 1.279300
9.581600 1.266900
9.610100 1.253800
9.638600 1.225200
9.667000 1.178000
9.695500 1.137600
9.724000 1.124000
9.752400 1.101800
9.780900 1.085700
9.809400 1.088400
9.837900 1.093600
9.866300 1.100900
9.894800 1.110300
9.923300 1.123300
9.951800 1.140900
9.980200 1.161900
10.008700 1.188200
10.037200 1.211100
10.065700 1.231500
10.094100 1.249100
10.122600 1.263700
10.151100 1.275000
10.179500 1.289200
10.208000 1.304900
10.236500 1.321300
10.265000 1.339600
10.293400 1.355800
10.321900 1.376900
10.350400 1.397300
10.378900 1.375800
10.407300 1.353700
10.435800 1.342300
10.464300 1.315000
10.492700 1.288000
10.521200 1.259300
10.549700 1.235300
10.578200 1.218400
10.606600 1.207400
10.635100 1.199900
10.663600 1.196400
10.692100 1.195100
10.720500 1.193700
10.749000 1.195000
10.777500 1.194800
10.806000 1.185800
10.834400 1.171500
10.862900 1.153000
10.891400 1.140300
10.919800 1.134700
10.948300 1.188600
10.976800 1.134800
11.005300 1.152700
11.033700 1.172400
11.062200 1.189400
11.090700 1.199800
11.119200 1.203900
11.147600 1.206000
11.176100 1.207300
11.204600 1.206300
11.233000 1.206200
11.261500 1.212800
11.290000 1.219700
11.318500 1.225300
11.346900 1.236500
11.375400 1.235500
11.403900 1.231300
11.432400 1.215800
11.460800 1.206900
11.489300 1.225900
11.517800 1.258700
11.546300 1.291700
11.574700 1.304600
11.603200 1.300300
11.631700 1.320000
11.660100 1.343000
11.688600 1.365600
11.717100 1.386400
11.745600 1.406600
11.774000 1.429100
11.802500 1.453100
11.831000 1.472300
11.859500 1.490700
11.887900 1.514600
11.916400 1.538100
11.944900 1.546500
11.973300 1.550200
12.001800 1.559200
12.030300 1.567500
12.058800 1.575400
12.087200 1.581100
12.115700 1.583500
12.144200 1.583300
12.172700 1.590500
12.201100 1.602400
12.229600 1.605900
12.258100 1.599300
12.286600 1.585300
12.315000 1.566900
12.343500 1.548200
12.372000 1.530400
12.400400 1.515600
12.428900 1.505300
12.457400 1.499000
12.485900 1.496000
12.514300 1.495500
12.542800 1.499000
12.571300 1.494900
12.599800 1.479900
12.628200 1.462400
12.656700 1.461300
12.685200 1.505200
12.713600 1.492200
12.742100 1.486600
12.770600 1.480300
12.799100 1.475100
12.827500 1.468600
12.856000 1.458800
12.884500 1.448300
12.913000 1.438400
12.941400 1.427500
12.969900 1.415000
12.998400 1.408600
13.026900 1.407500
13.055300 1.406700
13.083800 1.405200
13.112300 1.403300
13.140700 1.397800
13.169200 1.426500
13.197700 1.406100
13.226200 1.398700
13.254600 1.395500
13.283100 1.395100
13.311600 1.397700
13.340100 1.403400
13.368500 1.412200
13.397000 1.422100
13.425500 1.437600
13.454000 1.452200
13.482400 1.464300
13.510900 1.479600
13.539400 1.516300
13.567800 1.554200
13.596300 1.576900
13.624800 1.594800
13.653300 1.538800
13.681700 1.540400
13.710200 1.542600
13.738700 1.541300
13.767200 1.538200
13.795600 1.536400
13.824100 1.542400
13.852600 1.562900
13.881000 1.571000
13.909500 1.564800
13.938000 1.542700
13.966500 1.522600
13.994900 1.511800
14.023400 1.505700
14.051900 1.501600
14.080400 1.499100
14.108800 1.497800
14.137300 1.495600
14.165800 1.492100
14.194300 1.487200
14.222700 1.480900
14.251200 1.474200
14.279700 1.464500
14.308100 1.455300
14.336600 1.452600
14.365100 1.449000
14.393600 1.440700
14.422000 1.436600
14.450500 1.438500
14.479000 1.439100
14.507500 1.437900
14.535900 1.436600
14.564400 1.435400
14.592900 1.440100
14.621300 1.445000
14.649800 1.450300
14.678300 1.455300
14.706800 1.460500
14.735200 1.466100
14.763700 1.471700
14.792200 1.476500
14.820700 1.481600
14.849100 1.490900
14.877600 1.505600
14.906100 1.519000
14.934600 1.526700
14.963000 1.523300
14.991500 1.515300
15.020000 1.496900
15.048400 1.463700
15.076900 1.415300
15.105400 1.355400
15.133900 1.288300
15.162300 1.271500
15.190800 1.256600
15.219300 1.242800
15.247800 1.230100
15.276200 1.218800
15.304700 1.209000
15.333200 1.200100
15.361600 1.191800
15.390100 1.184100
15.418600 1.177300
15.447100 1.171400
15.475500 1.166300
15.504000 1.161600
15.532500 1.156900
15.561000 1.152100
15.589400 1.147800
15.617900 1.146800
15.646400 1.145800
15.674900 1.143300
15.703300 1.139300
15.731800 1.134000
15.760300 1.127300
15.788700 1.120900
15.817200 1.115100
15.845700 1.109700
15.874200 1.105300
15.902600 1.104000
15.931100 1.103800
15.959600 1.104000
15.988100 1.106000
16.016500 1.110200
16.045000 1.120200
16.073500 1.132000
16.102000 1.141300
16.130400 1.147900
16.158900 1.152700
16.187400 1.161600
16.215800 1.175700
16.244300 1.188900
16.272800 1.194000
16.301300 1.191400
16.329700 1.180900
16.358200 1.162800
16.386700 1.137500
16.415200 1.109700
16.443600 1.102000
16.472100 1.100900
16.500600 1.101600
16.529000 1.104000
16.557500 1.108900
16.586000 1.115600
16.614500 1.124800
16.642900 1.136600
16.671400 1.151200
16.699900 1.167900
16.728400 1.186500
16.756800 1.206000
16.785300 1.214800
16.813800 1.237400
16.842300 1.256300
16.870700 1.267300
16.899200 1.264400
16.927700 1.195600
16.956100 1.180900
16.984600 1.178600
17.013100 1.178300
17.041600 1.180400
17.070000 1.184000
17.098500 1.188600
17.127000 1.193800
17.155500 1.201100
17.183900 1.209200
17.212400 1.216600
17.240900 1.225400
17.269300 1.240500
17.297800 1.252200
17.326300 1.259600
17.354800 1.264300
17.383200 1.281000
17.411700 1.307600
17.440200 1.345700
17.468700 1.360200
17.497100 1.364600
17.525600 1.365000
17.554100 1.365300
17.582600 1.382500
17.611000 1.412200
17.639500 1.422900
17.668000 1.420300
17.696400 1.425400
17.724900 1.430000
17.753400 1.442100
17.781900 1.514300
17.810300 1.433900
17.838800 1.437800
17.867300 1.441900
17.895800 1.442600
17.924200 1.439600
17.952700 1.430700
17.981200 1.419100
18.009600 1.406600
18.038100 1.387000
18.066600 1.382100
18.095100 1.381300
18.123500 1.382100
18.152000 1.382000
18.180500 1.375800
18.209000 1.368000
18.237400 1.361700
18.265900 1.356700
18.294400 1.355400
18.322900 1.367300
18.351300 1.370600
18.379800 1.371500
18.408300 1.381400
18.436700 1.384100
18.465200 1.385800
18.493700 1.390700
18.522200 1.399700
18.550600 1.408600
18.579100 1.415400
18.607600 1.417800
18.636100 1.418600
18.664500 1.420100
18.693000 1.421100
18.721500 1.418500
18.749900 1.418200
18.778400 1.418400
18.806900 1.409600
18.835400 1.396800
18.863800 1.385600
18.892300 1.374400
18.920800 1.358600
18.949300 1.339500
18.977700 1.320300
19.006200 1.316000
19.034700 1.318400
19.063200 1.317900
19.091600 1.320100
19.120100 1.326500
19.148600 1.337400
19.177000 1.354000
19.205500 1.374700
19.234000 1.397200
19.262500 1.421300
19.290900 1.447000
19.319400 1.472400
19.347900 1.495000
19.376400 1.514200
19.404800 1.534100
19.433300 1.556600
19.461800 1.576400
19.490300 1.590300
19.518700 1.600700
19.547200 1.610400
19.575700 1.621200
19.604100 1.623600
19.632600 1.624600
19.661100 1.627800
19.689600 1.632400
19.718000 1.638200
19.746500 1.644500
19.775000 1.657500
19.803500 1.670900
19.831900 1.674500
19.860400 1.674800
19.888900 1.666100
19.917300 1.651100
19.945800 1.628800
19.974300 1.613700
20.002800 1.606400
20.031200 1.604000
20.059700 1.604800
20.088200 1.609700
