set title 'mp-1217358 - Density of States'
set xlabel 'Energy (eV)'
set ylabel 'DOS (states/eV)'
set grid
set xrange [-10:10]
set yrange [0:12.964]
set xzeroaxis lt -1
set terminal png size 800,600
set output 'mp-1217358_dos_gnuplot.png'
plot '-' using 1:2 with lines title 'DOS'
-9.786800 0.000000
-9.767300 0.000000
-9.747900 0.000000
-9.728400 0.000000
-9.709000 0.000000
-9.689500 0.000000
-9.670100 0.000000
-9.650600 0.000000
-9.631100 0.000000
-9.611700 0.000000
-9.592200 0.000000
-9.572800 0.000000
-9.553300 0.000000
-9.533800 0.000000
-9.514400 0.000000
-9.494900 0.000000
-9.475500 0.000000
-9.456000 0.000000
-9.436600 0.000000
-9.417100 0.000000
-9.397600 0.000000
-9.378200 0.000000
-9.358700 0.000000
-9.339300 0.000000
-9.319800 0.000000
-9.300300 0.000000
-9.280900 0.000000
-9.261400 0.000000
-9.242000 0.000000
-9.222500 0.000000
-9.203100 0.000000
-9.183600 0.000000
-9.164100 0.000000
-9.144700 0.000000
-9.125200 0.000000
-9.105800 0.000000
-9.086300 0.000000
-9.066800 0.000000
-9.047400 0.000000
-9.027900 0.000000
-9.008500 0.000000
-8.989000 0.000000
-8.969600 0.000000
-8.950100 0.000000
-8.930600 0.000000
-8.911200 0.000000
-8.891700 0.000000
-8.872300 0.000000
-8.852800 0.000000
-8.833400 0.000000
-8.813900 0.000000
-8.794400 0.000000
-8.775000 0.000000
-8.755500 0.000000
-8.736100 0.000000
-8.716600 0.000000
-8.697100 0.000000
-8.677700 0.000000
-8.658200 0.000000
-8.638800 0.000000
-8.619300 0.000000
-8.599900 0.000000
-8.580400 0.000000
-8.560900 0.000000
-8.541500 0.000000
-8.522000 0.000000
-8.502600 0.000000
-8.483100 0.000000
-8.463600 0.000000
-8.444200 0.000000
-8.424700 0.000000
-8.405300 0.000000
-8.385800 0.000000
-8.366400 0.000000
-8.346900 0.000000
-8.327400 0.000000
-8.308000 0.000000
-8.288500 0.000000
-8.269100 0.000000
-8.249600 0.000000
-8.230100 0.000000
-8.210700 0.000000
-8.191200 0.000000
-8.171800 0.000000
-8.152300 0.000000
-8.132900 0.000000
-8.113400 0.000000
-8.093900 0.000000
-8.074500 0.000000
-8.055000 0.000000
-8.035600 0.000000
-8.016100 0.000400
-7.996600 0.051200
-7.977200 0.210000
-7.957700 0.429200
-7.938300 0.569200
-7.918800 0.559600
-7.899400 0.490200
-7.879900 0.450500
-7.860400 0.461900
-7.841000 0.487300
-7.821500 0.512800
-7.802100 0.575700
-7.782600 0.713200
-7.763100 0.877100
-7.743700 0.994500
-7.724200 1.022000
-7.704800 1.001700
-7.685300 0.967300
-7.665900 0.959100
-7.646400 0.972300
-7.626900 1.002000
-7.607500 1.032800
-7.588000 1.063600
-7.568600 1.072400
-7.549100 1.068200
-7.529700 1.053400
-7.510200 1.043700
-7.490700 1.031200
-7.471300 1.021400
-7.451800 1.019300
-7.432400 1.024800
-7.412900 1.033100
-7.393400 1.041300
-7.374000 1.049600
-7.354500 1.058400
-7.335100 1.068500
-7.315600 1.079500
-7.296200 1.081800
-7.276700 1.080600
-7.257200 1.086400
-7.237800 1.184900
-7.218300 1.399100
-7.198900 1.598900
-7.179400 1.673700
-7.159900 1.610100
-7.140500 1.549300
-7.121000 1.531600
-7.101600 1.556800
-7.082100 1.585300
-7.062700 1.615400
-7.043200 1.646200
-7.023700 1.669200
-7.004300 1.662200
-6.984800 1.639900
-6.965400 1.623900
-6.945900 1.626300
-6.926400 1.635500
-6.907000 1.643100
-6.887500 1.651000
-6.868100 1.660600
-6.848600 1.671600
-6.829200 1.683400
-6.809700 1.695300
-6.790200 1.708400
-6.770800 1.724700
-6.751300 1.740700
-6.731900 1.746100
-6.712400 1.744400
-6.692900 1.743600
-6.673500 1.750600
-6.654000 1.762100
-6.634600 1.773600
-6.615100 1.785100
-6.595700 1.796600
-6.576200 1.808100
-6.556700 1.819500
-6.537300 1.831500
-6.517800 1.844900
-6.498400 1.860400
-6.478900 1.876200
-6.459500 1.891400
-6.440000 1.906400
-6.420500 1.921300
-6.401100 1.946400
-6.381600 1.990500
-6.362200 2.035000
-6.342700 2.071100
-6.323200 2.094600
-6.303800 2.119200
-6.284300 2.143900
-6.264900 2.168400
-6.245400 2.193000
-6.226000 2.217800
-6.206500 2.242700
-6.187000 2.267000
-6.167600 2.547900
-6.148100 2.853400
-6.128700 2.778700
-6.109200 2.538800
-6.089700 2.331300
-6.070300 2.335800
-6.050800 2.335200
-6.031400 2.331700
-6.011900 2.328200
-5.992500 2.324700
-5.973000 2.321900
-5.953500 2.298500
-5.934100 2.246800
-5.914600 2.256300
-5.895200 2.534700
-5.875700 2.630200
-5.856200 2.703200
-5.836800 2.460000
-5.817300 2.311300
-5.797900 2.177500
-5.778400 2.136000
-5.759000 2.109400
-5.739500 2.082700
-5.720000 2.055800
-5.700600 2.028900
-5.681100 1.987800
-5.661700 1.909300
-5.642200 1.875300
-5.622700 1.845500
-5.603300 1.834200
-5.583800 1.828800
-5.564400 1.839300
-5.544900 1.859200
-5.525500 1.875000
-5.506000 1.880000
-5.486500 1.878600
-5.467100 1.877200
-5.447600 1.875800
-5.428200 1.874400
-5.408700 1.873100
-5.389200 1.857500
-5.369800 1.851300
-5.350300 1.844600
-5.330900 2.003500
-5.311400 2.386200
-5.292000 2.295200
-5.272500 2.094200
-5.253000 1.746500
-5.233600 1.716100
-5.214100 1.685800
-5.194700 1.655600
-5.175200 1.625400
-5.155800 1.595500
-5.136300 1.565600
-5.116800 1.535700
-5.097400 1.481100
-5.077900 1.403900
-5.058500 1.384300
-5.039000 1.364600
-5.019500 1.338700
-5.000100 1.317000
-4.980600 1.295800
-4.961200 1.277900
-4.941700 1.262600
-4.922300 1.246700
-4.902800 1.227900
-4.883300 1.209000
-4.863900 1.189900
-4.844400 1.171000
-4.825000 1.147500
-4.805500 1.118800
-4.786000 1.091700
-4.766600 1.079200
-4.747100 1.066700
-4.727700 1.054200
-4.708200 1.041500
-4.688800 1.028300
-4.669300 1.014800
-4.649800 1.001800
-4.630400 0.988900
-4.610900 0.975900
-4.591500 0.964000
-4.572000 0.977500
-4.552500 0.981600
-4.533100 0.959300
-4.513600 0.936900
-4.494200 0.914600
-4.474700 0.892300
-4.455300 0.869100
-4.435800 0.843200
-4.416300 0.816600
-4.396900 0.797300
-4.377400 0.778000
-4.358000 0.758800
-4.338500 0.981900
-4.319000 0.582000
-4.299600 0.575000
-4.280100 0.567800
-4.260700 0.560500
-4.241200 0.553800
-4.221800 0.547100
-4.202300 0.540500
-4.182800 0.552700
-4.163400 0.552200
-4.143900 0.550300
-4.124500 0.537900
-4.105000 0.525200
-4.085600 0.512500
-4.066100 0.499800
-4.046600 0.487000
-4.027200 0.474400
-4.007700 0.462300
-3.988300 0.450500
-3.968800 0.437200
-3.949300 0.423900
-3.929900 0.410600
-3.910400 0.451700
-3.891000 0.412600
-3.871500 0.375700
-3.852100 0.253000
-3.832600 0.250000
-3.813100 0.247000
-3.793700 0.244100
-3.774200 0.241200
-3.754800 0.238200
-3.735300 0.235300
-3.715800 0.232400
-3.696400 0.229400
-3.676900 0.226500
-3.657500 0.223600
-3.638000 0.220600
-3.618600 0.217700
-3.599100 0.222500
-3.579600 0.230700
-3.560200 0.241800
-3.540700 0.233100
-3.521300 0.224300
-3.501800 0.215500
-3.482300 0.206800
-3.462900 0.198000
-3.443400 0.189300
-3.424000 0.180500
-3.404500 0.171800
-3.385100 0.163000
-3.365600 0.154300
-3.346100 0.145500
-3.326700 0.269600
-3.307200 0.223900
-3.287800 0.000000
-3.268300 0.000000
-3.248800 0.000000
-3.229400 0.000000
-3.209900 0.000000
-3.190500 0.000000
-3.171000 0.000000
-3.151600 0.000000
-3.132100 0.000000
-3.112600 0.000000
-3.093200 0.000000
-3.073700 0.000000
-3.054300 0.000000
-3.034800 0.000000
-3.015300 0.000000
-2.995900 0.000000
-2.976400 0.000000
-2.957000 0.000000
-2.937500 0.000000
-2.918100 0.000000
-2.898600 0.000000
-2.879100 0.000000
-2.859700 0.000000
-2.840200 0.000000
-2.820800 0.000000
-2.801300 0.000000
-2.781900 0.000000
-2.762400 0.000000
-2.742900 0.000000
-2.723500 0.000000
-2.704000 0.000000
-2.684600 0.000000
-2.665100 0.000000
-2.645600 0.000000
-2.626200 0.000000
-2.606700 0.000000
-2.587300 0.000000
-2.567800 0.000000
-2.548400 0.000000
-2.528900 0.000000
-2.509400 0.000000
-2.490000 0.000000
-2.470500 0.000000
-2.451100 0.000000
-2.431600 0.000000
-2.412100 0.000000
-2.392700 0.000000
-2.373200 0.000000
-2.353800 0.000000
-2.334300 0.000000
-2.314900 0.000000
-2.295400 0.000000
-2.275900 0.000000
-2.256500 0.000000
-2.237000 0.000000
-2.217600 0.000000
-2.198100 0.000000
-2.178600 0.000000
-2.159200 0.000000
-2.139700 0.000000
-2.120300 0.000000
-2.100800 0.000000
-2.081400 0.000000
-2.061900 0.000000
-2.042400 0.000000
-2.023000 0.000000
-2.003500 0.000000
-1.984100 0.000000
-1.964600 0.000000
-1.945100 0.000000
-1.925700 0.000000
-1.906200 0.000000
-1.886800 0.000000
-1.867300 0.000000
-1.847900 0.000000
-1.828400 0.000000
-1.808900 0.000000
-1.789500 0.000000
-1.770000 0.000000
-1.750600 0.000000
-1.731100 0.000000
-1.711700 0.000000
-1.692200 0.000000
-1.672700 0.000000
-1.653300 0.000000
-1.633800 0.000000
-1.614400 0.000000
-1.594900 0.000000
-1.575400 0.000000
-1.556000 0.000000
-1.536500 0.000000
-1.517100 0.000000
-1.497600 0.000000
-1.478200 0.000000
-1.458700 0.000000
-1.439200 0.000000
-1.419800 0.000000
-1.400300 0.000000
-1.380900 0.000000
-1.361400 0.000000
-1.341900 0.000000
-1.322500 0.000000
-1.303000 0.000000
-1.283600 0.000000
-1.264100 0.000000
-1.244700 0.000000
-1.225200 0.000000
-1.205700 0.000000
-1.186300 0.000000
-1.166800 0.000000
-1.147400 0.000000
-1.127900 0.000000
-1.108400 0.000000
-1.089000 0.000000
-1.069500 0.000000
-1.050100 0.000000
-1.030600 0.000000
-1.011200 0.000000
-0.991700 0.000000
-0.972200 0.000000
-0.952800 0.000000
-0.933300 0.013200
-0.913900 0.112100
-0.894400 0.233700
-0.874900 0.327700
-0.855500 0.358700
-0.836000 0.383100
-0.816600 0.433000
-0.797100 0.492900
-0.777700 0.549300
-0.758200 0.587200
-0.738700 0.606000
-0.719300 0.599700
-0.699800 0.597100
-0.680400 0.607300
-0.660900 1.063000
-0.641400 1.545700
-0.622000 1.415300
-0.602500 1.137000
-0.583100 1.172800
-0.563600 1.212100
-0.544200 1.257000
-0.524700 1.303500
-0.505200 1.346900
-0.485800 1.295300
-0.466300 1.319900
-0.446900 1.354800
-0.427400 1.389800
-0.408000 1.424800
-0.388500 1.459000
-0.369000 1.493600
-0.349600 1.536400
-0.330100 1.576500
-0.310700 1.601900
-0.291200 1.743200
-0.271700 1.981500
-0.252300 2.239500
-0.232800 2.642800
-0.213400 2.824900
-0.193900 2.796600
-0.174500 2.951500
-0.155000 3.103800
-0.135500 3.254200
-0.116100 3.404700
-0.096600 3.371600
-0.077200 3.277600
-0.057700 3.200100
-0.038200 3.081700
-0.018800 2.963400
0.000700 2.811800
0.020100 2.713000
0.039600 2.651800
0.059000 2.609400
0.078500 2.572700
0.098000 2.518800
0.117400 2.480700
0.136900 2.525700
0.156300 2.535200
0.175800 2.520700
0.195300 2.497300
0.214700 2.480100
0.234200 2.904000
0.253600 3.266400
0.273100 3.377600
0.292500 3.884500
0.312000 4.773900
0.331500 5.007100
0.350900 5.076500
0.370400 5.031300
0.389800 6.097300
0.409300 4.679500
0.428800 4.891100
0.448200 5.231000
0.467700 4.578800
0.487100 4.455700
0.506600 4.335100
0.526000 4.298600
0.545500 4.301900
0.565000 4.433400
0.584400 4.548600
0.603900 4.712000
0.623300 4.879300
0.642800 5.808700
0.662200 6.018000
0.681700 3.856000
0.701200 3.971900
0.720600 3.959500
0.740100 4.167700
0.759500 4.100800
0.779000 4.351300
0.798500 4.831200
0.817900 5.221500
0.837400 5.536800
0.856800 5.611800
0.876300 5.966600
0.895700 6.130400
0.915200 6.327000
0.934700 6.400500
0.954100 6.161800
0.973600 5.578100
0.993000 5.165300
1.012500 11.785500
1.032000 6.787500
1.051400 6.296500
1.070900 5.867900
1.090300 5.605000
1.109800 5.328700
1.129200 5.325900
1.148700 5.266700
1.168200 5.031700
1.187600 5.139700
1.207100 4.935100
1.226500 4.710200
1.246000 4.611400
1.265500 4.773300
1.284900 5.635400
1.304400 7.331400
1.323800 5.331500
1.343300 5.194600
1.362700 5.281800
1.382200 5.025400
1.401700 4.793800
1.421100 5.101900
1.440600 5.610700
1.460000 5.884900
1.479500 6.236100
1.499000 5.820000
1.518400 6.119300
1.537900 6.324000
1.557300 5.607200
1.576800 5.037200
1.596200 5.231200
1.615700 5.484600
1.635200 5.872600
1.654600 6.759100
1.674100 8.593500
1.693500 8.249700
1.713000 7.682500
1.732500 6.846200
1.751900 5.506500
1.771400 7.050800
1.790800 6.985000
1.810300 5.562500
1.829700 5.569800
1.849200 6.610800
1.868700 6.798700
1.888100 8.174200
1.907600 9.679700
1.927000 8.059500
1.946500 8.069800
1.965900 8.751600
1.985400 8.110500
2.004900 8.304500
2.024300 6.055900
2.043800 5.847400
2.063200 5.486700
2.082700 5.258500
2.102200 5.144100
2.121600 5.088700
2.141100 5.078900
2.160500 5.424300
2.180000 5.418900
2.199400 5.403500
2.218900 5.032600
2.238400 4.775200
2.257800 4.674600
2.277300 4.477400
2.296700 4.582100
2.316200 4.018500
2.335700 3.773800
2.355100 3.545000
2.374600 3.484700
2.394000 3.897500
2.413500 4.470300
2.432900 4.788400
2.452400 5.427900
2.471900 5.750900
2.491300 5.577200
2.510800 5.163000
2.530200 4.911400
2.549700 4.643900
2.569200 4.400800
2.588600 4.111600
2.608100 3.889700
2.627500 3.886200
2.647000 4.168300
2.666400 4.338400
2.685900 4.389500
2.705400 4.443400
2.724800 3.924500
2.744300 3.456900
2.763700 3.394000
2.783200 3.477200
2.802700 3.549800
2.822100 3.893800
2.841600 3.684600
2.861000 3.635800
2.880500 3.652500
2.899900 3.775000
2.919400 3.904300
2.938900 3.932300
2.958300 4.075800
2.977800 4.104300
2.997200 4.046000
3.016700 4.035400
3.036100 3.972000
3.055600 3.885400
3.075100 3.789000
3.094500 3.773300
3.114000 3.915700
3.133400 5.866200
3.152900 4.296400
3.172400 4.365400
3.191800 4.267300
3.211300 4.185400
3.230700 4.113600
3.250200 4.289700
3.269600 4.158800
3.289100 4.039500
3.308600 3.928800
3.328000 3.802100
3.347500 3.711500
3.366900 3.559600
3.386400 3.405100
3.405900 3.216100
3.425300 2.888700
3.444800 2.776200
3.464200 2.667300
3.483700 2.562000
3.503100 2.491300
3.522600 2.456500
3.542100 2.419000
3.561500 2.360700
3.581000 2.304900
3.600400 2.294100
3.619900 2.220300
3.639400 2.243700
3.658800 2.264600
3.678300 2.337300
3.697700 2.169200
3.717200 2.204400
3.736600 2.244000
3.756100 2.294600
3.775600 2.362400
3.795000 2.446000
3.814500 2.541000
3.833900 2.619300
3.853400 2.879900
3.872900 3.176700
3.892300 3.194700
3.911800 3.032600
3.931200 3.013700
3.950700 3.061500
3.970100 3.105100
3.989600 3.144300
4.009100 3.147400
4.028500 3.180800
4.048000 3.155800
4.067400 3.165400
4.086900 3.173700
4.106400 3.262700
4.125800 3.237700
4.145300 3.500300
4.164700 3.118300
4.184200 3.111300
4.203600 3.091200
4.223100 3.099500
4.242600 2.961900
4.262000 2.825300
4.281500 2.721400
4.300900 2.649800
4.320400 2.607100
4.339800 2.555500
4.359300 2.474400
4.378800 2.432200
4.398200 2.392200
4.417700 2.365700
4.437100 2.421500
4.456600 2.408000
4.476100 2.305500
4.495500 2.300800
4.515000 2.290700
4.534400 2.286200
4.553900 2.279900
4.573300 2.269200
4.592800 2.253500
4.612300 2.217100
4.631700 2.216600
4.651200 2.199700
4.670600 2.253400
4.690100 2.295600
4.709600 2.280800
4.729000 2.715900
4.748500 2.789300
4.767900 2.743000
4.787400 2.711800
4.806800 2.729200
4.826300 2.918500
4.845800 2.625500
4.865200 2.518000
4.884700 2.453300
4.904100 2.339300
4.923600 2.236000
4.943100 2.146600
4.962500 2.111200
4.982000 2.101300
5.001400 2.094100
5.020900 2.019800
5.040300 1.992800
5.059800 1.977900
5.079300 1.953200
5.098700 1.850200
5.118200 1.817400
5.137600 1.788900
5.157100 1.759900
5.176600 1.736100
5.196000 1.722100
5.215500 1.713500
5.234900 1.710700
5.254400 1.710000
5.273800 1.711200
5.293300 1.699700
5.312800 1.677800
5.332200 1.623200
5.351700 1.606800
5.371100 1.550500
5.390600 1.554800
5.410000 1.562600
5.429500 1.650900
5.449000 1.723600
5.468400 1.763500
5.487900 1.879700
5.507300 1.734200
5.526800 1.665900
5.546300 1.668700
5.565700 1.671200
5.585200 1.672600
5.604600 1.673000
5.624100 1.672300
5.643500 1.671500
5.663000 1.671000
5.682500 1.791100
5.701900 1.799600
5.721400 1.774300
5.740800 1.724300
5.760300 1.693000
5.779800 1.660000
5.799200 1.620900
5.818700 1.604300
5.838100 1.597600
5.857600 1.604300
5.877000 1.630500
5.896500 1.667300
5.916000 1.804900
5.935400 1.710600
5.954900 1.666300
5.974300 1.659700
5.993800 1.655600
6.013300 1.647100
6.032700 1.635200
6.052200 1.609600
6.071600 1.600500
6.091100 2.088100
6.110500 1.682200
6.130000 1.661400
6.149500 1.637600
6.168900 1.610300
6.188400 1.590200
6.207800 1.572000
6.227300 1.568700
6.246800 1.575600
6.266200 1.583800
6.285700 1.593200
6.305100 1.603800
6.324600 1.615700
6.344000 1.629600
6.363500 1.899500
6.383000 2.053100
6.402400 2.077000
6.421900 2.095500
6.441300 2.109500
6.460800 1.982600
6.480300 1.849800
6.499700 1.860900
6.519200 1.984000
6.538600 1.957800
6.558100 1.784500
6.577500 1.808400
6.597000 1.833100
6.616500 1.858400
6.635900 2.475800
6.655400 2.035900
6.674800 1.882200
6.694300 1.909800
6.713700 2.007800
6.733200 1.969500
6.752700 1.925900
6.772100 1.923600
6.791600 1.933900
6.811000 1.846000
6.830500 1.944900
6.850000 2.090500
6.869400 2.071800
6.888900 2.054200
6.908300 2.038100
6.927800 2.023700
6.947200 2.159000
6.966700 2.063500
6.986200 2.059500
7.005600 2.062700
7.025100 2.118800
7.044500 2.234500
7.064000 2.174000
7.083500 2.185500
7.102900 2.172200
7.122400 2.159800
7.141800 2.148500
7.161300 2.231400
7.180700 2.320800
7.200200 2.381800
7.219700 2.432200
7.239100 2.492800
7.258600 2.541900
7.278000 2.498900
7.297500 2.504300
7.317000 2.523300
7.336400 2.560600
7.355900 2.596000
7.375300 2.631500
7.394800 2.674500
7.414200 2.721800
7.433700 2.777500
7.453200 2.819400
7.472600 2.860800
7.492100 2.857400
7.511500 2.835500
7.531000 2.807500
7.550500 2.732200
7.569900 2.690300
7.589400 2.581000
7.608800 2.566400
7.628300 2.544200
7.647700 2.537800
7.667200 2.535300
7.686700 2.526800
7.706100 2.517300
7.725600 2.505400
7.745000 2.490500
7.764500 2.464100
7.783900 2.434400
7.803400 2.402500
7.822900 2.370500
7.842300 2.336200
7.861800 2.304000
7.881200 2.270900
7.900700 2.245000
7.920200 2.243500
7.939600 2.267900
7.959100 2.245700
7.978500 2.206800
7.998000 2.140100
8.017400 1.977300
8.036900 1.940900
8.056400 1.906400
8.075800 1.873200
8.095300 1.843900
8.114700 1.823200
8.134200 1.811300
8.153700 1.804400
8.173100 1.802500
8.192600 1.799000
8.212000 1.794800
8.231500 1.956900
8.250900 1.991200
8.270400 2.023200
8.289900 1.911500
8.309300 1.908000
8.328800 1.873800
8.348200 1.841200
8.367700 1.807700
8.387200 1.770700
8.406600 1.737800
8.426100 1.718800
8.445500 1.704100
8.465000 1.786800
8.484400 1.807400
8.503900 1.841300
8.523400 1.920900
8.542800 1.931900
8.562300 1.927900
8.581700 1.926800
8.601200 1.941200
8.620700 2.040900
8.640100 2.065000
8.659600 2.060300
8.679000 1.929300
8.698500 1.863800
8.717900 1.849400
8.737400 1.901700
8.756900 1.914500
8.776300 1.945000
8.795800 1.966000
8.815200 1.957400
8.834700 1.932200
8.854200 1.931200
8.873600 1.948100
8.893100 2.228700
8.912500 2.469100
8.932000 3.675000
8.951400 2.876700
8.970900 2.057100
8.990400 1.979000
9.009800 1.951000
9.029300 1.792800
9.048700 1.789400
9.068200 1.953300
9.087600 1.950400
9.107100 2.028300
9.126600 1.958500
9.146000 1.988500
9.165500 1.989800
9.184900 1.877000
9.204400 1.827600
9.223900 1.761700
9.243300 1.685900
9.262800 1.803400
9.282200 1.855700
9.301700 1.910800
9.321100 1.967000
9.340600 2.013500
9.360100 2.048700
9.379500 2.077500
9.399000 2.083700
9.418400 2.092000
9.437900 2.063600
9.457400 2.144800
9.476800 2.433600
9.496300 2.314200
9.515700 2.217600
9.535200 1.851300
9.554600 1.816200
9.574100 1.782100
9.593600 1.745800
9.613000 1.710800
9.632500 1.686400
9.651900 1.672700
9.671400 1.681400
9.690900 1.642700
9.710300 1.623000
9.729800 1.609600
9.749200 1.595800
9.768700 1.574700
9.788100 1.553400
9.807600 1.517500
9.827100 1.508800
9.846500 1.502200
9.866000 1.495000
9.885400 1.487200
9.904900 1.478900
9.924400 1.470200
9.943800 1.457100
9.963300 1.441400
9.982700 1.423300
10.002200 1.404300
10.021600 1.386100
10.041100 1.392800
10.060600 1.317500
10.080000 1.314200
10.099500 1.351500
10.118900 1.390100
10.138400 1.431300
10.157800 1.452000
10.177300 1.438800
10.196800 1.423100
10.216200 1.402900
10.235700 1.393600
10.255100 1.402300
10.274600 1.410200
10.294100 1.420500
10.313500 1.432300
10.333000 1.445000
10.352400 1.457400
10.371900 1.463100
10.391300 1.470400
10.410800 1.479900
10.430300 1.493000
10.449700 1.513900
10.469200 1.535900
10.488600 1.558200
10.508100 1.580000
10.527600 1.601300
10.547000 1.639000
10.566500 1.659800
10.585900 1.683900
10.605400 1.717100
10.624800 1.997500
10.644300 2.066000
10.663800 1.990500
10.683200 2.012900
10.702700 2.087600
10.722100 2.182700
10.741600 2.226700
10.761100 2.309500
10.780500 2.391200
10.800000 2.452300
10.819400 2.477800
10.838900 2.504400
10.858300 2.547900
10.877800 2.548500
10.897300 2.532100
