set title 'mp-568410 - Density of States'
set xlabel 'Energy (eV)'
set ylabel 'DOS (states/eV)'
set grid
set xrange [-10:10]
set yrange [0:4.487]
set xzeroaxis lt -1
set terminal png size 800,600
set output 'mp-568410_dos_gnuplot.png'
plot '-' using 1:2 with lines title 'DOS'
-16.000400 0.000000
-15.972600 0.000000
-15.944900 0.000000
-15.917100 0.000000
-15.889400 0.000000
-15.861600 0.000000
-15.833900 0.000000
-15.806100 0.000000
-15.778400 0.000000
-15.750600 0.000000
-15.722900 0.000000
-15.695100 0.000000
-15.667400 0.000000
-15.639600 0.000000
-15.611900 0.000000
-15.584100 0.000000
-15.556400 0.000000
-15.528600 0.000000
-15.500900 0.000000
-15.473100 0.000000
-15.445400 0.000000
-15.417600 0.000000
-15.389900 0.000000
-15.362100 0.000000
-15.334400 0.000000
-15.306600 0.000000
-15.278800 0.000000
-15.251100 0.000000
-15.223300 0.000000
-15.195600 0.000000
-15.167800 0.000000
-15.140100 0.000000
-15.112300 0.000000
-15.084600 0.000000
-15.056800 0.000000
-15.029100 0.000000
-15.001300 0.000000
-14.973600 0.000000
-14.945800 0.000000
-14.918100 0.000000
-14.890300 0.000000
-14.862600 0.000000
-14.834800 0.000000
-14.807100 0.000000
-14.779300 0.000000
-14.751600 0.000000
-14.723800 0.000000
-14.696100 0.000000
-14.668300 0.000000
-14.640600 0.000000
-14.612800 0.000000
-14.585100 0.000000
-14.557300 0.000000
-14.529600 0.000000
-14.501800 0.000000
-14.474100 0.000000
-14.446300 0.000000
-14.418600 0.000000
-14.390800 0.000000
-14.363100 0.000000
-14.335300 0.000000
-14.307600 0.000000
-14.279800 0.000000
-14.252100 0.000000
-14.224300 0.000000
-14.196600 0.000000
-14.168800 0.000000
-14.141100 0.000000
-14.113300 0.000000
-14.085600 0.000000
-14.057800 0.000000
-14.030100 0.000000
-14.002300 0.000000
-13.974600 0.000000
-13.946800 0.000000
-13.919000 0.000000
-13.891300 0.000000
-13.863500 0.000000
-13.835800 0.000000
-13.808000 0.000000
-13.780300 0.000000
-13.752500 0.000000
-13.724800 0.000000
-13.697000 0.000000
-13.669300 0.000000
-13.641500 0.000000
-13.613800 0.000000
-13.586000 0.000000
-13.558300 0.000000
-13.530500 0.000000
-13.502800 0.000000
-13.475000 0.000400
-13.447300 0.051200
-13.419500 0.155300
-13.391800 0.197100
-13.364000 0.216000
-13.336300 0.254100
-13.308500 0.295400
-13.280800 0.324200
-13.253000 0.346300
-13.225300 0.363300
-13.197500 0.382900
-13.169800 0.406000
-13.142000 0.430000
-13.114300 0.453100
-13.086500 0.472000
-13.058800 0.490200
-13.031000 0.509500
-13.003300 0.528400
-12.975500 0.544600
-12.947800 0.561800
-12.920000 0.579300
-12.892300 0.597600
-12.864500 0.616000
-12.836800 0.632500
-12.809000 0.649000
-12.781300 0.666800
-12.753500 0.684900
-12.725800 0.703500
-12.698000 0.722400
-12.670300 0.741600
-12.642500 0.760000
-12.614800 0.777400
-12.587000 0.795600
-12.559300 0.816400
-12.531500 0.840000
-12.503700 0.863900
-12.476000 0.888600
-12.448200 0.914500
-12.420500 0.942100
-12.392700 0.971300
-12.365000 1.001400
-12.337200 1.088000
-12.309500 1.181200
-12.281700 1.163800
-12.254000 1.142200
-12.226200 1.149000
-12.198500 1.227400
-12.170700 1.209600
-12.143000 1.179000
-12.115200 1.157600
-12.087500 1.148900
-12.059700 1.129600
-12.032000 1.117800
-12.004200 1.103900
-11.976500 1.086800
-11.948700 1.071900
-11.921000 1.055700
-11.893200 1.036200
-11.865500 1.014100
-11.837700 0.998100
-11.810000 0.982900
-11.782200 0.969900
-11.754500 0.958200
-11.726700 0.947000
-11.699000 0.935600
-11.671200 0.957300
-11.643500 1.017400
-11.615700 0.981500
-11.588000 0.979100
-11.560200 0.978300
-11.532500 0.979400
-11.504700 0.965700
-11.477000 0.963000
-11.449200 0.959300
-11.421500 0.959100
-11.393700 0.970300
-11.366000 1.003300
-11.338200 1.033800
-11.310500 0.998400
-11.282700 0.956400
-11.255000 0.928400
-11.227200 0.903400
-11.199500 0.885700
-11.171700 0.956500
-11.143900 0.855400
-11.116200 0.794000
-11.088400 0.770400
-11.060700 0.746000
-11.032900 0.723900
-11.005200 0.707900
-10.977400 0.707100
-10.949700 0.711300
-10.921900 0.720600
-10.894200 0.733600
-10.866400 0.748400
-10.838700 0.766700
-10.810900 0.790200
-10.783200 0.854700
-10.755400 0.900900
-10.727700 0.923100
-10.699900 0.960000
-10.672200 0.995700
-10.644400 1.125100
-10.616700 1.193800
-10.588900 1.307300
-10.561200 1.513800
-10.533400 1.597200
-10.505700 1.582800
-10.477900 1.598600
-10.450200 1.596600
-10.422400 1.591900
-10.394700 1.582600
-10.366900 1.570500
-10.339200 1.588100
-10.311400 1.644100
-10.283700 1.715200
-10.255900 1.805100
-10.228200 1.939200
-10.200400 2.111500
-10.172700 2.191600
-10.144900 2.155900
-10.117200 2.135600
-10.089400 1.911600
-10.061700 1.777000
-10.033900 1.498500
-10.006200 1.328500
-9.978400 1.082700
-9.950700 0.954800
-9.922900 0.922300
-9.895200 0.919800
-9.867400 0.890200
-9.839700 0.920900
-9.811900 0.943100
-9.784200 1.752400
-9.756400 1.294400
-9.728600 1.299700
-9.700900 1.181200
-9.673100 1.075900
-9.645400 1.018100
-9.617600 0.980000
-9.589900 0.952300
-9.562100 0.935200
-9.534400 0.929000
-9.506600 0.930000
-9.478900 0.940700
-9.451100 0.954600
-9.423400 0.964900
-9.395600 0.967300
-9.367900 0.965500
-9.340100 0.962400
-9.312400 0.967200
-9.284600 0.959100
-9.256900 0.922200
-9.229100 0.891700
-9.201400 0.869800
-9.173600 0.857900
-9.145900 0.852300
-9.118100 0.852000
-9.090400 0.854700
-9.062600 0.859600
-9.034900 0.866900
-9.007100 0.876400
-8.979400 0.906800
-8.951600 0.888500
-8.923900 0.906700
-8.896100 0.938500
-8.868400 0.965900
-8.840600 0.934300
-8.812900 0.942500
-8.785100 0.953500
-8.757400 0.960900
-8.729600 1.059600
-8.701900 1.014000
-8.674100 1.012800
-8.646400 1.016800
-8.618600 1.025800
-8.590900 1.045500
-8.563100 1.058100
-8.535400 1.072300
-8.507600 1.090900
-8.479900 1.110000
-8.452100 1.147600
-8.424400 1.226100
-8.396600 1.276100
-8.368800 1.345400
-8.341100 1.432400
-8.313300 1.534700
-8.285600 1.653700
-8.257800 1.748100
-8.230100 1.809500
-8.202300 1.759100
-8.174600 1.801300
-8.146800 1.608700
-8.119100 1.574400
-8.091300 1.547400
-8.063600 1.522800
-8.035800 1.523000
-8.008100 1.570500
-7.980300 1.613600
-7.952600 1.594500
-7.924800 1.579700
-7.897100 1.563400
-7.869300 1.548700
-7.841600 1.548300
-7.813800 1.518600
-7.786100 1.514100
-7.758300 1.527600
-7.730600 1.534000
-7.702800 1.517700
-7.675100 1.475300
-7.647300 1.435700
-7.619600 1.398000
-7.591800 1.362400
-7.564100 1.331100
-7.536300 1.303100
-7.508600 1.288700
-7.480800 1.290100
-7.453100 1.291700
-7.425300 1.294400
-7.397600 1.297100
-7.369800 1.298500
-7.342100 1.298700
-7.314300 1.290100
-7.286600 1.281700
-7.258800 1.275200
-7.231100 1.269000
-7.203300 1.257900
-7.175600 1.243300
-7.147800 1.228900
-7.120100 1.217200
-7.092300 1.206900
-7.064600 1.195000
-7.036800 1.182100
-7.009100 1.171700
-6.981300 1.171700
-6.953500 1.172000
-6.925800 1.181000
-6.898000 1.182300
-6.870300 1.184600
-6.842500 1.186900
-6.814800 1.190000
-6.787000 1.199700
-6.759300 1.211700
-6.731500 1.224300
-6.703800 1.243500
-6.676000 1.261400
-6.648300 1.277000
-6.620500 1.296200
-6.592800 1.320000
-6.565000 1.346100
-6.537300 1.374400
-6.509500 1.408600
-6.481800 1.448900
-6.454000 1.502200
-6.426300 1.556200
-6.398500 1.603100
-6.370800 1.573700
-6.343000 1.517000
-6.315300 1.466000
-6.287500 1.411600
-6.259800 1.340300
-6.232000 1.251400
-6.204300 1.174500
-6.176500 1.102800
-6.148800 1.059700
-6.121000 1.027400
-6.093300 1.011300
-6.065500 1.018100
-6.037800 1.020400
-6.010000 1.017200
-5.982300 1.011500
-5.954500 1.013000
-5.926800 1.021100
-5.899000 1.034700
-5.871300 1.031700
-5.843500 1.022500
-5.815800 1.020800
-5.788000 1.033000
-5.760300 1.093900
-5.732500 1.121400
-5.704800 1.183400
-5.677000 1.058500
-5.649300 1.068800
-5.621500 1.104000
-5.593700 1.135400
-5.566000 1.167900
-5.538200 1.204700
-5.510500 1.240600
-5.482700 1.282700
-5.455000 1.326500
-5.427200 1.439000
-5.399500 1.527400
-5.371700 1.600300
-5.344000 1.667000
-5.316200 1.759000
-5.288500 1.767500
-5.260700 1.732900
-5.233000 1.677500
-5.205200 1.600000
-5.177500 1.509000
-5.149700 1.418500
-5.122000 1.381400
-5.094200 1.301000
-5.066500 1.239100
-5.038700 1.194400
-5.011000 1.155900
-4.983200 1.102800
-4.955500 1.062100
-4.927700 1.040400
-4.900000 1.002900
-4.872200 1.001700
-4.844500 1.038800
-4.816700 1.064500
-4.789000 1.074100
-4.761200 1.083600
-4.733500 1.128000
-4.705700 1.235400
-4.678000 1.291000
-4.650200 1.307300
-4.622500 1.269600
-4.594700 1.212700
-4.567000 1.183400
-4.539200 1.173000
-4.511500 1.161700
-4.483700 1.185600
-4.456000 1.222700
-4.428200 1.292300
-4.400500 1.363000
-4.372700 1.421500
-4.345000 1.468800
-4.317200 1.496700
-4.289500 1.514600
-4.261700 1.556200
-4.233900 1.594800
-4.206200 1.627000
-4.178400 1.653500
-4.150700 1.678100
-4.122900 1.680200
-4.095200 1.679400
-4.067400 1.664800
-4.039700 1.647900
-4.011900 1.635600
-3.984200 1.604600
-3.956400 1.548500
-3.928700 1.489100
-3.900900 1.450200
-3.873200 1.407800
-3.845400 1.375300
-3.817700 1.366000
-3.789900 1.369300
-3.762200 1.381800
-3.734400 1.409300
-3.706700 1.433300
-3.678900 1.417800
-3.651200 1.420800
-3.623400 1.424700
-3.595700 1.444500
-3.567900 1.379400
-3.540200 1.390500
-3.512400 1.421700
-3.484700 1.433300
-3.456900 1.439900
-3.429200 1.471500
-3.401400 1.514700
-3.373700 1.543600
-3.345900 1.545300
-3.318200 1.555100
-3.290400 1.821700
-3.262700 1.648700
-3.234900 1.625200
-3.207200 1.610600
-3.179400 1.596700
-3.151700 1.582900
-3.123900 1.555600
-3.096200 1.578700
-3.068400 1.648800
-3.040700 1.707100
-3.012900 1.566000
-2.985200 1.578900
-2.957400 1.588600
-2.929700 1.566900
-2.901900 1.526500
-2.874200 1.498400
-2.846400 1.470000
-2.818600 1.437900
-2.790900 1.412700
-2.763100 1.392400
-2.735400 1.360000
-2.707600 1.344700
-2.679900 1.350800
-2.652100 1.392900
-2.624400 1.432000
-2.596600 1.504200
-2.568900 1.529700
-2.541100 1.582000
-2.513400 1.613900
-2.485600 1.666300
-2.457900 1.723000
-2.430100 1.761900
-2.402400 1.838100
-2.374600 1.919000
-2.346900 1.936900
-2.319100 1.922500
-2.291400 1.900000
-2.263600 1.869000
-2.235900 1.874300
-2.208100 1.904500
-2.180400 1.888700
-2.152600 1.890200
-2.124900 1.923000
-2.097100 1.956900
-2.069400 1.950700
-2.041600 1.929700
-2.013900 1.823200
-1.986100 1.767700
-1.958400 1.711200
-1.930600 1.665800
-1.902900 1.805700
-1.875100 1.658300
-1.847400 1.670000
-1.819600 1.679200
-1.791900 1.747100
-1.764100 1.848500
-1.736400 1.948000
-1.708600 2.049400
-1.680900 2.129100
-1.653100 2.410200
-1.625400 2.519700
-1.597600 2.636300
-1.569900 2.738200
-1.542100 2.740800
-1.514400 2.745700
-1.486600 2.676800
-1.458800 2.518900
-1.431100 2.352300
-1.403300 2.253200
-1.375600 2.173200
-1.347800 2.125100
-1.320100 2.115300
-1.292300 2.154100
-1.264600 2.176400
-1.236800 2.210100
-1.209100 2.360700
-1.181300 2.481600
-1.153600 2.537200
-1.125800 2.622700
-1.098100 2.718300
-1.070300 2.762300
-1.042600 2.802400
-1.014800 2.808200
-0.987100 2.799100
-0.959300 2.847600
-0.931600 2.917400
-0.903800 3.031000
-0.876100 2.967700
-0.848300 3.162800
-0.820600 2.900600
-0.792800 2.815200
-0.765100 2.760500
-0.737300 2.689500
-0.709600 2.643200
-0.681800 2.462800
-0.654100 2.365200
-0.626300 2.312700
-0.598600 2.297600
-0.570800 2.287900
-0.543100 2.299700
-0.515300 2.359900
-0.487600 2.261200
-0.459800 2.376300
-0.432100 2.333300
-0.404300 2.421700
-0.376600 2.666200
-0.348800 2.727300
-0.321100 2.804000
-0.293300 3.104600
-0.265600 2.626300
-0.237800 2.490800
-0.210100 2.355500
-0.182300 2.272800
-0.154600 2.229200
-0.126800 2.166300
-0.099100 2.090100
-0.071300 2.015300
-0.043500 1.926300
-0.015800 1.855800
0.012000 1.791100
0.039700 1.732900
0.067500 1.614500
0.095200 1.589700
0.123000 1.570800
0.150700 1.557100
0.178500 1.551600
0.206200 1.574000
0.234000 1.650300
0.261700 1.692900
0.289500 2.069300
0.317200 1.861400
0.345000 1.916600
0.372700 2.013500
0.400500 2.129600
0.428200 2.220300
0.456000 2.696100
0.483700 3.258900
0.511500 3.609000
0.539200 3.104100
0.567000 2.951000
0.594700 2.820400
0.622500 2.785300
0.650200 2.800900
0.678000 2.873900
0.705700 2.882500
0.733500 2.964700
0.761200 3.190000
0.789000 3.409100
0.816700 3.464700
0.844500 3.484700
0.872200 3.604100
0.900000 3.716500
0.927700 3.782700
0.955500 3.854000
0.983200 3.429900
1.011000 2.970400
1.038700 2.627400
1.066500 2.333900
1.094200 2.096700
1.122000 2.158800
1.149700 2.108000
1.177500 2.050500
1.205200 1.866700
1.233000 1.618800
1.260700 1.471300
1.288500 1.494000
1.316300 1.435500
1.344000 1.656100
1.371800 1.756300
1.399500 2.104600
1.427300 2.413700
1.455000 2.665100
1.482800 2.941600
1.510500 3.554600
1.538300 4.079200
1.566000 3.662500
1.593800 3.340400
1.621500 3.121500
1.649300 3.067900
1.677000 2.822900
1.704800 2.990400
1.732500 3.047200
1.760300 3.065700
1.788000 3.040900
1.815800 3.259300
1.843500 3.142900
1.871300 2.951900
1.899000 2.781200
1.926800 2.737900
1.954500 2.701100
1.982300 2.667500
2.010000 2.565800
2.037800 2.483600
2.065500 2.430700
2.093300 2.399200
2.121000 2.391500
2.148800 2.374300
2.176500 2.433900
2.204300 2.446000
2.232000 2.515600
2.259800 2.917600
2.287500 2.397300
2.315300 2.306000
2.343000 2.285900
2.370800 2.388700
2.398500 2.562400
2.426300 2.856100
2.454000 3.300500
2.481800 2.813000
2.509500 2.823700
2.537300 2.855900
2.565000 3.084400
2.592800 3.037300
2.620500 2.667900
2.648300 2.472300
2.676000 2.394700
2.703800 2.353900
2.731600 2.291300
2.759300 2.252100
2.787100 2.182800
2.814800 2.040300
2.842600 1.839700
2.870300 1.737800
2.898100 1.677700
2.925800 1.650800
2.953600 1.673700
2.981300 1.693800
3.009100 1.765800
3.036800 1.853900
3.064600 1.858900
3.092300 1.871500
3.120100 1.966400
3.147800 2.015600
3.175600 2.055300
3.203300 1.993600
3.231100 1.981500
3.258800 1.882500
3.286600 1.963500
3.314300 1.930200
3.342100 1.961000
3.369800 2.014600
3.397600 1.991500
3.425300 1.806800
3.453100 1.734500
3.480800 1.689200
3.508600 1.667500
3.536300 1.719500
3.564100 1.798500
3.591800 1.780600
3.619600 1.744100
3.647300 2.079500
3.675100 2.144100
3.702800 2.206100
3.730600 2.532700
3.758300 2.474200
3.786100 2.572600
3.813800 2.544900
3.841600 2.485800
3.869300 2.462800
3.897100 2.321000
3.924800 2.217400
3.952600 2.137100
3.980300 2.057200
4.008100 1.990500
4.035800 1.934900
4.063600 1.916000
4.091400 1.937200
4.119100 1.970800
4.146900 2.176000
4.174600 2.032400
4.202400 1.989000
4.230100 1.845100
4.257900 1.719600
4.285600 1.610900
4.313400 1.502800
4.341100 1.485800
4.368900 1.471500
4.396600 1.456700
4.424400 1.447400
4.452100 1.439700
4.479900 1.429800
4.507600 1.418600
4.535400 1.429400
4.563100 1.401800
4.590900 1.398600
4.618600 1.423300
4.646400 1.462700
4.674100 1.495900
4.701900 1.535200
4.729600 1.550100
4.757400 1.571200
4.785100 1.579600
4.812900 1.568400
4.840600 1.557800
4.868400 1.552500
4.896100 1.566100
4.923900 1.586100
4.951600 1.627500
4.979400 1.678400
5.007100 1.712700
5.034900 1.761200
5.062600 1.608200
5.090400 1.528500
5.118100 1.390100
5.145900 1.341500
5.173600 1.315700
5.201400 1.307800
5.229100 1.303700
5.256900 1.300000
5.284600 1.297200
5.312400 1.295700
5.340100 1.296200
5.367900 1.295600
5.395600 1.304100
5.423400 1.361400
5.451200 1.415300
5.478900 1.429900
5.506700 1.421400
5.534400 1.401800
5.562200 1.401700
5.589900 1.393300
5.617700 1.362500
5.645400 1.350600
5.673200 1.345000
5.700900 1.327400
5.728700 1.308400
5.756400 1.290800
5.784200 1.275000
5.811900 1.268600
5.839700 1.335600
5.867400 1.289200
5.895200 1.222800
5.922900 1.277200
5.950700 1.113900
5.978400 1.002400
6.006200 1.007000
6.033900 1.005800
6.061700 1.002600
6.089400 0.997000
6.117200 0.999000
6.144900 1.000900
6.172700 0.997500
6.200400 0.976400
6.228200 0.948100
6.255900 1.095400
6.283700 0.771500
6.311400 0.682000
6.339200 0.609600
6.366900 0.574800
6.394700 0.552100
6.422400 0.529700
6.450200 0.507600
6.477900 0.486000
6.505700 0.466400
6.533400 0.447900
6.561200 0.431300
6.588900 0.419500
6.616700 0.408600
6.644400 0.401200
6.672200 0.395700
6.699900 0.391800
6.727700 0.384900
6.755400 0.376200
6.783200 0.367000
6.810900 0.357100
6.838700 0.343400
6.866500 0.326300
6.894200 0.312700
6.922000 0.360200
6.949700 0.246000
6.977500 0.193600
7.005200 0.155000
7.033000 0.136800
7.060700 0.000000
7.088500 0.000000
7.116200 0.000000
7.144000 0.000000
7.171700 0.000000
7.199500 0.051000
7.227200 0.081900
7.255000 0.233200
7.282700 0.270200
7.310500 0.359400
7.338200 0.393800
7.366000 0.534700
7.393700 0.546500
7.421500 0.576500
7.449200 0.601100
7.477000 0.622500
7.504700 0.643300
7.532500 0.658200
7.560200 0.671500
7.588000 0.684900
7.615700 0.698100
7.643500 0.712700
7.671200 0.732200
7.699000 0.734000
7.726700 0.738900
7.754500 0.743500
7.782200 0.747100
7.810000 0.753100
7.837700 0.763000
7.865500 0.769400
7.893200 0.778900
7.921000 0.771400
7.948700 0.777000
7.976500 0.782800
8.004200 0.789100
8.032000 0.794900
8.059700 0.798900
8.087500 0.803700
8.115200 0.860600
8.143000 0.849000
8.170700 0.830000
8.198500 0.931700
8.226300 0.821600
8.254000 0.819600
8.281800 0.818000
8.309500 0.815800
8.337300 0.810900
8.365000 0.809700
8.392800 0.808000
8.420500 0.810900
8.448300 0.815300
8.476000 0.819700
8.503800 0.825000
8.531500 0.839000
8.559300 0.858600
8.587000 0.880900
8.614800 0.906100
8.642500 0.924000
8.670300 0.935800
8.698000 0.951000
8.725800 0.965000
8.753500 0.982600
8.781300 1.005600
8.809000 1.033100
8.836800 1.075600
8.864500 1.132900
8.892300 1.192000
8.920000 1.248400
8.947800 1.312000
8.975500 1.367700
9.003300 1.402100
9.031000 1.398000
9.058800 1.369900
9.086500 1.345300
9.114300 1.308700
9.142000 1.230600
9.169800 1.146400
9.197500 1.096100
9.225300 1.059400
9.253000 1.025100
9.280800 0.996600
9.308500 0.971300
9.336300 0.950300
9.364000 0.964200
9.391800 0.954200
9.419500 0.945600
9.447300 0.914600
9.475000 0.889700
9.502800 0.874600
9.530500 0.864100
9.558300 0.845700
9.586000 0.825200
9.613800 0.813500
9.641600 0.811800
9.669300 0.815100
9.697100 0.817800
9.724800 0.840700
9.752600 0.861100
9.780300 0.883200
9.808100 0.906000
9.835800 0.925500
9.863600 0.939200
9.891300 0.950400
9.919100 0.955800
9.946800 0.960200
9.974600 0.966000
10.002300 0.971200
10.030100 0.975400
10.057800 0.980600
10.085600 0.985200
10.113300 0.989100
10.141100 0.992600
10.168800 1.083200
10.196600 1.065600
10.224300 1.066500
10.252100 1.064300
10.279800 1.064400
10.307600 1.047200
10.335300 1.039500
10.363100 1.034300
10.390800 1.028900
10.418600 1.022900
10.446300 1.015500
10.474100 1.006300
10.501800 0.997800
10.529600 0.986400
10.557300 0.973400
10.585100 0.961600
10.612800 0.950600
10.640600 0.929800
10.668300 0.897100
10.696100 0.874800
10.723800 0.854000
10.751600 0.836100
10.779300 0.821900
10.807100 0.812800
10.834800 0.808100
10.862600 0.802600
10.890300 0.795700
10.918100 0.794200
10.945800 0.799200
10.973600 0.805800
11.001400 0.812000
11.029100 0.819200
11.056900 0.836200
11.084600 0.928800
11.112400 1.004100
11.140100 1.036800
11.167900 1.035500
11.195600 1.010600
11.223400 1.021400
11.251100 1.018300
11.278900 1.012900
11.306600 1.012100
11.334400 1.021800
11.362100 1.029200
11.389900 1.047600
11.417600 1.073500
11.445400 1.111100
11.473100 1.186600
11.500900 1.241200
11.528600 1.302100
11.556400 1.369000
11.584100 1.442200
11.611900 1.521100
11.639600 1.567300
11.667400 1.527000
11.695100 1.536700
11.722900 1.564500
11.750600 1.616700
11.778400 1.676300
11.806100 1.794900
11.833900 1.996800
11.861600 2.025700
11.889400 2.011400
11.917100 2.093000
11.944900 2.164800
11.972600 2.131200
12.000400 2.119000
12.028100 2.116700
12.055900 2.175100
12.083600 2.307200
12.111400 2.672300
12.139100 2.654300
12.166900 2.781900
12.194600 2.456200
12.222400 2.401500
12.250100 2.383000
12.277900 2.349700
12.305600 2.231900
12.333400 2.188100
12.361200 2.159100
12.388900 2.136700
12.416700 2.134800
12.444400 2.120700
12.472200 2.155500
12.499900 1.947000
12.527700 1.774200
12.555400 1.661500
12.583200 1.555900
12.610900 1.446000
12.638700 1.329800
12.666400 1.268800
12.694200 1.143500
12.721900 1.062600
12.749700 1.065500
12.777400 1.051500
12.805200 1.016500
12.832900 1.000300
12.860700 0.994700
12.888400 1.157500
12.916200 1.194000
12.943900 1.240500
12.971700 1.237200
