set title 'mp-1058887 - Density of States'
set xlabel 'Energy (eV)'
set ylabel 'DOS (states/eV)'
set grid
set xrange [-10:10]
set yrange [0:17.913]
set xzeroaxis lt -1
set terminal png size 800,600
set output 'mp-1058887_dos_gnuplot.png'
plot '-' using 1:2 with lines title 'DOS'
-10.710300 0.000000
-10.673300 0.000000
-10.636400 0.000000
-10.599400 0.000000
-10.562500 0.000000
-10.525500 0.000000
-10.488600 0.000000
-10.451600 0.000000
-10.414700 0.000000
-10.377800 0.000000
-10.340800 0.000000
-10.303900 0.000000
-10.266900 0.000000
-10.230000 0.000000
-10.193000 0.000000
-10.156100 0.000000
-10.119100 0.000000
-10.082200 0.000000
-10.045200 0.000000
-10.008300 0.000000
-9.971300 0.000000
-9.934400 0.000000
-9.897400 0.000000
-9.860500 0.000000
-9.823600 0.000000
-9.786600 0.000000
-9.749700 0.000000
-9.712700 0.000000
-9.675800 0.000000
-9.638800 0.000000
-9.601900 0.000000
-9.564900 0.000000
-9.528000 0.000000
-9.491000 0.000000
-9.454100 0.000000
-9.417100 0.000000
-9.380200 0.000000
-9.343200 0.000000
-9.306300 0.000000
-9.269400 0.000000
-9.232400 0.000000
-9.195500 0.000000
-9.158500 0.000000
-9.121600 0.000000
-9.084600 0.000000
-9.047700 0.000000
-9.010700 0.000000
-8.973800 0.000000
-8.936800 0.000000
-8.899900 0.000000
-8.862900 0.000000
-8.826000 0.000000
-8.789000 0.000000
-8.752100 0.000000
-8.715200 0.000000
-8.678200 0.000000
-8.641300 0.000000
-8.604300 0.000000
-8.567400 0.000000
-8.530400 0.000000
-8.493500 0.000000
-8.456500 0.000000
-8.419600 0.000000
-8.382600 0.000000
-8.345700 0.000000
-8.308700 0.000000
-8.271800 0.000000
-8.234800 0.000000
-8.197900 0.000000
-8.160900 0.000000
-8.124000 0.000000
-8.087100 0.000000
-8.050100 0.000000
-8.013200 0.000000
-7.976200 0.000000
-7.939300 0.000000
-7.902300 0.000000
-7.865400 0.000000
-7.828400 0.000000
-7.791500 0.000000
-7.754500 0.000000
-7.717600 0.000000
-7.680600 0.000000
-7.643700 0.000000
-7.606700 0.000000
-7.569800 0.000000
-7.532900 0.000000
-7.495900 0.000000
-7.459000 0.000000
-7.422000 0.000000
-7.385100 0.000000
-7.348100 0.000800
-7.311200 0.081000
-7.274200 0.187200
-7.237300 0.275900
-7.200300 0.556700
-7.163400 0.702600
-7.126400 0.889500
-7.089500 1.085200
-7.052500 1.321200
-7.015600 1.570700
-6.978700 1.621200
-6.941700 1.673200
-6.904800 1.742700
-6.867800 1.785200
-6.830900 1.837300
-6.793900 1.924500
-6.757000 2.047800
-6.720000 2.176100
-6.683100 2.433100
-6.646100 2.680100
-6.609200 2.638800
-6.572200 2.572700
-6.535300 2.517800
-6.498300 2.479200
-6.461400 2.528700
-6.424500 2.457700
-6.387500 2.379000
-6.350600 2.121700
-6.313600 1.640000
-6.276700 1.479200
-6.239700 1.927900
-6.202800 2.858200
-6.165800 2.892500
-6.128900 2.896400
-6.091900 2.689900
-6.055000 2.891900
-6.018000 5.803700
-5.981100 7.720800
-5.944100 10.814300
-5.907200 12.058500
-5.870200 11.832500
-5.833300 9.593700
-5.796400 11.145000
-5.759400 11.256900
-5.722500 15.559400
-5.685500 16.284600
-5.648600 16.252100
-5.611600 15.817800
-5.574700 11.667000
-5.537700 10.115900
-5.500800 12.219900
-5.463800 9.014100
-5.426900 3.522200
-5.389900 3.317300
-5.353000 3.130200
-5.316000 3.110300
-5.279100 2.840300
-5.242200 2.069400
-5.205200 1.769600
-5.168300 0.939700
-5.131300 0.403900
-5.094400 0.411600
-5.057400 0.421300
-5.020500 0.430900
-4.983500 0.438400
-4.946600 0.444700
-4.909600 0.452800
-4.872700 0.463400
-4.835700 0.473200
-4.798800 0.483300
-4.761800 0.494000
-4.724900 0.505100
-4.688000 0.517400
-4.651000 0.534600
-4.614100 0.554400
-4.577100 0.575900
-4.540200 0.599900
-4.503200 0.623100
-4.466300 0.638900
-4.429300 0.650900
-4.392400 0.662600
-4.355400 0.673700
-4.318500 0.682500
-4.281500 0.691000
-4.244600 0.700900
-4.207600 0.711100
-4.170700 0.722300
-4.133800 0.734300
-4.096800 0.745500
-4.059900 0.758000
-4.022900 0.792700
-3.986000 0.832200
-3.949000 0.872800
-3.912100 0.912600
-3.875100 0.953800
-3.838200 0.997300
-3.801200 1.687700
-3.764300 1.299000
-3.727300 1.082200
-3.690400 0.939300
-3.653400 0.820600
-3.616500 0.725600
-3.579500 0.664400
-3.542600 0.631500
-3.505700 0.600200
-3.468700 0.573200
-3.431800 0.551400
-3.394800 0.530200
-3.357900 0.509700
-3.320900 0.489800
-3.284000 0.470800
-3.247000 0.451700
-3.210100 0.436000
-3.173100 0.423000
-3.136200 0.412400
-3.099200 0.402100
-3.062300 0.391700
-3.025300 0.381500
-2.988400 0.371400
-2.951500 0.361200
-2.914500 0.351800
-2.877600 0.343900
-2.840600 0.336200
-2.803700 0.328600
-2.766700 0.320900
-2.729800 0.313100
-2.692800 0.305300
-2.655900 0.297800
-2.618900 0.290800
-2.582000 0.284400
-2.545000 0.278200
-2.508100 0.272000
-2.471100 0.267000
-2.434200 0.261900
-2.397300 0.256900
-2.360300 0.252000
-2.323400 0.247000
-2.286400 0.242000
-2.249500 0.237200
-2.212500 0.232400
-2.175600 0.227500
-2.138600 0.222600
-2.101700 0.217700
-2.064700 0.218900
-2.027800 0.235300
-1.990800 0.249800
-1.953900 0.262400
-1.916900 0.276900
-1.880000 0.292900
-1.843100 0.307800
-1.806100 0.320600
-1.769200 0.333400
-1.732200 0.341000
-1.695300 0.342800
-1.658300 0.346700
-1.621400 0.351900
-1.584400 0.356700
-1.547500 0.360500
-1.510500 0.364100
-1.473600 0.367900
-1.436600 0.372400
-1.399700 0.376800
-1.362700 0.381200
-1.325800 0.385900
-1.288800 0.391400
-1.251900 0.397600
-1.215000 0.403300
-1.178000 0.406400
-1.141100 0.408100
-1.104100 0.408800
-1.067200 0.408900
-1.030200 0.408300
-0.993300 0.407300
-0.956300 0.405300
-0.919400 0.403500
-0.882400 0.403400
-0.845500 0.403700
-0.808500 0.403900
-0.771600 0.403500
-0.734600 0.401100
-0.697700 0.398400
-0.660800 0.397100
-0.623800 0.397200
-0.586900 0.398700
-0.549900 0.402000
-0.513000 0.407200
-0.476000 0.414900
-0.439100 0.424300
-0.402100 0.433800
-0.365200 0.443600
-0.328200 0.454700
-0.291300 0.466800
-0.254300 0.479500
-0.217400 0.492800
-0.180400 0.506600
-0.143500 0.520700
-0.106600 0.536000
-0.069600 0.561600
-0.032700 0.597700
0.004300 0.622700
0.041200 0.639700
0.078200 0.661300
0.115100 0.681900
0.152100 0.681400
0.189000 0.680000
0.226000 0.683900
0.262900 0.685700
0.299900 0.700600
0.336800 0.703600
0.373800 0.677200
0.410700 0.668200
0.447600 0.660800
0.484600 0.666000
0.521500 0.669500
0.558500 0.649000
0.595400 0.638800
0.632400 0.628800
0.669300 0.617500
0.706300 0.608400
0.743200 0.599800
0.780200 0.592900
0.817100 0.584700
0.854100 0.577000
0.891000 0.570200
0.928000 0.563700
0.964900 0.557200
1.001900 0.550500
1.038800 0.543500
1.075700 0.543600
1.112700 0.549800
1.149600 0.538300
1.186600 0.527800
1.223500 0.519900
1.260500 0.511300
1.297400 0.505100
1.334400 0.499800
1.371300 0.493700
1.408300 0.490000
1.445200 0.490200
1.482200 0.502800
1.519100 0.525100
1.556100 0.546300
1.593000 0.549800
1.629900 0.563000
1.666900 0.570500
1.703800 0.581100
1.740800 0.593200
1.777700 0.586500
1.814700 0.592300
1.851600 0.604800
1.888600 0.622500
1.925500 0.644100
1.962500 0.650700
1.999400 0.643000
2.036400 0.647000
2.073300 0.637900
2.110300 0.606200
2.147200 0.576300
2.184100 0.537500
2.221100 0.501600
2.258000 0.468400
2.295000 0.444300
2.331900 0.436800
2.368900 0.424300
2.405800 0.438200
2.442800 0.430900
2.479700 0.419300
2.516700 0.431200
2.553600 0.446400
2.590600 0.457200
2.627500 0.484100
2.664500 0.516500
2.701400 0.510000
2.738300 0.521000
2.775300 0.532400
2.812200 0.545500
2.849200 0.559800
2.886100 0.573000
2.923100 0.585700
2.960000 0.600100
2.997000 0.615200
3.033900 0.629700
3.070900 0.643000
3.107800 0.646800
3.144800 0.660600
3.181700 0.675000
3.218700 0.690800
3.255600 0.705400
3.292600 0.770600
3.329500 0.750900
3.366400 0.785700
3.403400 0.792400
3.440300 0.793800
3.477300 0.794400
3.514200 0.790300
3.551200 0.767600
3.588100 0.770200
3.625100 0.779400
3.662000 0.793700
3.699000 0.809200
3.735900 0.819300
3.772900 0.827100
3.809800 0.832500
3.846800 0.819700
3.883700 0.879400
3.920600 0.877400
3.957600 0.923400
3.994500 0.976300
4.031500 1.044000
4.068400 1.077300
4.105400 1.080400
4.142300 1.080400
4.179300 1.069800
4.216200 1.090800
4.253200 1.114800
4.290100 1.160800
4.327100 1.249100
4.364000 1.340300
4.401000 1.427400
4.437900 1.493400
4.474800 1.565200
4.511800 1.427400
4.548700 1.317700
4.585700 1.267800
4.622600 1.297500
4.659600 1.335800
4.696500 1.334600
4.733500 1.342700
4.770400 1.333800
4.807400 1.339300
4.844300 1.351400
4.881300 1.357600
4.918200 1.333200
4.955200 1.259800
4.992100 1.190000
5.029000 1.146900
5.066000 1.148700
5.102900 1.103600
5.139900 1.087100
5.176800 1.073900
5.213800 1.059400
5.250700 1.043800
5.287700 1.032600
5.324600 1.029600
5.361600 1.029900
5.398500 1.033000
5.435500 1.047800
5.472400 1.042200
5.509400 1.039700
5.546300 1.043400
5.583300 1.052300
5.620200 1.061800
5.657100 1.071900
5.694100 1.080400
5.731000 1.088600
5.768000 1.100400
5.804900 1.111200
5.841900 1.110300
5.878800 1.107200
5.915800 1.126700
5.952700 1.154400
5.989700 1.174200
6.026600 1.201900
6.063600 1.226700
6.100500 1.223200
6.137500 1.235800
6.174400 1.215100
6.211300 1.232500
6.248300 1.251100
6.285200 1.267200
6.322200 1.255300
6.359100 1.250700
6.396100 1.244600
6.433000 1.235300
6.470000 1.238100
6.506900 1.219400
6.543900 1.240100
6.580800 1.261200
6.617800 1.286000
6.654700 1.314900
6.691700 1.332700
6.728600 1.317900
6.765500 1.298400
6.802500 1.282300
6.839400 1.267400
6.876400 1.341100
6.913300 1.544700
6.950300 1.493600
6.987200 1.403300
7.024200 1.270300
7.061100 0.805600
7.098100 0.710600
7.135000 0.686700
7.172000 0.669500
7.208900 0.631400
7.245900 0.624900
7.282800 0.624200
7.319700 0.624800
7.356700 0.627400
7.393600 0.632600
7.430600 0.637900
7.467500 0.643700
7.504500 0.649800
7.541400 0.656300
7.578400 0.663500
7.615300 0.671900
7.652300 0.683800
7.689200 0.707000
7.726200 0.728400
7.763100 0.750100
7.800100 0.774700
7.837000 0.804400
7.874000 0.836400
7.910900 0.871800
7.947800 0.904600
7.984800 0.936600
8.021700 0.866500
8.058700 0.858100
8.095600 0.860900
8.132600 0.799900
8.169500 0.756700
8.206500 0.727600
8.243400 0.715200
8.280400 0.714200
8.317300 0.710500
8.354300 0.723400
8.391200 0.739800
8.428200 0.780800
8.465100 0.856000
8.502000 0.872600
8.539000 0.834600
8.575900 0.801400
8.612900 0.767300
8.649800 0.788300
8.686800 0.764400
8.723700 0.690200
8.760700 0.579400
8.797600 0.533100
8.834600 0.494700
8.871500 0.460000
8.908500 0.436000
8.945400 0.430800
8.982400 0.420500
9.019300 0.406200
9.056200 0.392500
9.093200 0.386500
9.130100 0.383300
9.167100 0.380500
9.204000 0.392300
9.241000 0.422200
9.277900 0.400500
9.314900 0.378300
9.351800 0.367700
9.388800 0.364300
9.425700 0.362200
9.462700 0.360800
9.499600 0.359500
9.536600 0.358900
9.573500 0.364600
9.610400 0.372900
9.647400 0.385300
9.684300 0.403100
9.721300 0.437200
9.758200 0.466000
9.795200 0.485700
9.832100 0.502300
9.869100 0.516700
9.906000 0.526100
9.943000 0.534400
9.979900 0.547800
10.016900 0.553300
10.053800 0.549800
10.090800 0.559300
10.127700 0.561100
10.164700 0.554600
10.201600 0.547900
10.238500 0.544600
10.275500 0.545200
10.312400 0.546700
10.349400 0.549800
10.386300 0.557800
10.423300 0.571300
10.460200 0.589800
10.497200 0.596600
10.534100 0.604300
10.571100 0.613300
10.608000 0.622800
10.645000 0.628900
10.681900 0.631300
10.718900 0.633000
10.755800 0.633300
10.792700 0.630000
10.829700 0.619900
10.866600 0.602800
10.903600 0.573100
10.940500 0.540100
10.977500 0.518000
11.014400 0.507400
11.051400 0.499000
11.088300 0.490400
11.125300 0.477500
11.162200 0.460300
11.199200 0.452600
11.236100 0.450400
11.273100 0.450900
11.310000 0.456000
11.346900 0.464600
11.383900 0.476700
11.420800 0.498100
11.457800 0.537600
11.494700 0.576600
11.531700 0.627100
11.568600 0.626900
11.605600 0.645500
11.642500 0.663300
11.679500 0.680000
11.716400 0.689800
11.753400 0.678200
11.790300 0.661600
11.827300 0.647500
11.864200 0.631400
11.901100 0.622000
11.938100 0.612400
11.975000 0.606300
12.012000 0.603500
12.048900 0.604600
12.085900 0.607200
12.122800 0.612500
12.159800 0.617200
12.196700 0.628700
12.233700 0.641300
12.270600 0.651000
12.307600 0.658500
12.344500 0.666400
12.381500 0.675100
12.418400 0.684200
12.455400 0.694200
12.492300 0.704600
12.529200 0.714900
12.566200 0.747400
12.603100 0.790200
12.640100 0.823600
12.677000 0.857800
12.714000 0.898100
12.750900 0.932300
12.787900 0.976800
12.824800 1.025700
12.861800 1.095500
12.898700 1.138200
12.935700 1.183200
12.972600 1.258000
13.009600 1.343000
13.046500 1.452500
13.083400 1.584400
13.120400 1.675800
13.157300 1.792800
13.194300 1.755800
13.231200 1.744100
13.268200 1.664700
13.305100 1.654300
13.342100 1.651700
13.379000 1.698100
13.416000 2.253900
13.452900 1.851700
13.489900 1.634200
13.526800 1.500100
13.563800 1.371000
13.600700 0.961800
13.637600 0.842500
13.674600 0.835500
13.711500 0.818700
13.748500 0.812500
13.785400 0.816700
13.822400 0.826400
13.859300 0.839400
13.896300 0.856800
13.933200 0.883100
13.970200 0.917500
14.007100 0.936800
14.044100 0.965700
14.081000 1.007100
14.118000 1.056200
14.154900 1.222200
14.191800 1.230400
14.228800 1.262000
14.265700 1.284200
14.302700 1.315500
14.339600 1.394000
14.376600 1.543800
14.413500 1.652700
14.450500 1.692800
14.487400 1.661900
14.524400 1.656300
14.561300 1.629300
14.598300 1.590000
14.635200 1.538200
14.672200 1.500300
14.709100 1.451800
14.746100 1.408200
14.783000 1.376900
14.819900 1.353600
14.856900 1.333800
14.893800 1.311200
14.930800 1.280400
14.967700 1.236600
15.004700 1.170700
15.041600 1.110500
15.078600 1.050300
15.115500 1.020300
15.152500 0.993300
15.189400 0.975500
15.226400 0.958300
15.263300 0.930000
15.300300 0.894500
15.337200 0.788400
15.374100 0.690700
15.411100 0.611500
15.448000 0.617100
15.485000 0.607400
15.521900 0.597500
15.558900 0.614400
15.595800 0.661700
15.632800 0.692600
15.669700 0.726100
15.706700 0.738700
15.743600 0.782300
15.780600 0.817800
15.817500 0.861700
15.854500 0.905700
15.891400 0.941900
15.928300 0.966000
15.965300 0.979400
16.002200 0.984700
16.039200 0.997600
16.076100 1.022100
16.113100 1.052900
16.150000 1.096600
16.187000 1.089600
16.223900 1.142900
16.260900 1.226600
16.297800 1.446900
16.334800 1.365100
16.371700 1.348200
16.408700 1.355100
16.445600 1.451700
16.482500 1.402700
16.519500 1.294200
16.556400 1.262400
16.593400 1.256600
16.630300 1.252400
16.667300 1.238600
16.704200 1.231800
16.741200 1.249400
16.778100 1.271000
16.815100 1.288900
16.852000 1.282800
16.889000 1.264500
16.925900 1.264000
16.962900 1.285800
16.999800 1.311700
17.036800 1.322700
17.073700 1.333900
17.110600 1.335800
17.147600 1.316500
17.184500 1.289000
17.221500 1.209000
17.258400 1.162500
17.295400 1.122100
17.332300 1.110600
17.369300 1.104900
17.406200 1.097600
17.443200 1.087100
17.480100 1.084900
17.517100 1.102100
17.554000 1.145200
17.591000 1.120200
17.627900 1.098200
17.664800 1.061500
17.701800 0.984300
17.738700 0.961900
17.775700 0.928200
17.812600 0.872800
17.849600 0.831800
17.886500 0.788400
17.923500 0.746700
17.960400 0.708500
17.997400 0.677500
18.034300 0.657800
18.071300 0.662200
18.108200 0.665600
18.145200 0.727600
18.182100 0.548200
18.219000 0.533900
18.256000 0.529300
18.292900 0.532400
18.329900 0.547600
18.366800 0.561300
18.403800 0.573800
18.440700 0.591700
18.477700 0.619400
18.514600 0.654600
18.551600 0.748800
18.588500 1.007300
18.625500 1.110300
18.662400 0.982700
18.699400 1.023800
18.736300 1.069500
18.773200 1.130100
18.810200 1.174900
18.847100 1.206500
18.884100 1.288200
18.921000 1.453500
18.958000 1.556700
18.994900 1.428900
19.031900 1.276000
19.068800 1.117600
19.105800 0.990700
19.142700 0.920700
19.179700 0.888800
19.216600 0.888000
19.253600 0.903700
19.290500 0.922500
19.327500 0.939000
19.364400 0.955600
19.401300 0.975800
19.438300 1.015500
19.475200 1.055600
19.512200 1.096100
19.549100 1.132800
19.586100 1.164800
19.623000 1.229000
19.660000 1.278500
19.696900 1.320700
19.733900 1.403600
19.770800 1.469600
19.807800 1.501900
19.844700 1.571600
19.881700 1.596200
19.918600 1.582100
19.955500 1.601200
19.992500 1.607700
20.029400 1.652400
20.066400 1.616300
20.103300 1.457000
20.140300 1.378600
20.177200 1.316300
20.214200 1.264100
20.251100 1.208000
20.288100 1.153900
20.325000 1.106600
20.362000 1.064200
20.398900 1.000200
20.435900 0.955100
20.472800 0.915600
20.509700 0.894100
20.546700 0.882400
20.583600 0.860700
20.620600 0.847000
20.657500 0.840500
20.694500 0.836900
20.731400 0.838000
20.768400 0.844800
20.805300 0.853800
20.842300 0.851100
20.879200 0.841400
20.916200 0.842000
20.953100 0.841200
20.990100 0.840400
21.027000 0.847600
21.063900 0.888900
21.100900 0.874700
21.137800 0.850400
21.174800 0.875800
21.211700 0.892300
21.248700 0.940900
21.285600 1.058700
21.322600 1.077100
21.359500 1.067600
21.396500 1.047400
21.433400 1.000000
21.470400 0.923400
21.507300 0.876200
21.544300 0.837600
21.581200 0.798600
21.618200 0.769600
21.655100 0.749400
21.692000 0.722500
21.729000 0.693600
21.765900 0.631500
21.802900 0.616400
21.839800 0.606200
21.876800 0.594100
21.913700 0.596700
21.950700 0.614700
21.987600 0.642900
22.024600 0.676100
22.061500 0.720600
22.098500 0.771400
22.135400 0.812100
22.172400 0.846900
22.209300 0.887400
22.246200 0.932200
22.283200 0.982300
22.320100 1.035600
22.357100 1.115300
22.394000 1.187900
22.431000 1.240600
22.467900 1.250700
22.504900 1.252600
22.541800 1.255800
22.578800 1.245300
22.615700 1.215800
22.652700 1.180800
22.689600 1.174800
22.726600 1.145100
22.763500 1.074000
22.800400 1.005300
22.837400 0.969400
22.874300 0.912500
22.911300 0.897100
22.948200 0.897200
22.985200 0.899700
23.022100 0.904900
23.059100 0.913400
23.096000 0.923500
23.133000 0.936200
23.169900 0.952500
23.206900 0.970500
23.243800 0.994900
23.280800 1.007600
23.317700 1.021200
23.354600 1.033400
23.391600 1.049400
23.428500 1.064800
23.465500 1.082300
23.502400 1.099600
23.539400 1.103000
23.576300 1.101600
23.613300 1.094300
23.650200 1.072100
23.687200 1.063000
23.724100 1.075400
23.761100 1.076900
23.798000 1.088700
23.835000 1.138300
23.871900 1.215500
23.908900 1.315300
23.945800 1.412600
23.982700 1.513400
24.019700 1.599400
24.056600 1.621000
24.093600 1.639700
24.130500 1.640300
24.167500 1.644200
24.204400 1.650100
24.241400 1.714400
24.278300 1.783700
24.315300 1.394300
24.352200 1.299000
24.389200 1.254100
24.426100 1.234500
24.463100 1.213600
24.500000 1.200200
24.536900 1.186700
24.573900 1.207900
24.610800 1.264100
24.647800 1.327900
24.684700 1.394800
24.721700 1.464900
24.758600 1.544600
24.795600 1.586000
24.832500 1.666400
24.869500 1.765400
24.906400 1.882600
24.943400 2.012700
24.980300 2.080200
25.017300 2.134200
25.054200 2.117900
25.091100 1.999400
25.128100 1.860300
25.165000 1.731400
25.202000 1.677300
25.238900 1.780400
25.275900 1.521500
25.312800 1.450100
25.349800 1.408700
25.386700 1.373800
25.423700 1.354800
25.460600 1.343900
25.497600 1.339600
25.534500 1.374200
25.571500 1.411500
25.608400 1.438000
25.645300 1.340000
25.682300 1.317600
25.719200 1.302500
25.756200 1.289700
25.793100 1.293400
25.830100 1.329200
25.867000 1.380600
25.904000 1.430900
25.940900 1.471000
25.977900 1.508500
26.014800 1.542400
26.051800 1.553600
26.088700 1.557700
26.125700 1.583300
26.162600 1.599000
26.199600 1.638900
26.236500 1.701400
26.273400 1.752900
26.310400 1.801100
26.347300 1.834300
26.384300 1.820700
26.421200 1.775500
26.458200 1.731300
26.495100 1.681100
26.532100 1.639100
26.569000 1.589300
26.606000 1.558700
26.642900 1.543600
26.679900 1.529700
26.716800 1.515100
26.753800 1.499800
26.790700 1.492400
26.827600 1.499400
26.864600 1.475100
26.901500 1.459200
26.938500 1.436800
26.975400 1.403300
27.012400 1.381000
27.049300 1.362500
27.086300 1.332800
27.123200 1.292400
27.160200 1.264800
27.197100 1.256700
27.234100 1.258400
27.271000 1.289500
27.308000 1.322000
27.344900 1.301500
27.381800 1.284900
27.418800 1.273500
27.455700 1.285100
27.492700 1.285400
27.529600 1.324300
27.566600 1.394900
27.603500 1.399200
27.640500 1.408500
27.677400 1.416200
27.714400 1.470900
27.751300 1.463900
27.788300 1.456400
27.825200 1.450700
27.862200 1.427300
27.899100 1.389300
27.936000 1.376400
27.973000 1.410500
28.009900 1.431300
28.046900 1.441500
