set title 'mp-1183200 - Density of States'
set xlabel 'Energy (eV)'
set ylabel 'DOS (states/eV)'
set grid
set xrange [-10:10]
set yrange [0:2.422]
set xzeroaxis lt -1
set terminal png size 800,600
set output 'mp-1183200_dos_gnuplot.png'
plot '-' using 1:2 with lines title 'DOS'
-16.026900 0.000000
-15.999900 0.000000
-15.972900 0.000000
-15.945900 0.000000
-15.918900 0.000000
-15.891900 0.000000
-15.864900 0.000000
-15.838000 0.000000
-15.811000 0.000000
-15.784000 0.000000
-15.757000 0.000000
-15.730000 0.000000
-15.703000 0.000000
-15.676100 0.000000
-15.649100 0.000000
-15.622100 0.000000
-15.595100 0.000000
-15.568100 0.000000
-15.541100 0.000000
-15.514100 0.000000
-15.487200 0.000000
-15.460200 0.000000
-15.433200 0.000000
-15.406200 0.000000
-15.379200 0.000000
-15.352200 0.000000
-15.325300 0.000000
-15.298300 0.000000
-15.271300 0.000000
-15.244300 0.000000
-15.217300 0.000000
-15.190300 0.000000
-15.163300 0.000000
-15.136400 0.000000
-15.109400 0.000000
-15.082400 0.000000
-15.055400 0.000000
-15.028400 0.000000
-15.001400 0.000000
-14.974400 0.000000
-14.947500 0.000000
-14.920500 0.000000
-14.893500 0.000000
-14.866500 0.000000
-14.839500 0.000000
-14.812500 0.000000
-14.785600 0.000000
-14.758600 0.000000
-14.731600 0.000000
-14.704600 0.000000
-14.677600 0.000000
-14.650600 0.000000
-14.623600 0.000000
-14.596700 0.000000
-14.569700 0.000000
-14.542700 0.000000
-14.515700 0.000000
-14.488700 0.000000
-14.461700 0.000000
-14.434800 0.000000
-14.407800 0.000000
-14.380800 0.000000
-14.353800 0.000000
-14.326800 0.000000
-14.299800 0.000000
-14.272800 0.000000
-14.245900 0.000000
-14.218900 0.000000
-14.191900 0.000000
-14.164900 0.000000
-14.137900 0.000000
-14.110900 0.000000
-14.083900 0.000000
-14.057000 0.000000
-14.030000 0.000000
-14.003000 0.000000
-13.976000 0.000000
-13.949000 0.000000
-13.922000 0.000000
-13.895100 0.000000
-13.868100 0.000000
-13.841100 0.000000
-13.814100 0.000000
-13.787100 0.000000
-13.760100 0.000000
-13.733100 0.000000
-13.706200 0.000000
-13.679200 0.000000
-13.652200 0.000000
-13.625200 0.000000
-13.598200 0.000000
-13.571200 168.892400
-13.544300 266.903800
-13.517300 0.000000
-13.490300 0.000000
-13.463300 0.000000
-13.436300 0.000000
-13.409300 0.000000
-13.382300 0.000000
-13.355400 0.000000
-13.328400 0.000000
-13.301400 0.000000
-13.274400 0.000000
-13.247400 0.000000
-13.220400 0.000000
-13.193500 0.000000
-13.166500 0.000000
-13.139500 0.000000
-13.112500 0.000000
-13.085500 0.000000
-13.058500 0.000000
-13.031500 0.000000
-13.004600 0.000000
-12.977600 0.000000
-12.950600 0.000000
-12.923600 0.000000
-12.896600 0.000000
-12.869600 0.000000
-12.842600 0.000000
-12.815700 0.000000
-12.788700 0.000000
-12.761700 0.000000
-12.734700 0.000000
-12.707700 0.000000
-12.680700 0.000000
-12.653800 0.000000
-12.626800 0.000000
-12.599800 0.000000
-12.572800 0.000000
-12.545800 0.000000
-12.518800 0.000000
-12.491800 0.000000
-12.464900 0.000000
-12.437900 0.000000
-12.410900 0.000000
-12.383900 0.000000
-12.356900 0.000000
-12.329900 0.000000
-12.303000 0.000000
-12.276000 0.000000
-12.249000 0.000000
-12.222000 0.000000
-12.195000 0.000000
-12.168000 0.000000
-12.141000 0.000000
-12.114100 0.000000
-12.087100 0.000000
-12.060100 0.000000
-12.033100 0.000000
-12.006100 0.000000
-11.979100 0.000000
-11.952100 0.000000
-11.925200 0.000000
-11.898200 0.000000
-11.871200 0.000000
-11.844200 0.000000
-11.817200 0.000000
-11.790200 0.000000
-11.763300 0.000000
-11.736300 0.000000
-11.709300 0.000000
-11.682300 0.000000
-11.655300 0.000000
-11.628300 0.000000
-11.601300 0.000000
-11.574400 0.000000
-11.547400 0.000000
-11.520400 0.000000
-11.493400 0.000000
-11.466400 0.000000
-11.439400 0.000000
-11.412500 0.000000
-11.385500 0.000000
-11.358500 0.000000
-11.331500 0.000000
-11.304500 0.000000
-11.277500 0.000000
-11.250500 0.000000
-11.223600 0.000000
-11.196600 0.000000
-11.169600 0.000000
-11.142600 0.000000
-11.115600 0.000000
-11.088600 0.000000
-11.061600 0.000000
-11.034700 0.000000
-11.007700 0.000000
-10.980700 0.000000
-10.953700 0.000000
-10.926700 0.000000
-10.899700 0.000000
-10.872800 0.000000
-10.845800 0.000000
-10.818800 0.000000
-10.791800 0.000000
-10.764800 0.000000
-10.737800 0.000000
-10.710800 0.000000
-10.683900 0.000000
-10.656900 0.000000
-10.629900 0.000000
-10.602900 0.000000
-10.575900 0.000000
-10.548900 0.000000
-10.522000 0.000000
-10.495000 0.000000
-10.468000 0.000000
-10.441000 0.000000
-10.414000 0.000000
-10.387000 0.000000
-10.360000 0.000000
-10.333100 0.000000
-10.306100 0.000000
-10.279100 0.000000
-10.252100 0.000000
-10.225100 0.000000
-10.198100 0.000000
-10.171200 0.000000
-10.144200 0.000000
-10.117200 0.000000
-10.090200 0.000000
-10.063200 0.000000
-10.036200 0.000000
-10.009200 0.000000
-9.982300 0.000000
-9.955300 0.000000
-9.928300 0.000000
-9.901300 0.000000
-9.874300 0.000000
-9.847300 0.000000
-9.820300 0.000000
-9.793400 0.000000
-9.766400 0.000000
-9.739400 0.000000
-9.712400 0.000000
-9.685400 0.000000
-9.658400 0.000000
-9.631500 0.000000
-9.604500 0.000000
-9.577500 0.000000
-9.550500 0.000000
-9.523500 0.000000
-9.496500 0.000000
-9.469500 0.000000
-9.442600 0.000000
-9.415600 0.000000
-9.388600 0.000000
-9.361600 0.000000
-9.334600 0.000000
-9.307600 0.000000
-9.280700 0.000000
-9.253700 0.000000
-9.226700 0.000000
-9.199700 0.000000
-9.172700 0.000000
-9.145700 0.000000
-9.118700 0.000000
-9.091800 0.000000
-9.064800 0.000000
-9.037800 0.000000
-9.010800 0.000000
-8.983800 0.000000
-8.956800 0.000000
-8.929800 0.000000
-8.902900 0.000000
-8.875900 0.000000
-8.848900 0.000000
-8.821900 0.000000
-8.794900 0.000000
-8.767900 0.000000
-8.741000 0.000000
-8.714000 0.000000
-8.687000 0.000000
-8.660000 0.000000
-8.633000 0.000000
-8.606000 0.000000
-8.579000 0.000000
-8.552100 0.000000
-8.525100 0.000000
-8.498100 0.000000
-8.471100 0.000000
-8.444100 0.000000
-8.417100 0.000000
-8.390200 0.000000
-8.363200 0.000000
-8.336200 0.000000
-8.309200 0.000000
-8.282200 0.000000
-8.255200 0.000000
-8.228200 0.000000
-8.201300 0.000000
-8.174300 0.000000
-8.147300 0.000000
-8.120300 0.000000
-8.093300 0.000000
-8.066300 0.000000
-8.039400 0.000000
-8.012400 0.000000
-7.985400 0.000000
-7.958400 0.000000
-7.931400 0.000000
-7.904400 0.000000
-7.877400 0.000000
-7.850500 0.000000
-7.823500 0.000000
-7.796500 0.000000
-7.769500 0.000000
-7.742500 0.000000
-7.715500 0.000000
-7.688500 0.000000
-7.661600 0.000000
-7.634600 0.000000
-7.607600 0.000000
-7.580600 0.000000
-7.553600 0.000000
-7.526600 0.000000
-7.499700 0.000000
-7.472700 0.000000
-7.445700 0.000000
-7.418700 0.000000
-7.391700 0.000000
-7.364700 0.000000
-7.337700 0.000000
-7.310800 0.000000
-7.283800 0.000000
-7.256800 0.000000
-7.229800 0.000000
-7.202800 0.000000
-7.175800 0.000000
-7.148900 0.000000
-7.121900 0.000000
-7.094900 0.000000
-7.067900 0.000000
-7.040900 0.000000
-7.013900 0.000000
-6.986900 0.000000
-6.960000 0.000000
-6.933000 0.000000
-6.906000 0.000000
-6.879000 0.000000
-6.852000 0.000000
-6.825000 0.000000
-6.798000 0.000000
-6.771100 0.000000
-6.744100 0.000000
-6.717100 0.000000
-6.690100 0.000000
-6.663100 0.000000
-6.636100 0.000000
-6.609200 0.000000
-6.582200 0.000000
-6.555200 0.000000
-6.528200 0.000000
-6.501200 0.000000
-6.474200 0.000000
-6.447200 0.000000
-6.420300 0.000000
-6.393300 0.000000
-6.366300 0.000000
-6.339300 0.000000
-6.312300 0.000000
-6.285300 0.000000
-6.258400 0.000000
-6.231400 0.000000
-6.204400 0.000000
-6.177400 0.000000
-6.150400 0.000000
-6.123400 0.000000
-6.096400 0.000000
-6.069500 0.000000
-6.042500 0.000000
-6.015500 0.000000
-5.988500 0.000000
-5.961500 0.000000
-5.934500 0.000000
-5.907500 0.000000
-5.880600 0.000000
-5.853600 0.000000
-5.826600 0.000000
-5.799600 0.000000
-5.772600 0.000000
-5.745600 0.000000
-5.718700 0.000000
-5.691700 0.000000
-5.664700 0.000000
-5.637700 0.000000
-5.610700 0.000000
-5.583700 0.000000
-5.556700 0.000000
-5.529800 0.000000
-5.502800 0.000000
-5.475800 0.000000
-5.448800 0.000000
-5.421800 0.000000
-5.394800 0.000000
-5.367900 0.000000
-5.340900 0.000000
-5.313900 0.000000
-5.286900 0.000000
-5.259900 0.000000
-5.232900 0.000000
-5.205900 0.000000
-5.179000 0.000000
-5.152000 0.000000
-5.125000 0.000000
-5.098000 0.000000
-5.071000 0.000000
-5.044000 0.000000
-5.017100 0.000000
-4.990100 0.000000
-4.963100 0.000000
-4.936100 0.000000
-4.909100 0.000000
-4.882100 0.000000
-4.855100 0.000000
-4.828200 0.000000
-4.801200 0.000000
-4.774200 0.000000
-4.747200 0.000000
-4.720200 0.000000
-4.693200 0.000000
-4.666200 0.000000
-4.639300 0.000000
-4.612300 0.000000
-4.585300 0.000000
-4.558300 0.000000
-4.531300 0.000000
-4.504300 0.000000
-4.477400 0.000000
-4.450400 0.000000
-4.423400 0.000000
-4.396400 0.000000
-4.369400 0.000000
-4.342400 0.000000
-4.315400 0.000000
-4.288500 0.000000
-4.261500 0.000000
-4.234500 0.000000
-4.207500 0.000000
-4.180500 0.000000
-4.153500 0.000000
-4.126600 0.000000
-4.099600 0.000000
-4.072600 0.000000
-4.045600 0.000000
-4.018600 0.000000
-3.991600 0.000000
-3.964600 0.000000
-3.937700 0.000000
-3.910700 0.000000
-3.883700 0.000000
-3.856700 0.000000
-3.829700 0.000000
-3.802700 0.000000
-3.775700 0.000000
-3.748800 0.000000
-3.721800 0.000000
-3.694800 0.000000
-3.667800 0.000000
-3.640800 0.000000
-3.613800 0.000000
-3.586900 0.000000
-3.559900 0.000000
-3.532900 0.000000
-3.505900 0.000000
-3.478900 0.000000
-3.451900 0.000000
-3.424900 0.000000
-3.398000 0.000000
-3.371000 0.000000
-3.344000 0.000000
-3.317000 0.000000
-3.290000 0.000000
-3.263000 0.000000
-3.236100 0.000000
-3.209100 0.010600
-3.182100 0.054000
-3.155100 0.125300
-3.128100 0.157500
-3.101100 0.168100
-3.074100 0.187200
-3.047200 0.210000
-3.020200 0.234000
-2.993200 0.251100
-2.966200 0.273400
-2.939200 0.291100
-2.912200 0.300100
-2.885200 0.307000
-2.858300 0.321200
-2.831300 0.335700
-2.804300 0.349900
-2.777300 0.362100
-2.750300 0.372100
-2.723300 0.381700
-2.696400 0.393400
-2.669400 0.406800
-2.642400 0.421300
-2.615400 0.433800
-2.588400 0.443400
-2.561400 0.453000
-2.534400 0.462300
-2.507500 0.471500
-2.480500 0.480800
-2.453500 0.488300
-2.426500 0.496900
-2.399500 0.505600
-2.372500 0.514200
-2.345600 0.524600
-2.318600 0.534600
-2.291600 0.544800
-2.264600 0.555600
-2.237600 0.567000
-2.210600 0.578600
-2.183600 0.590100
-2.156700 0.599900
-2.129700 0.608100
-2.102700 0.617100
-2.075700 0.625400
-2.048700 0.634000
-2.021700 0.642900
-1.994800 0.652100
-1.967800 0.661800
-1.940800 0.672400
-1.913800 0.683400
-1.886800 0.694800
-1.859800 0.706500
-1.832800 0.719600
-1.805900 0.733400
-1.778900 0.747700
-1.751900 0.762300
-1.724900 0.777300
-1.697900 0.793000
-1.670900 0.817800
-1.643900 0.840000
-1.617000 0.858800
-1.590000 0.878200
-1.563000 0.915100
-1.536000 0.916400
-1.509000 0.922700
-1.482000 0.933300
-1.455100 0.941600
-1.428100 0.952400
-1.401100 0.964700
-1.374100 0.978700
-1.347100 1.008000
-1.320100 1.057500
-1.293100 1.093700
-1.266200 1.130000
-1.239200 1.157600
-1.212200 1.177600
-1.185200 1.192200
-1.158200 1.188000
-1.131200 1.159600
-1.104300 1.145800
-1.077300 1.144700
-1.050300 1.172600
-1.023300 1.207200
-0.996300 1.131100
-0.969300 1.088100
-0.942300 1.037300
-0.915400 0.975000
-0.888400 0.890400
-0.861400 0.821000
-0.834400 0.776200
-0.807400 0.749800
-0.780400 0.724400
-0.753400 0.696300
-0.726500 0.665500
-0.699500 0.632000
-0.672500 0.591200
-0.645500 0.573800
-0.618500 0.558500
-0.591500 0.545100
-0.564600 0.533800
-0.537600 0.516100
-0.510600 0.498800
-0.483600 0.482200
-0.456600 0.466500
-0.429600 0.451500
-0.402600 0.437400
-0.375700 0.424000
-0.348700 0.419800
-0.321700 0.429300
-0.294700 0.433100
-0.267700 0.432600
-0.240700 0.432100
-0.213800 0.423000
-0.186800 0.411900
-0.159800 0.498000
-0.132800 0.440000
-0.105800 0.438400
-0.078800 0.421200
-0.051800 0.400900
-0.024900 0.384400
0.002100 0.391600
0.029100 0.424200
0.056100 0.401000
0.083100 0.370900
0.110100 0.379600
0.137000 0.418700
0.164000 0.455900
0.191000 0.491000
0.218000 0.524900
0.245000 0.560300
0.272000 0.603500
0.299000 0.652200
0.325900 0.706200
0.352900 0.746100
0.379900 0.785400
0.406900 0.864400
0.433900 0.956800
0.460900 1.036400
0.487900 1.085300
0.514800 1.070300
0.541800 1.049200
0.568800 1.027200
0.595800 1.012200
0.622800 1.001100
0.649800 0.996300
0.676700 0.989700
0.703700 0.979700
0.730700 0.970900
0.757700 0.962600
0.784700 0.957600
0.811700 0.954100
0.838700 0.954100
0.865600 0.962100
0.892600 0.976500
0.919600 0.986900
0.946600 0.998700
0.973600 1.011200
1.000600 1.024400
1.027500 1.038800
1.054500 1.063200
1.081500 1.092300
1.108500 1.114000
1.135500 1.132300
1.162500 1.149500
1.189500 1.171500
1.216400 1.200700
1.243400 1.249600
1.270400 1.324600
1.297400 1.370500
1.324400 1.384300
1.351400 1.367900
1.378400 1.343700
1.405300 1.317900
1.432300 1.323300
1.459300 1.331500
1.486300 1.263600
1.513300 1.144700
1.540300 1.132500
1.567200 1.131800
1.594200 1.017600
1.621200 1.014700
1.648200 1.015800
1.675200 1.018800
1.702200 1.039500
1.729200 1.042200
1.756100 1.050400
1.783100 1.057500
1.810100 1.069000
1.837100 1.077300
1.864100 1.083800
1.891100 1.090000
1.918000 1.097700
1.945000 1.104500
1.972000 1.111500
1.999000 1.119500
2.026000 1.129500
2.053000 1.147200
2.080000 1.150300
2.106900 1.149700
2.133900 1.148100
2.160900 1.155100
2.187900 1.167200
2.214900 1.181300
2.241900 1.193700
2.268900 1.205400
2.295800 1.186300
2.322800 1.190400
2.349800 1.194600
2.376800 1.197500
2.403800 1.203700
2.430800 1.196200
2.457700 1.204600
2.484700 1.225700
2.511700 1.235800
2.538700 1.220500
2.565700 1.233600
2.592700 1.248800
2.619700 1.271700
2.646600 1.251500
2.673600 1.266200
2.700600 1.278300
2.727600 1.288300
2.754600 1.295900
2.781600 1.304000
2.808500 1.325000
2.835500 1.329100
2.862500 1.334700
2.889500 1.338800
2.916500 1.345500
2.943500 1.372100
2.970500 1.373700
2.997400 1.386000
3.024400 1.391100
3.051400 1.383000
3.078400 1.373300
3.105400 1.403100
3.132400 1.394800
3.159300 1.384000
3.186300 1.369500
3.213300 1.367700
3.240300 1.368300
3.267300 1.372600
3.294300 1.358700
3.321300 1.374300
3.348200 1.386400
3.375200 1.395300
3.402200 1.401000
3.429200 1.403500
3.456200 1.403500
3.483200 1.437400
3.510200 1.363800
3.537100 1.390000
3.564100 1.431100
3.591100 1.385700
3.618100 1.369300
3.645100 1.348700
3.672100 1.331900
3.699000 1.320600
3.726000 1.306700
3.753000 1.290300
3.780000 1.270200
3.807000 1.386000
3.834000 1.222000
3.861000 1.231400
3.887900 1.249200
3.914900 1.260400
3.941900 1.298700
3.968900 1.347500
3.995900 1.402100
4.022900 1.444800
4.049800 1.440500
4.076800 1.415300
4.103800 1.392000
4.130800 1.384400
4.157800 1.376400
4.184800 1.356300
4.211800 1.353200
4.238700 1.356000
4.265700 1.365800
4.292700 1.383400
4.319700 1.409600
4.346700 1.476100
4.373700 1.511400
4.400700 1.550300
4.427600 1.593200
4.454600 1.633800
4.481600 1.666600
4.508600 1.702700
4.535600 1.704500
4.562600 1.722400
4.589500 1.731600
4.616500 1.695700
4.643500 1.657200
4.670500 1.621900
4.697500 1.596400
4.724500 1.583400
4.751500 1.562600
4.778400 1.565200
4.805400 1.563700
4.832400 1.558000
4.859400 1.595500
4.886400 1.592600
4.913400 1.567900
4.940300 1.675100
4.967300 1.392900
4.994300 1.374100
5.021300 1.358500
5.048300 1.354800
5.075300 1.349500
5.102300 1.402400
5.129200 1.452000
5.156200 1.501400
5.183200 1.513900
5.210200 1.540800
5.237200 1.558300
5.264200 1.570800
5.291200 1.577300
5.318100 1.572600
5.345100 1.563300
5.372100 1.551300
5.399100 1.539400
5.426100 1.527300
5.453100 1.517600
5.480000 1.510500
5.507000 1.509100
5.534000 1.481200
5.561000 1.484400
5.588000 1.499700
5.615000 1.503400
5.642000 1.491200
5.668900 1.485800
5.695900 1.490600
5.722900 1.503800
5.749900 1.543400
5.776900 1.488400
5.803900 1.475200
5.830800 1.472900
5.857800 1.479400
5.884800 1.493400
5.911800 1.507900
5.938800 1.519100
5.965800 1.529200
5.992800 1.537600
6.019700 1.549900
6.046700 1.556500
6.073700 1.575700
6.100700 1.606500
6.127700 1.641400
6.154700 1.669300
6.181600 1.689600
6.208600 1.721500
6.235600 1.773200
6.262600 1.809900
6.289600 1.744300
6.316600 1.705900
6.343600 1.702600
6.370500 1.721500
6.397500 1.686800
6.424500 1.689200
6.451500 1.686300
6.478500 1.687700
6.505500 1.715500
6.532500 1.723300
6.559400 1.723300
6.586400 1.678400
6.613400 1.660300
6.640400 1.646800
6.667400 1.627900
6.694400 1.616100
6.721300 1.635400
6.748300 1.642500
6.775300 1.662500
6.802300 1.696000
6.829300 1.753800
6.856300 1.763600
6.883300 1.752000
6.910200 1.745400
6.937200 1.757800
6.964200 1.768400
6.991200 1.804300
7.018200 1.829500
7.045200 1.837300
7.072100 1.830600
7.099100 1.826600
7.126100 1.810100
7.153100 1.799800
7.180100 1.806400
7.207100 1.835600
7.234100 1.838100
7.261000 1.830100
7.288000 1.832000
7.315000 1.837600
7.342000 1.842200
7.369000 1.817600
7.396000 1.785000
7.423000 1.773600
7.449900 1.759500
7.476900 1.739400
7.503900 1.677200
7.530900 1.633600
7.557900 1.611800
7.584900 1.587900
7.611800 1.568700
7.638800 1.533500
7.665800 1.474900
7.692800 1.442700
7.719800 1.448800
7.746800 1.477800
7.773800 1.499300
7.800700 1.522000
7.827700 1.551600
7.854700 1.612100
7.881700 1.694200
7.908700 1.724500
7.935700 1.751900
7.962600 1.760700
7.989600 1.799600
8.016600 1.849600
8.043600 1.897800
8.070600 1.941000
8.097600 1.976400
8.124600 1.999300
8.151500 2.002200
8.178500 1.999600
8.205500 1.996900
8.232500 2.045300
8.259500 2.065200
8.286500 2.091500
8.313400 2.084500
8.340400 2.064900
8.367400 2.033400
8.394400 2.014800
8.421400 1.999400
8.448400 1.946800
8.475400 1.939900
8.502300 1.928600
8.529300 1.899400
8.556300 1.883800
8.583300 1.871200
8.610300 1.850800
8.637300 1.787300
8.664300 1.741700
8.691200 1.741500
8.718200 1.670100
8.745200 1.648800
8.772200 1.631200
8.799200 1.618100
8.826200 1.610800
8.853100 1.614300
8.880100 1.627200
8.907100 1.685300
8.934100 1.762300
8.961100 1.743800
8.988100 1.767800
9.015100 1.802100
9.042000 1.834600
9.069000 1.860500
9.096000 1.894100
9.123000 1.936600
9.150000 1.980500
9.177000 2.037000
9.203900 2.122600
9.230900 2.134100
9.257900 2.154300
9.284900 2.196700
9.311900 2.202100
9.338900 2.193800
9.365900 2.186100
9.392800 2.193400
9.419800 2.197000
9.446800 2.169000
9.473800 2.138200
9.500800 2.177800
9.527800 2.152200
9.554800 2.127900
9.581700 2.104500
9.608700 2.084600
9.635700 2.053700
9.662700 1.997700
9.689700 1.934000
9.716700 1.868500
9.743600 1.804900
9.770600 1.747200
9.797600 1.715800
9.824600 1.694700
9.851600 1.681100
9.878600 1.677600
9.905600 1.694400
9.932500 1.718200
9.959500 1.754400
9.986500 1.802100
10.013500 1.858600
10.040500 1.927700
10.067500 2.003300
10.094400 2.064300
10.121400 2.100100
10.148400 2.110100
10.175400 2.152100
10.202400 2.105100
10.229400 2.014600
10.256400 1.981600
10.283300 1.973200
10.310300 1.968000
10.337300 2.013300
10.364300 2.066900
10.391300 2.122800
10.418300 2.165300
10.445300 2.210700
10.472200 2.244100
10.499200 2.211100
10.526200 2.261300
10.553200 2.318900
10.580200 2.316400
10.607200 2.312300
10.634100 2.304800
10.661100 2.299400
10.688100 2.295200
10.715100 2.291000
10.742100 2.293200
10.769100 2.304300
10.796100 2.316700
10.823000 2.328200
10.850000 2.340400
10.877000 2.352500
10.904000 2.362200
10.931000 2.373700
10.958000 2.376800
10.984900 2.379700
11.011900 2.374900
11.038900 2.364000
11.065900 2.351900
11.092900 2.333000
11.119900 2.285100
11.146900 2.217800
11.173800 2.100600
11.200800 2.088300
11.227800 2.091400
11.254800 2.056200
11.281800 2.042700
11.308800 2.039100
11.335700 2.042100
11.362700 2.051400
11.389700 2.066300
11.416700 2.094500
11.443700 2.128200
11.470700 2.183000
11.497700 2.246200
11.524600 2.312100
11.551600 2.388400
11.578600 2.455400
11.605600 2.514300
11.632600 2.540000
11.659600 2.505600
11.686600 2.490200
11.713500 2.479300
11.740500 2.508700
11.767500 2.500800
11.794500 2.495500
11.821500 2.474400
11.848500 2.451200
11.875400 2.427200
11.902400 2.406600
11.929400 2.402100
11.956400 2.388800
11.983400 2.378400
12.010400 2.391700
12.037400 2.428600
12.064300 2.489600
12.091300 2.484900
12.118300 2.441500
12.145300 2.399300
