set title 'mp-1010048 - Density of States'
set xlabel 'Energy (eV)'
set ylabel 'DOS (states/eV)'
set grid
set xrange [-10:10]
set yrange [0:2.470]
set xzeroaxis lt -1
set terminal png size 800,600
set output 'mp-1010048_dos_gnuplot.png'
plot '-' using 1:2 with lines title 'DOS'
-20.384600 0.000000
-20.337400 0.000000
-20.290100 0.000000
-20.242900 0.000000
-20.195700 0.000000
-20.148400 0.000000
-20.101200 0.000000
-20.053900 0.000000
-20.006700 0.000000
-19.959400 0.000000
-19.912200 0.000000
-19.865000 0.000000
-19.817700 0.000000
-19.770500 0.000000
-19.723200 0.000000
-19.676000 0.000000
-19.628800 0.000000
-19.581500 0.000000
-19.534300 0.000000
-19.487000 0.000000
-19.439800 0.000000
-19.392500 0.000000
-19.345300 0.000000
-19.298100 0.000000
-19.250800 0.000000
-19.203600 0.000000
-19.156300 0.000000
-19.109100 0.000000
-19.061800 0.000000
-19.014600 0.000000
-18.967400 0.000000
-18.920100 0.000000
-18.872900 0.000000
-18.825600 0.000000
-18.778400 0.000000
-18.731100 0.000000
-18.683900 0.000000
-18.636700 0.000000
-18.589400 0.000000
-18.542200 0.000000
-18.494900 0.000000
-18.447700 0.000000
-18.400500 0.000000
-18.353200 0.000000
-18.306000 0.000000
-18.258700 0.000000
-18.211500 0.000000
-18.164200 0.000000
-18.117000 0.000000
-18.069800 0.000000
-18.022500 0.000000
-17.975300 0.000000
-17.928000 0.000000
-17.880800 0.000000
-17.833500 0.000000
-17.786300 0.000000
-17.739100 0.000000
-17.691800 0.000000
-17.644600 0.000000
-17.597300 0.000000
-17.550100 0.000000
-17.502800 0.000000
-17.455600 0.000000
-17.408400 0.000000
-17.361100 0.000000
-17.313900 0.000000
-17.266600 0.000000
-17.219400 0.000000
-17.172100 0.000000
-17.124900 0.000000
-17.077700 0.000000
-17.030400 0.000000
-16.983200 0.000000
-16.935900 0.000000
-16.888700 0.000000
-16.841500 0.000000
-16.794200 0.000000
-16.747000 0.000000
-16.699700 0.000000
-16.652500 0.000000
-16.605200 0.000000
-16.558000 0.000000
-16.510800 0.000000
-16.463500 0.000000
-16.416300 0.000000
-16.369000 0.000000
-16.321800 0.000000
-16.274500 0.000000
-16.227300 0.000000
-16.180100 0.000000
-16.132800 0.000000
-16.085600 0.007900
-16.038300 0.446500
-15.991100 0.588000
-15.943800 0.539100
-15.896600 0.620000
-15.849400 0.605100
-15.802100 0.572500
-15.754900 0.594600
-15.707600 0.616700
-15.660400 0.642200
-15.613200 0.630400
-15.565900 0.630000
-15.518700 0.641700
-15.471400 0.653400
-15.424200 0.670600
-15.376900 0.689900
-15.329700 0.698400
-15.282500 0.709600
-15.235200 0.723900
-15.188000 0.739600
-15.140700 0.756700
-15.093500 0.774300
-15.046200 0.801200
-14.999000 0.846100
-14.951800 0.875200
-14.904500 0.904900
-14.857300 0.933700
-14.810000 0.959300
-14.762800 1.101000
-14.715500 1.229400
-14.668300 1.315400
-14.621100 2.003400
-14.573800 1.233800
-14.526600 1.146100
-14.479300 1.058400
-14.432100 0.895500
-14.384800 0.862700
-14.337600 0.823100
-14.290400 0.781700
-14.243100 0.740300
-14.195900 0.678100
-14.148600 0.656600
-14.101400 0.634900
-14.054200 0.612000
-14.006900 0.588700
-13.959700 0.565400
-13.912400 0.537800
-13.865200 0.519400
-13.817900 0.501000
-13.770700 0.485900
-13.723500 0.471600
-13.676200 0.457300
-13.629000 0.456000
-13.581700 0.431300
-13.534500 0.409200
-13.487200 0.395500
-13.440000 0.381900
-13.392800 0.368300
-13.345500 0.393000
-13.298300 0.322200
-13.251000 0.251400
-13.203800 0.000000
-13.156500 0.000000
-13.109300 0.000000
-13.062100 0.000000
-13.014800 0.000000
-12.967600 0.000000
-12.920300 0.000000
-12.873100 0.000000
-12.825900 0.000000
-12.778600 0.000000
-12.731400 0.000000
-12.684100 0.000000
-12.636900 0.000000
-12.589600 0.000000
-12.542400 0.000000
-12.495200 0.000000
-12.447900 0.000000
-12.400700 0.000000
-12.353400 0.000000
-12.306200 0.000000
-12.258900 0.000000
-12.211700 0.000000
-12.164500 0.000000
-12.117200 0.000000
-12.070000 0.000000
-12.022700 0.000000
-11.975500 0.000000
-11.928200 0.000000
-11.881000 0.000000
-11.833800 0.000000
-11.786500 0.000000
-11.739300 0.000000
-11.692000 0.000000
-11.644800 0.000000
-11.597500 0.000000
-11.550300 0.000000
-11.503100 0.000000
-11.455800 0.000000
-11.408600 0.000000
-11.361300 0.000000
-11.314100 0.000000
-11.266900 0.000000
-11.219600 0.000000
-11.172400 0.000000
-11.125100 0.000000
-11.077900 0.000000
-11.030600 0.000000
-10.983400 0.000000
-10.936200 0.000000
-10.888900 0.000000
-10.841700 0.000000
-10.794400 0.000000
-10.747200 0.000000
-10.699900 0.000000
-10.652700 0.000000
-10.605500 0.000000
-10.558200 0.000000
-10.511000 0.000000
-10.463700 0.000000
-10.416500 0.000000
-10.369200 0.000000
-10.322000 0.000000
-10.274800 0.000000
-10.227500 0.000000
-10.180300 0.000000
-10.133000 0.000000
-10.085800 0.000000
-10.038600 0.000000
-9.991300 0.000000
-9.944100 0.000000
-9.896800 0.000000
-9.849600 0.000000
-9.802300 0.000000
-9.755100 0.000000
-9.707900 0.000000
-9.660600 0.000000
-9.613400 0.000000
-9.566100 0.000000
-9.518900 0.000000
-9.471600 0.000000
-9.424400 0.000000
-9.377200 0.000000
-9.329900 0.000000
-9.282700 0.000000
-9.235400 0.000000
-9.188200 0.000000
-9.140900 0.000000
-9.093700 0.000000
-9.046500 0.000000
-8.999200 0.000000
-8.952000 0.000000
-8.904700 0.000000
-8.857500 0.000000
-8.810200 0.000000
-8.763000 0.000000
-8.715800 0.000000
-8.668500 0.000000
-8.621300 0.000000
-8.574000 0.000000
-8.526800 0.000000
-8.479600 0.000000
-8.432300 0.000000
-8.385100 0.000000
-8.337800 0.000000
-8.290600 0.000000
-8.243300 0.000000
-8.196100 0.000000
-8.148900 0.000000
-8.101600 0.000000
-8.054400 0.000000
-8.007100 0.000000
-7.959900 0.000000
-7.912600 0.000000
-7.865400 0.000000
-7.818200 0.000000
-7.770900 0.000000
-7.723700 0.000000
-7.676400 0.000000
-7.629200 0.000000
-7.581900 0.000000
-7.534700 0.000000
-7.487500 0.000000
-7.440200 0.000000
-7.393000 0.000000
-7.345700 0.000000
-7.298500 0.000000
-7.251300 0.000000
-7.204000 0.000000
-7.156800 0.000000
-7.109500 0.000000
-7.062300 0.000000
-7.015000 0.000000
-6.967800 0.000000
-6.920600 0.000000
-6.873300 0.000000
-6.826100 0.000000
-6.778800 0.000000
-6.731600 0.000000
-6.684300 0.000000
-6.637100 0.000000
-6.589900 0.000000
-6.542600 0.000000
-6.495400 0.000000
-6.448100 0.000000
-6.400900 0.000000
-6.353600 0.000000
-6.306400 0.000000
-6.259200 0.000000
-6.211900 0.000000
-6.164700 0.000000
-6.117400 0.000000
-6.070200 0.000000
-6.022900 0.000000
-5.975700 0.000000
-5.928500 0.000000
-5.881200 0.000000
-5.834000 0.000000
-5.786700 0.000000
-5.739500 0.000000
-5.692300 0.000000
-5.645000 0.853500
-5.597800 0.457900
-5.550500 0.513800
-5.503300 0.569700
-5.456000 0.520100
-5.408800 0.556100
-5.361600 0.592000
-5.314300 0.627900
-5.267100 0.631200
-5.219800 0.610900
-5.172600 0.595800
-5.125300 0.598700
-5.078100 0.601600
-5.030900 0.610800
-4.983600 0.615800
-4.936400 0.626700
-4.889100 0.637700
-4.841900 0.648900
-4.794600 0.662900
-4.747400 0.677000
-4.700200 0.711300
-4.652900 0.730700
-4.605700 0.750000
-4.558400 0.769500
-4.511200 0.789300
-4.464000 0.809200
-4.416700 1.074200
-4.369500 1.029200
-4.322200 1.068400
-4.275000 0.864100
-4.227700 0.815400
-4.180500 0.767100
-4.133300 0.718700
-4.086000 0.670400
-4.038800 0.646100
-3.991500 0.685700
-3.944300 0.738900
-3.897000 0.792300
-3.849800 0.565400
-3.802600 0.561500
-3.755300 0.692900
-3.708100 0.721400
-3.660800 0.726000
-3.613600 0.735200
-3.566300 0.744800
-3.519100 0.746400
-3.471900 0.782600
-3.424600 0.830700
-3.377400 0.970500
-3.330100 1.244800
-3.282900 1.237600
-3.235600 1.105800
-3.188400 1.081200
-3.141200 1.043900
-3.093900 1.011800
-3.046700 1.034000
-2.999400 1.121900
-2.952200 1.095700
-2.905000 1.047200
-2.857700 0.987600
-2.810500 0.935300
-2.763200 0.882700
-2.716000 0.869700
-2.668700 0.900800
-2.621500 0.926500
-2.574300 1.002700
-2.527000 1.066500
-2.479800 1.136500
-2.432500 1.117700
-2.385300 1.232100
-2.338000 1.311700
-2.290800 1.379400
-2.243600 1.458300
-2.196300 1.533900
-2.149100 1.626000
-2.101800 1.706200
-2.054600 1.713000
-2.007300 1.777900
-1.960100 2.245700
-1.912900 2.151900
-1.865600 1.641500
-1.818400 1.468500
-1.771100 1.270400
-1.723900 1.208900
-1.676600 1.164200
-1.629400 1.101500
-1.582200 0.901700
-1.534900 0.831400
-1.487700 0.783100
-1.440400 0.850000
-1.393200 0.929400
-1.346000 1.090500
-1.298700 1.308100
-1.251500 1.267500
-1.204200 1.222800
-1.157000 1.178500
-1.109700 1.136500
-1.062500 1.117400
-1.015300 1.054700
-0.968000 0.981500
-0.920800 0.866200
-0.873500 0.854600
-0.826300 0.919600
-0.779000 0.957300
-0.731800 0.763100
-0.684600 0.421700
-0.637300 0.453300
-0.590100 0.496500
-0.542800 0.539800
-0.495600 0.448200
-0.448300 0.450800
-0.401100 0.453300
-0.353900 0.455800
-0.306600 0.458400
-0.259400 0.461000
-0.212100 0.463700
-0.164900 0.466400
-0.117700 0.469100
-0.070400 0.471800
-0.023200 0.475000
0.024100 0.478400
0.071300 0.481800
0.118600 0.485200
0.165800 0.490200
0.213000 0.665100
0.260300 0.565100
0.307500 0.687800
0.354800 0.794500
0.402000 0.690000
0.449300 0.717600
0.496500 0.745300
0.543700 0.771700
0.591000 0.795600
0.638200 0.819400
0.685500 1.046900
0.732700 0.702100
0.780000 0.650700
0.827200 0.611000
0.874400 0.584900
0.921700 0.558700
0.968900 0.538600
1.016200 0.525900
1.063400 0.513200
1.110700 0.503800
1.157900 0.514900
1.205100 0.575800
1.252400 0.533200
1.299600 0.490500
1.346900 0.445800
1.394100 0.392000
1.441300 0.338200
1.488600 0.284400
1.535800 0.193900
1.583100 0.097000
1.630300 0.000000
1.677600 0.000000
1.724800 0.000000
1.772000 0.000000
1.819300 0.000000
1.866500 0.000000
1.913800 0.000000
1.961000 0.000000
2.008300 0.000000
2.055500 0.000000
2.102700 0.000000
2.150000 0.000000
2.197200 0.000000
2.244500 0.000000
2.291700 0.000000
2.339000 0.000000
2.386200 0.000000
2.433400 0.000000
2.480700 0.000000
2.527900 0.000000
2.575200 0.000000
2.622400 0.000000
2.669600 0.000000
2.716900 0.000000
2.764100 0.000000
2.811400 0.000000
2.858600 0.000000
2.905900 0.000000
2.953100 0.000000
3.000300 0.000000
3.047600 0.000000
3.094800 0.000000
3.142100 0.000000
3.189300 0.000000
3.236600 0.000000
3.283800 0.000000
3.331000 0.000000
3.378300 0.000000
3.425500 0.000000
3.472800 0.000000
3.520000 0.000000
3.567300 0.000000
3.614500 0.000000
3.661700 0.000000
3.709000 0.000000
3.756200 0.000000
3.803500 0.000000
3.850700 0.000000
3.898000 0.000000
3.945200 0.000000
3.992400 0.000000
4.039700 0.000000
4.086900 0.000000
4.134200 0.000000
4.181400 0.000000
4.228600 0.000000
4.275900 0.000000
4.323100 0.000000
4.370400 0.000000
4.417600 0.000000
4.464900 0.000000
4.512100 0.000000
4.559300 0.000000
4.606600 0.000000
4.653800 0.000000
4.701100 0.000900
4.748300 0.010300
4.795600 0.030000
4.842800 0.040500
4.890000 0.045000
4.937300 0.052100
4.984500 0.060700
5.031800 0.068500
5.079000 0.075900
5.126300 0.080900
5.173500 0.083300
5.220700 0.089800
5.268000 0.095700
5.315200 0.101800
5.362500 0.107600
5.409700 0.112500
5.456900 0.117800
5.504200 0.123400
5.551400 0.128100
5.598700 0.132800
5.645900 0.832200
5.693200 0.234000
5.740400 0.247900
5.787600 0.261900
5.834900 0.275500
5.882100 0.290200
5.929400 0.304600
5.976600 0.319400
6.023900 0.334400
6.071100 0.333000
6.118300 0.317700
6.165600 0.323600
6.212800 0.329700
6.260100 0.336000
6.307300 0.342900
6.354600 0.350700
6.401800 0.359400
6.449000 0.368300
6.496300 0.378000
6.543500 0.515300
6.590800 0.610100
6.638000 0.659900
6.685300 0.733100
6.732500 0.816300
6.779700 0.933800
6.827000 1.125200
6.874200 1.210400
6.921500 1.180700
6.968700 1.156900
7.015900 1.157400
7.063200 1.152100
7.110400 1.129000
7.157700 1.101300
7.204900 1.086600
7.252200 1.082900
7.299400 1.081800
7.346600 1.070000
7.393900 1.073700
7.441100 1.077100
7.488400 1.080400
7.535600 1.088700
7.582900 1.099500
7.630100 1.112600
7.677300 1.114100
7.724600 1.145300
7.771800 1.048500
7.819100 0.953300
7.866300 0.786400
7.913600 0.664300
7.960800 0.560800
8.008000 0.562000
8.055300 0.708000
8.102500 0.740300
8.149800 0.767900
8.197000 0.795300
8.244200 0.809200
8.291500 0.831400
8.338700 1.168900
8.386000 1.066600
8.433200 0.956500
8.480500 0.880400
8.527700 0.900000
8.574900 0.712800
8.622200 0.648900
8.669400 0.651900
8.716700 0.650500
8.763900 0.650800
8.811200 0.653800
8.858400 0.659400
8.905600 0.691000
8.952900 0.735900
9.000100 0.708200
9.047400 0.662700
9.094600 0.627600
9.141900 0.592000
9.189100 0.554200
9.236300 0.527600
9.283600 0.499000
9.330800 0.464800
9.378100 0.463700
9.425300 0.617900
9.472600 0.473700
9.519800 0.502600
9.567000 0.536600
9.614300 0.567400
9.661500 0.587700
9.708800 0.620400
9.756000 0.674200
9.803200 0.776900
9.850500 0.864700
9.897700 0.993100
9.945000 1.121000
9.992200 1.064800
10.039500 1.095600
10.086700 1.123900
10.133900 1.128200
10.181200 1.143800
10.228400 1.130000
10.275700 1.110700
10.322900 1.103100
10.370200 1.131000
10.417400 1.106700
10.464600 1.097400
10.511900 1.090100
10.559100 1.099700
10.606400 1.099100
10.653600 1.108300
10.700900 1.121300
10.748100 1.129800
10.795300 1.128000
10.842600 1.123600
10.889800 1.178000
10.937100 1.196000
10.984300 1.213200
11.031500 1.226800
11.078800 1.278000
11.126000 1.239600
11.173300 1.224300
11.220500 1.207400
11.267800 1.189400
11.315000 1.204100
11.362200 1.236900
11.409500 1.273700
11.456700 1.362800
11.504000 1.447900
11.551200 1.416300
11.598500 1.397900
11.645700 1.394800
11.692900 1.426200
11.740200 1.561500
11.787400 1.667100
11.834700 1.673800
11.881900 1.675100
11.929200 1.667200
11.976400 1.643900
12.023600 1.567600
12.070900 1.382100
12.118100 1.199400
12.165400 1.079300
12.212600 1.049100
12.259900 0.985100
12.307100 0.966200
12.354300 1.024300
12.401600 1.131700
12.448800 1.196300
12.496100 1.284600
12.543300 1.346600
12.590500 1.365500
12.637800 1.367500
12.685000 1.371700
12.732300 1.356100
12.779500 1.298300
12.826800 1.258900
12.874000 1.261800
12.921200 1.265800
12.968500 1.297100
13.015700 1.346900
13.063000 1.385800
13.110200 1.431600
13.157500 1.444500
13.204700 1.445000
13.251900 1.391800
13.299200 1.301800
13.346400 1.126600
13.393700 0.982200
13.440900 0.867100
13.488200 0.798800
13.535400 0.739600
13.582600 0.708200
13.629900 0.711900
13.677100 1.012200
13.724400 1.043900
13.771600 0.894700
13.818800 0.891600
13.866100 0.912000
13.913300 0.934400
13.960600 0.954200
14.007800 0.967100
14.055100 1.014200
14.102300 1.117600
14.149500 1.098700
14.196800 1.096800
14.244000 1.068800
14.291300 1.057900
14.338500 1.047100
14.385800 1.162300
14.433000 1.230800
14.480200 1.256900
14.527500 1.296300
14.574700 1.309500
14.622000 1.327200
14.669200 1.291100
14.716500 1.290600
14.763700 1.300800
14.810900 1.323000
14.858200 1.363200
14.905400 1.329900
14.952700 1.274300
14.999900 1.191800
15.047200 1.115900
15.094400 1.037500
15.141600 0.982000
15.188900 0.932300
15.236100 0.903300
15.283400 0.941900
15.330600 0.948200
15.377800 0.960700
15.425100 0.989800
15.472300 1.034200
15.519600 1.075700
15.566800 1.128500
15.614100 1.208500
15.661300 1.242300
15.708500 1.279700
15.755800 1.259900
15.803000 1.270000
15.850300 1.222100
15.897500 1.190800
15.944800 1.172300
15.992000 1.159400
16.039200 1.130600
16.086500 1.166000
16.133700 1.184100
16.181000 1.192500
16.228200 1.198100
16.275500 1.209700
16.322700 1.225600
16.369900 1.240700
16.417200 1.279100
16.464400 1.269100
16.511700 1.279600
16.558900 1.293300
16.606100 1.336600
16.653400 1.372600
16.700600 1.372700
16.747900 1.407300
16.795100 1.458300
16.842400 1.541200
16.889600 1.523600
16.936800 1.512600
16.984100 1.443000
17.031300 1.356400
17.078600 1.287800
17.125800 1.245400
17.173100 1.186800
17.220300 1.141200
17.267500 1.107600
17.314800 1.080200
17.362000 1.069000
17.409300 1.073400
17.456500 1.064400
17.503800 1.031000
17.551000 1.017900
17.598200 1.026500
17.645500 1.014100
17.692700 1.010800
17.740000 1.122200
17.787200 1.116900
17.834500 1.169000
17.881700 1.180000
17.928900 1.223800
17.976200 1.283600
18.023400 1.346400
18.070700 1.359300
18.117900 1.361100
18.165100 1.417800
18.212400 1.396100
18.259600 1.325100
18.306900 1.230700
18.354100 1.153600
18.401400 1.111700
18.448600 1.096700
18.495800 1.080300
18.543100 1.075900
18.590300 1.091700
18.637600 1.115000
18.684800 1.146500
18.732100 1.198600
18.779300 1.224800
18.826500 1.259600
18.873800 1.326700
18.921000 1.258400
18.968300 1.153400
19.015500 1.081800
19.062800 1.048700
19.110000 1.021500
19.157200 0.994200
19.204500 0.980200
19.251700 0.975600
19.299000 0.976600
19.346200 0.980500
19.393400 0.983500
19.440700 0.971800
19.487900 0.944300
19.535200 0.919900
19.582400 0.913500
19.629700 0.915000
19.676900 0.925200
19.724100 0.944500
19.771400 0.966300
19.818600 0.995800
19.865900 1.027100
19.913100 1.063300
19.960400 1.113800
20.007600 1.123200
20.054800 1.141000
20.102100 1.150600
20.149300 1.109400
20.196600 1.083400
20.243800 1.085300
20.291100 1.090000
20.338300 1.097000
20.385500 1.135900
20.432800 1.125100
20.480000 1.139500
20.527300 1.224600
20.574500 1.226800
20.621800 1.209400
20.669000 1.185200
20.716200 1.139300
20.763500 1.089300
20.810700 1.068200
20.858000 1.068500
20.905200 1.052100
20.952400 1.059000
20.999700 1.079400
21.046900 1.122700
21.094200 1.176200
21.141400 1.218300
21.188700 1.266400
21.235900 1.365800
21.283100 1.338100
21.330400 1.336000
21.377600 1.362400
21.424900 1.376700
21.472100 1.407300
21.519400 1.449000
21.566600 1.511300
21.613800 1.580000
21.661100 1.649100
21.708300 1.675200
21.755600 1.665400
21.802800 1.631200
21.850100 1.588000
21.897300 1.548400
21.944500 1.447700
21.991800 1.353200
22.039000 1.277800
22.086300 1.202400
22.133500 1.134600
22.180700 1.090300
22.228000 1.057600
22.275200 1.050600
22.322500 1.068000
22.369700 1.087300
22.417000 1.090800
22.464200 1.121600
22.511400 1.150000
22.558700 1.143600
22.605900 1.151300
22.653200 1.195100
22.700400 1.244200
22.747700 1.275600
22.794900 1.301900
22.842100 1.327200
22.889400 1.347600
22.936600 1.370000
22.983900 1.422200
23.031100 1.487700
23.078400 1.567400
23.125600 1.564100
23.172800 1.595400
23.220100 1.565400
23.267300 1.560300
23.314600 1.545000
23.361800 1.522200
23.409100 1.463100
23.456300 1.421900
23.503500 1.438900
23.550800 1.503900
23.598000 1.538400
23.645300 1.460600
23.692500 1.443600
23.739700 1.422600
23.787000 1.419400
23.834200 1.377100
23.881500 1.320400
23.928700 1.240600
23.976000 1.146700
24.023200 1.085100
24.070400 1.058500
24.117700 1.084100
24.164900 1.082800
24.212200 1.109100
24.259400 1.184900
24.306700 1.302200
24.353900 1.354400
24.401100 1.399400
24.448400 1.475100
24.495600 1.414400
24.542900 1.385700
24.590100 1.380200
24.637400 1.361500
24.684600 1.344200
24.731800 1.310100
24.779100 1.280900
24.826300 1.228800
24.873600 1.218900
24.920800 1.227900
24.968000 1.229400
25.015300 1.227900
25.062500 1.232100
25.109800 1.254300
25.157000 1.301900
25.204300 1.392100
25.251500 1.434700
25.298700 1.407900
25.346000 1.427300
25.393200 1.429900
25.440500 1.446500
25.487700 1.482500
25.535000 1.579500
25.582200 1.626800
25.629400 1.657700
25.676700 1.721000
25.723900 1.769600
25.771200 1.830000
25.818400 1.771600
25.865700 1.682000
25.912900 1.629900
25.960100 1.534600
26.007400 1.436800
26.054600 1.360300
26.101900 1.305100
26.149100 1.285100
26.196400 1.262000
26.243600 1.240000
26.290800 1.275000
26.338100 1.307300
26.385300 1.285700
26.432600 1.285600
26.479800 1.244900
26.527000 1.252800
26.574300 1.238400
26.621500 1.230500
26.668800 1.235300
26.716000 1.235600
26.763300 1.262200
26.810500 1.278000
26.857700 1.347900
26.905000 1.434800
26.952200 1.439000
26.999500 1.477800
27.046700 1.546200
27.094000 1.617600
27.141200 1.676500
27.188400 1.720000
27.235700 1.740700
27.282900 1.762000
27.330200 1.723600
27.377400 1.677900
27.424700 1.557700
27.471900 1.501600
27.519100 1.467900
27.566400 1.459300
27.613600 1.482100
27.660900 1.538200
27.708100 1.496400
27.755300 1.456900
27.802600 1.457000
27.849800 1.498700
27.897100 1.528400
27.944300 1.537500
27.991600 1.490500
28.038800 1.469500
28.086000 1.465800
28.133300 1.474700
28.180500 1.467200
28.227800 1.468400
28.275000 1.427500
28.322300 1.416400
28.369500 1.407100
28.416700 1.402700
28.464000 1.425900
28.511200 1.434600
28.558500 1.422700
