set title 'mp-1226072 - Density of States'
set xlabel 'Energy (eV)'
set ylabel 'DOS (states/eV)'
set grid
set xrange [-10:10]
set yrange [0:12.079]
set xzeroaxis lt -1
set terminal png size 800,600
set output 'mp-1226072_dos_gnuplot.png'
plot '-' using 1:2 with lines title 'DOS'
-8.014300 0.000000
-7.987800 0.000000
-7.961300 0.000000
-7.934800 0.000000
-7.908300 0.000000
-7.881800 0.000000
-7.855300 0.000000
-7.828800 0.000000
-7.802300 0.000000
-7.775800 0.000000
-7.749300 0.000000
-7.722800 0.000000
-7.696300 0.000000
-7.669800 0.000000
-7.643300 0.000000
-7.616800 0.000000
-7.590300 0.000000
-7.563800 0.000000
-7.537300 0.000000
-7.510800 0.000000
-7.484200 0.000000
-7.457700 0.000000
-7.431200 0.000000
-7.404700 0.000000
-7.378200 0.000000
-7.351700 0.000000
-7.325200 0.000000
-7.298700 0.000000
-7.272200 0.000000
-7.245700 0.000000
-7.219200 0.000000
-7.192700 0.000000
-7.166200 0.000000
-7.139700 0.000000
-7.113200 0.000000
-7.086700 0.000000
-7.060200 0.000000
-7.033700 0.000000
-7.007200 0.000000
-6.980700 0.000000
-6.954200 0.000000
-6.927700 0.000000
-6.901100 0.000000
-6.874600 0.000000
-6.848100 0.000000
-6.821600 0.000000
-6.795100 0.000000
-6.768600 0.000000
-6.742100 0.000000
-6.715600 0.000000
-6.689100 0.000000
-6.662600 0.000000
-6.636100 0.000000
-6.609600 0.000000
-6.583100 0.000000
-6.556600 0.000000
-6.530100 0.000000
-6.503600 0.000000
-6.477100 0.000000
-6.450600 0.000000
-6.424100 0.000000
-6.397600 0.000000
-6.371100 0.000000
-6.344600 0.000000
-6.318000 0.000000
-6.291500 0.000000
-6.265000 0.000000
-6.238500 0.000000
-6.212000 0.000000
-6.185500 0.000000
-6.159000 0.000000
-6.132500 0.000000
-6.106000 0.000000
-6.079500 0.000000
-6.053000 0.000000
-6.026500 0.000000
-6.000000 0.000000
-5.973500 0.000000
-5.947000 0.000000
-5.920500 0.000000
-5.894000 0.000000
-5.867500 0.000000
-5.841000 0.000000
-5.814500 0.000000
-5.788000 0.000000
-5.761500 0.000000
-5.734900 0.000000
-5.708400 0.000000
-5.681900 0.000000
-5.655400 0.000000
-5.628900 0.000000
-5.602400 0.000000
-5.575900 0.000000
-5.549400 0.027500
-5.522900 0.093900
-5.496400 0.139800
-5.469900 0.137900
-5.443400 0.120500
-5.416900 0.127700
-5.390400 0.134900
-5.363900 0.141900
-5.337400 0.142600
-5.310900 0.136100
-5.284400 0.129700
-5.257900 0.128900
-5.231400 0.131600
-5.204900 0.134400
-5.178400 0.137100
-5.151800 0.139900
-5.125300 0.142700
-5.098800 0.145400
-5.072300 0.141200
-5.045800 0.138000
-5.019300 0.138000
-4.992800 0.138100
-4.966300 0.138100
-4.939800 0.138800
-4.913300 0.140400
-4.886800 0.142000
-4.860300 0.143600
-4.833800 0.145300
-4.807300 0.146900
-4.780800 0.148500
-4.754300 0.149200
-4.727800 0.147500
-4.701300 0.145800
-4.674800 0.146000
-4.648300 0.146800
-4.621800 0.147700
-4.595300 0.148500
-4.568700 0.149300
-4.542200 0.150200
-4.515700 0.151100
-4.489200 0.152300
-4.462700 0.153500
-4.436200 0.154800
-4.409700 0.156000
-4.383200 0.157300
-4.356700 0.158500
-4.330200 0.158300
-4.303700 0.158400
-4.277200 0.158900
-4.250700 0.159500
-4.224200 0.160100
-4.197700 0.161100
-4.171200 0.162200
-4.144700 0.163300
-4.118200 0.164400
-4.091700 0.165500
-4.065200 0.166600
-4.038700 0.167700
-4.012200 0.168700
-3.985600 0.169900
-3.959100 0.171100
-3.932600 0.172300
-3.906100 0.173500
-3.879600 0.174800
-3.853100 0.176200
-3.826600 0.177600
-3.800100 0.179000
-3.773600 0.180400
-3.747100 0.181800
-3.720600 0.183100
-3.694100 0.184500
-3.667600 0.186000
-3.641100 0.187500
-3.614600 0.188900
-3.588100 0.190400
-3.561600 0.191800
-3.535100 0.193300
-3.508600 0.194700
-3.482100 0.196200
-3.455600 0.197700
-3.429100 0.199200
-3.402500 0.201300
-3.376000 0.205500
-3.349500 0.208400
-3.323000 0.211300
-3.296500 0.213800
-3.270000 0.216300
-3.243500 0.218700
-3.217000 0.221100
-3.190500 0.223600
-3.164000 0.226000
-3.137500 0.228400
-3.111000 0.230900
-3.084500 0.233300
-3.058000 0.235700
-3.031500 0.238100
-3.005000 0.240600
-2.978500 0.243000
-2.952000 0.245400
-2.925500 0.252000
-2.899000 0.260800
-2.872500 0.266500
-2.846000 0.272200
-2.819400 0.277900
-2.792900 0.283100
-2.766400 0.288400
-2.739900 0.293600
-2.713400 0.298800
-2.686900 0.304000
-2.660400 0.309800
-2.633900 0.318800
-2.607400 0.332900
-2.580900 0.351800
-2.554400 0.365800
-2.527900 0.377800
-2.501400 0.399600
-2.474900 0.423100
-2.448400 0.445100
-2.421900 0.467300
-2.395400 0.490200
-2.368900 0.512700
-2.342400 0.534500
-2.315900 0.560700
-2.289400 0.591200
-2.262900 0.623000
-2.236400 0.656400
-2.209800 0.717200
-2.183300 0.777900
-2.156800 0.889200
-2.130300 1.002300
-2.103800 0.891900
-2.077300 0.779700
-2.050800 0.684800
-2.024300 0.677700
-1.997800 0.673100
-1.971300 0.586000
-1.944800 0.605000
-1.918300 0.625900
-1.891800 0.635100
-1.865300 0.579300
-1.838800 0.550100
-1.812300 0.533700
-1.785800 0.517400
-1.759300 0.558000
-1.732800 0.553100
-1.706300 0.456000
-1.679800 0.128700
-1.653300 0.128900
-1.626700 0.128800
-1.600200 0.128800
-1.573700 0.129300
-1.547200 0.129900
-1.520700 0.130700
-1.494200 0.131500
-1.467700 0.132300
-1.441200 0.133200
-1.414700 0.134000
-1.388200 0.134800
-1.361700 0.135500
-1.335200 0.136100
-1.308700 0.136800
-1.282200 0.137400
-1.255700 0.138100
-1.229200 0.139100
-1.202700 0.140100
-1.176200 0.142100
-1.149700 0.146300
-1.123200 0.152300
-1.096700 0.156600
-1.070200 0.161100
-1.043600 0.166000
-1.017100 0.171100
-0.990600 0.176400
-0.964100 0.181800
-0.937600 0.187200
-0.911100 0.192300
-0.884600 0.196600
-0.858100 0.199900
-0.831600 0.203500
-0.805100 0.207500
-0.778600 0.211600
-0.752100 0.215800
-0.725600 0.220000
-0.699100 0.224300
-0.672600 0.228900
-0.646100 0.233600
-0.619600 0.238500
-0.593100 0.243400
-0.566600 0.248400
-0.540100 0.253400
-0.513600 0.258400
-0.487100 0.263600
-0.460500 0.268900
-0.434000 0.274400
-0.407500 0.280600
-0.381000 0.287600
-0.354500 0.295000
-0.328000 0.302200
-0.301500 0.309500
-0.275000 0.317000
-0.248500 0.324600
-0.222000 0.332500
-0.195500 0.340500
-0.169000 0.348500
-0.142500 0.356800
-0.116000 0.365500
-0.089500 0.376600
-0.063000 0.388600
-0.036500 0.399200
-0.010000 0.407500
0.016500 0.417800
0.043000 0.428000
0.069500 0.438900
0.096000 0.453200
0.122600 0.472000
0.149100 0.491000
0.175600 0.510900
0.202100 0.532400
0.228600 0.555600
0.255100 0.580500
0.281600 0.609500
0.308100 0.645600
0.334600 0.698700
0.361100 0.798300
0.387600 1.127500
0.414100 1.397600
0.440600 1.381600
0.467100 1.475000
0.493600 1.583900
0.520100 1.680000
0.546600 1.552500
0.573100 1.465500
0.599600 1.490600
0.626100 1.510000
0.652600 1.540500
0.679100 1.628700
0.705700 2.294200
0.732200 2.633000
0.758700 2.274100
0.785200 2.190800
0.811700 2.139900
0.838200 2.120000
0.864700 2.214200
0.891200 2.326000
0.917700 2.503600
0.944200 2.560000
0.970700 2.538600
0.997200 2.422900
1.023700 2.454000
1.050200 2.494700
1.076700 2.538200
1.103200 2.621300
1.129700 2.729400
1.156200 2.887700
1.182700 3.239700
1.209200 3.394800
1.235700 3.254800
1.262200 3.113500
1.288800 3.408300
1.315300 3.583000
1.341800 3.477000
1.368300 3.603300
1.394800 3.101500
1.421300 3.459600
1.447800 3.219500
1.474300 3.164000
1.500800 2.945900
1.527300 3.174400
1.553800 2.921600
1.580300 2.604100
1.606800 2.471500
1.633300 2.114000
1.659800 2.842400
1.686300 3.624800
1.712800 4.913000
1.739300 5.124300
1.765800 3.969900
1.792300 3.392200
1.818800 3.199100
1.845300 3.383700
1.871900 3.916100
1.898400 4.701500
1.924900 4.630500
1.951400 4.817300
1.977900 4.955800
2.004400 5.480100
2.030900 4.977800
2.057400 3.926800
2.083900 3.933400
2.110400 4.440800
2.136900 5.491100
2.163400 5.569600
2.189900 5.554400
2.216400 4.461900
2.242900 3.103400
2.269400 2.227100
2.295900 1.745500
2.322400 1.510800
2.348900 1.307100
2.375400 1.177000
2.401900 1.342000
2.428400 1.810400
2.455000 2.291300
2.481500 2.632200
2.508000 3.491900
2.534500 3.960100
2.561000 5.374700
2.587500 6.224700
2.614000 5.891200
2.640500 5.865200
2.667000 5.685500
2.693500 6.970200
2.720000 6.424200
2.746500 6.177100
2.773000 6.163900
2.799500 5.419200
2.826000 5.188000
2.852500 4.549200
2.879000 4.995200
2.905500 5.477200
2.932000 5.486200
2.958500 5.310400
2.985000 6.360900
3.011500 7.336400
3.038000 6.702000
3.064600 6.484800
3.091100 6.267000
3.117600 5.925400
3.144100 6.382500
3.170600 6.082300
3.197100 6.565500
3.223600 7.050800
3.250100 8.002200
3.276600 9.758000
3.303100 7.355800
3.329600 6.027400
3.356100 5.494500
3.382600 4.418900
3.409100 3.890600
3.435600 3.581600
3.462100 3.322200
3.488600 3.463300
3.515100 3.471300
3.541600 3.507400
3.568100 3.948500
3.594600 4.564600
3.621100 4.228000
3.647700 3.912500
3.674200 3.997200
3.700700 4.059700
3.727200 4.157600
3.753700 4.200600
3.780200 4.055700
3.806700 3.959700
3.833200 3.642500
3.859700 3.392300
3.886200 3.595100
3.912700 3.816800
3.939200 3.800900
3.965700 3.757100
3.992200 3.749100
4.018700 3.742400
4.045200 3.729700
4.071700 3.722300
4.098200 3.694700
4.124700 3.556500
4.151200 3.585400
4.177700 3.658800
4.204200 3.689000
4.230800 3.788800
4.257300 3.964200
4.283800 3.888200
4.310300 4.095700
4.336800 4.110500
4.363300 4.288300
4.389800 4.524100
4.416300 5.210300
4.442800 6.066600
4.469300 6.470600
4.495800 6.416500
4.522300 6.848000
4.548800 7.299500
4.575300 7.451000
4.601800 7.273000
4.628300 8.544900
4.654800 8.739700
4.681300 9.923900
4.707800 10.230900
4.734300 9.511000
4.760800 10.980600
4.787300 9.434300
4.813900 8.751100
4.840400 6.868600
4.866900 3.257500
4.893400 1.224800
4.919900 1.192100
4.946400 1.110900
4.972900 1.064100
4.999400 1.025600
5.025900 0.996200
5.052400 0.972100
5.078900 0.951000
5.105400 0.941200
5.131900 0.934600
5.158400 0.930700
5.184900 0.926300
5.211400 0.919200
5.237900 0.910300
5.264400 0.906100
5.290900 0.903000
5.317400 0.900700
5.343900 0.872300
5.370400 0.859400
5.397000 0.848500
5.423500 0.838800
5.450000 0.829500
5.476500 0.823800
5.503000 0.818000
5.529500 0.812300
5.556000 0.805800
5.582500 0.797000
5.609000 0.783200
5.635500 0.768300
5.662000 0.763400
5.688500 0.758200
5.715000 0.751000
5.741500 0.743600
5.768000 0.736200
5.794500 0.726300
5.821000 0.715800
5.847500 0.704100
5.874000 0.695700
5.900500 0.689200
5.927000 0.684700
5.953500 0.682300
5.980100 0.680000
6.006600 0.677800
6.033100 0.674900
6.059600 0.672300
6.086100 0.670200
6.112600 0.663700
6.139100 0.650900
6.165600 0.651000
6.192100 0.651400
6.218600 0.657700
6.245100 0.682700
6.271600 0.684500
6.298100 0.664600
6.324600 0.657800
6.351100 0.654900
6.377600 0.651200
6.404100 0.646300
6.430600 0.640300
6.457100 0.628600
6.483600 0.618700
6.510100 0.610200
6.536600 0.600900
6.563200 0.590900
6.589700 0.582000
6.616200 0.573200
6.642700 0.569200
6.669200 0.565400
6.695700 0.562200
6.722200 0.559200
6.748700 0.556400
6.775200 0.553800
6.801700 0.551300
6.828200 0.549100
6.854700 0.546300
6.881200 0.549200
6.907700 0.546600
6.934200 0.544900
6.960700 0.543200
6.987200 0.542000
7.013700 0.540200
7.040200 0.537600
7.066700 0.534000
7.093200 0.529200
7.119700 0.523700
7.146300 0.517200
7.172800 0.511700
7.199300 0.507000
7.225800 0.502700
7.252300 0.517800
7.278800 0.503500
7.305300 0.483800
7.331800 0.474300
7.358300 0.465100
7.384800 0.464400
7.411300 0.435000
7.437800 0.434700
7.464300 0.434500
7.490800 0.434400
7.517300 0.434500
7.543800 0.435400
7.570300 0.437100
7.596800 0.439400
7.623300 0.442200
7.649800 0.445500
7.676300 0.448800
7.702800 0.452100
7.729400 0.453900
7.755900 0.455300
7.782400 0.455400
7.808900 0.453600
7.835400 0.449900
7.861900 0.443600
7.888400 0.434900
7.914900 0.427800
7.941400 0.420500
7.967900 0.411300
7.994400 0.402500
8.020900 0.395000
8.047400 0.388800
8.073900 0.383800
8.100400 0.379900
8.126900 0.376000
8.153400 0.372200
8.179900 0.370000
8.206400 0.369800
8.232900 0.371600
8.259400 0.375400
8.285900 0.381400
8.312500 0.390400
8.339000 0.402200
8.365500 0.414400
8.392000 0.426500
8.418500 0.440900
8.445000 0.460000
8.471500 0.477200
8.498000 0.490900
8.524500 0.497200
8.551000 0.502700
8.577500 0.509800
8.604000 0.526500
8.630500 0.553400
8.657000 0.489900
8.683500 0.489500
8.710000 0.488400
8.736500 0.488100
8.763000 0.488600
8.789500 0.485700
8.816000 0.482300
8.842500 0.480900
8.869000 0.481000
8.895500 0.481600
8.922100 0.481800
8.948600 0.481800
8.975100 0.481200
9.001600 0.482400
9.028100 0.486600
9.054600 0.492000
9.081100 0.495600
9.107600 0.487900
9.134100 0.480100
9.160600 0.472800
9.187100 0.466200
9.213600 0.460300
9.240100 0.453800
9.266600 0.446500
9.293100 0.440700
9.319600 0.436200
9.346100 0.432100
9.372600 0.427800
9.399100 0.423700
9.425600 0.419800
9.452100 0.416600
9.478600 0.413200
9.505200 0.409900
9.531700 0.406600
9.558200 0.403300
9.584700 0.400300
9.611200 0.397500
9.637700 0.369900
9.664200 0.368700
9.690700 0.367400
9.717200 0.366100
9.743700 0.365000
9.770200 0.361700
9.796700 0.354400
9.823200 0.342600
9.849700 0.335500
9.876200 0.337300
9.902700 0.342300
9.929200 0.349200
9.955700 0.357500
9.982200 0.366200
10.008700 0.383200
10.035200 0.379800
10.061700 0.378100
10.088300 0.378700
10.114800 0.388200
10.141300 0.382200
10.167800 0.374000
10.194300 0.365700
10.220800 0.357500
10.247300 0.392100
10.273800 0.376100
10.300300 0.357700
10.326800 0.333400
10.353300 0.272500
10.379800 0.257400
10.406300 0.244900
10.432800 0.233600
10.459300 0.220700
10.485800 0.209000
10.512300 0.308800
10.538800 0.209300
10.565300 0.192800
10.591800 0.178300
10.618300 0.167700
10.644800 0.161000
10.671400 0.157100
10.697900 0.153700
10.724400 0.150600
10.750900 0.148000
10.777400 0.145700
10.803900 0.143700
10.830400 0.140700
10.856900 0.134700
10.883400 0.130200
10.909900 0.124000
10.936400 0.117000
10.962900 0.111400
10.989400 0.106700
11.015900 0.114000
11.042400 0.145100
11.068900 0.158600
11.095400 0.160300
11.121900 0.172100
11.148400 0.184200
11.174900 0.195100
11.201400 0.209900
11.227900 0.232500
11.254500 0.263600
11.281000 0.305100
11.307500 0.353800
11.334000 0.409600
11.360500 0.472800
11.387000 0.524800
11.413500 0.623300
11.440000 0.771300
11.466500 0.977900
11.493000 1.084700
11.519500 1.140500
11.546000 1.098200
11.572500 1.072900
11.599000 1.039500
11.625500 1.011600
11.652000 0.959300
11.678500 0.917900
11.705000 0.818000
11.731500 0.728900
11.758000 0.680800
11.784500 0.666900
11.811000 0.697300
11.837600 0.694900
11.864100 0.739800
11.890600 0.774100
11.917100 0.762400
11.943600 0.758400
11.970100 0.771700
11.996600 0.790100
12.023100 0.793500
12.049600 0.775600
12.076100 0.761100
12.102600 0.747900
12.129100 0.737700
12.155600 0.727800
12.182100 0.717400
12.208600 0.708300
12.235100 0.701400
12.261600 0.706100
12.288100 0.716900
12.314600 0.743700
12.341100 0.759000
12.367600 0.763600
12.394100 0.723200
12.420700 0.700300
12.447200 0.680400
12.473700 0.662900
12.500200 0.645800
12.526700 0.630300
12.553200 0.625700
12.579700 0.604100
12.606200 0.587900
12.632700 0.574800
12.659200 0.563200
12.685700 0.555100
12.712200 0.548100
12.738700 0.532300
12.765200 0.513100
12.791700 0.496300
12.818200 0.494200
12.844700 0.496000
12.871200 0.497700
12.897700 0.498600
12.924200 0.498700
12.950700 0.493800
12.977200 0.486500
13.003800 0.479800
13.030300 0.461600
13.056800 0.457900
13.083300 0.472500
13.109800 0.484700
13.136300 0.475100
13.162800 0.472900
13.189300 0.474800
13.215800 0.478000
13.242300 0.481700
13.268800 0.484400
13.295300 0.486400
13.321800 0.488000
13.348300 0.489900
13.374800 0.492500
13.401300 0.498200
13.427800 0.509400
13.454300 0.532900
13.480800 0.540400
13.507300 0.586500
13.533800 0.550300
13.560300 0.545500
13.586900 0.532500
13.613400 0.520800
13.639900 0.525600
13.666400 0.547300
13.692900 0.577100
13.719400 0.631800
13.745900 0.715100
13.772400 0.798700
13.798900 0.733800
13.825400 0.716600
13.851900 0.698600
13.878400 0.687100
13.904900 0.684600
13.931400 0.685900
13.957900 0.690300
13.984400 0.696000
14.010900 0.700600
14.037400 0.702900
14.063900 0.704300
14.090400 0.720400
14.116900 0.692600
14.143400 0.679500
14.169900 0.670300
14.196500 0.667900
14.223000 0.672700
14.249500 0.693300
14.276000 0.690500
14.302500 0.682800
14.329000 0.677900
14.355500 0.674400
14.382000 0.669100
14.408500 0.664200
14.435000 0.664700
14.461500 0.658000
14.488000 0.661400
14.514500 0.668100
14.541000 0.677600
14.567500 0.687900
14.594000 0.702500
14.620500 0.721200
14.647000 0.745800
14.673500 0.774500
14.700000 0.806200
14.726500 0.842400
14.753000 0.876600
14.779600 0.902000
14.806100 0.918000
14.832600 0.929100
14.859100 0.935900
14.885600 0.940200
14.912100 0.948700
14.938600 0.896200
14.965100 0.882500
14.991600 0.869700
15.018100 0.862400
15.044600 0.851200
15.071100 0.844300
15.097600 0.824200
15.124100 0.803500
15.150600 0.782300
15.177100 0.804700
15.203600 0.767400
15.230100 0.752500
15.256600 0.739300
15.283100 0.727700
15.309600 0.717300
15.336100 0.709100
15.362700 0.703500
15.389200 0.700200
15.415700 0.700700
15.442200 0.705400
15.468700 0.713900
15.495200 0.725600
15.521700 0.741100
15.548200 0.758300
15.574700 0.771300
15.601200 0.775000
15.627700 0.775300
15.654200 0.770800
15.680700 0.766000
15.707200 0.759500
15.733700 0.750100
15.760200 0.738800
15.786700 0.728100
15.813200 0.719800
15.839700 0.711600
15.866200 0.707600
15.892700 0.705700
15.919200 0.703800
15.945800 0.703900
15.972300 0.707400
15.998800 0.712800
16.025300 0.718500
16.051800 0.723600
16.078300 0.728800
16.104800 0.734200
16.131300 0.718400
16.157800 0.710200
16.184300 0.702900
16.210800 0.758900
16.237300 0.700400
16.263800 0.697600
16.290300 0.694900
16.316800 0.692500
16.343300 0.692900
16.369800 0.702000
16.396300 0.701700
16.422800 0.701700
16.449300 0.698400
16.475800 0.697000
16.502300 0.692000
16.528900 0.690100
16.555400 0.690700
16.581900 0.696200
16.608400 0.702500
16.634900 0.708000
16.661400 0.711900
16.687900 0.715200
16.714400 0.718000
16.740900 0.717400
16.767400 0.710100
16.793900 0.704800
16.820400 0.701900
16.846900 0.698700
16.873400 0.697100
16.899900 0.703600
16.926400 0.716400
16.952900 0.714200
16.979400 0.702100
17.005900 0.690900
17.032400 0.683900
17.058900 0.680000
17.085400 0.676200
17.112000 0.672900
17.138500 0.670400
17.165000 0.669000
17.191500 0.668000
17.218000 0.667400
17.244500 0.666900
17.271000 0.667000
17.297500 0.677700
17.324000 0.677400
17.350500 0.670600
17.377000 0.661200
17.403500 0.650900
17.430000 0.643600
17.456500 0.638200
17.483000 0.633500
17.509500 0.628200
17.536000 0.622300
17.562500 0.622400
17.589000 0.630000
17.615500 0.626900
17.642000 0.623500
17.668500 0.620800
17.695100 0.621500
17.721600 0.622700
17.748100 0.625600
17.774600 0.629700
17.801100 0.632600
17.827600 0.634300
17.854100 0.634600
17.880600 0.636000
17.907100 0.639200
17.933600 0.634500
17.960100 0.628500
17.986600 0.629900
18.013100 0.630300
18.039600 0.633600
18.066100 0.637600
18.092600 0.642900
18.119100 0.649000
18.145600 0.654700
18.172100 0.660100
18.198600 0.666200
18.225100 0.672800
18.251600 0.680300
18.278200 0.685400
18.304700 0.689600
18.331200 0.693200
18.357700 0.697700
18.384200 0.701200
18.410700 0.703900
18.437200 0.706100
18.463700 0.707700
18.490200 0.707700
18.516700 0.713500
18.543200 0.716900
18.569700 0.720100
18.596200 0.722600
18.622700 0.724900
18.649200 0.727600
18.675700 0.729100
18.702200 0.724800
18.728700 0.726000
18.755200 0.728600
18.781700 0.732300
18.808200 0.738100
18.834700 0.746600
18.861300 0.749900
18.887800 0.743300
18.914300 0.732000
18.940800 0.718000
18.967300 0.719600
18.993800 0.728900
19.020300 0.742000
19.046800 0.755400
19.073300 0.768300
19.099800 0.796500
19.126300 0.810500
19.152800 0.824900
19.179300 0.837700
19.205800 0.842800
19.232300 0.846300
19.258800 0.850200
19.285300 0.855700
19.311800 0.858200
19.338300 0.862400
19.364800 0.868900
19.391300 0.876700
19.417800 0.882700
19.444400 0.884800
19.470900 0.889000
19.497400 0.887500
19.523900 0.883000
19.550400 0.876300
19.576900 0.870100
19.603400 0.862600
19.629900 0.857100
19.656400 0.852400
19.682900 0.850000
19.709400 0.849300
19.735900 0.849400
19.762400 0.849700
19.788900 0.848100
19.815400 0.841500
19.841900 0.832100
19.868400 0.819700
19.894900 0.807400
19.921400 0.797500
19.947900 0.790200
19.974400 0.787100
