set title 'mp-669566 - Density of States'
set xlabel 'Energy (eV)'
set ylabel 'DOS (states/eV)'
set grid
set xrange [-10:10]
set yrange [0:284.137]
set xzeroaxis lt -1
set terminal png size 800,600
set output 'mp-669566_dos_gnuplot.png'
plot '-' using 1:2 with lines title 'DOS'
-6.228000 0.000000
-6.213500 0.000000
-6.199000 0.000000
-6.184500 0.000000
-6.170000 0.000000
-6.155500 0.000000
-6.141000 0.000000
-6.126500 0.000000
-6.112000 0.000000
-6.097500 0.000000
-6.083000 0.000000
-6.068400 0.000000
-6.053900 0.000000
-6.039400 0.000000
-6.024900 0.000000
-6.010400 0.000000
-5.995900 0.000000
-5.981400 0.000000
-5.966900 0.000000
-5.952400 0.000000
-5.937900 0.000000
-5.923400 0.000000
-5.908900 0.000000
-5.894400 0.000000
-5.879900 0.000000
-5.865400 0.000000
-5.850900 0.000000
-5.836400 0.000000
-5.821900 0.000000
-5.807300 0.000000
-5.792800 0.000000
-5.778300 0.000000
-5.763800 0.000000
-5.749300 0.000000
-5.734800 0.000000
-5.720300 0.000000
-5.705800 0.000000
-5.691300 0.000000
-5.676800 0.000000
-5.662300 0.000000
-5.647800 0.000000
-5.633300 0.000000
-5.618800 0.000000
-5.604300 0.000000
-5.589800 0.000000
-5.575300 0.000000
-5.560700 0.000000
-5.546200 0.000000
-5.531700 0.000000
-5.517200 0.000000
-5.502700 0.000000
-5.488200 0.000000
-5.473700 0.000000
-5.459200 0.000000
-5.444700 0.000000
-5.430200 0.000000
-5.415700 0.000000
-5.401200 0.000000
-5.386700 0.000000
-5.372200 0.000000
-5.357700 0.000000
-5.343200 0.000000
-5.328700 0.000000
-5.314200 0.000000
-5.299600 0.000000
-5.285100 0.000000
-5.270600 0.000000
-5.256100 0.000000
-5.241600 0.000000
-5.227100 0.000000
-5.212600 0.000000
-5.198100 0.000000
-5.183600 0.000000
-5.169100 0.000000
-5.154600 0.000000
-5.140100 0.000000
-5.125600 0.000000
-5.111100 0.000000
-5.096600 0.000000
-5.082100 0.000000
-5.067600 0.000000
-5.053000 0.000000
-5.038500 0.000100
-5.024000 0.000600
-5.009500 0.002300
-4.995000 0.007200
-4.980500 0.019600
-4.966000 0.045800
-4.951500 0.091900
-4.937000 0.159200
-4.922500 0.239400
-4.908000 0.315300
-4.893500 0.366900
-4.879000 0.382700
-4.864500 0.367500
-4.850000 0.342400
-4.835500 0.336800
-4.821000 0.378500
-4.806500 0.488200
-4.791900 0.675800
-4.777400 0.933100
-4.762900 1.224000
-4.748400 1.488800
-4.733900 1.669800
-4.719400 1.737300
-4.704900 1.693500
-4.690400 1.563000
-4.675900 1.394000
-4.661400 1.269000
-4.646900 1.285500
-4.632400 1.497600
-4.617900 1.859300
-4.603400 2.229600
-4.588900 2.450800
-4.574400 2.445600
-4.559900 2.262700
-4.545400 2.039600
-4.530800 1.907600
-4.516300 1.901600
-4.501800 1.942200
-4.487300 1.908500
-4.472800 1.744300
-4.458300 1.504100
-4.443800 1.303200
-4.429300 1.227500
-4.414800 1.280700
-4.400300 1.399800
-4.385800 1.509300
-4.371300 1.571500
-4.356800 1.609000
-4.342300 1.693400
-4.327800 1.900100
-4.313300 2.240700
-4.298800 2.621900
-4.284200 2.880100
-4.269700 2.886800
-4.255200 2.646200
-4.240700 2.299800
-4.226200 2.042000
-4.211700 2.024800
-4.197200 2.315500
-4.182700 2.891400
-4.168200 3.634300
-4.153700 4.344700
-4.139200 4.810000
-4.124700 4.897400
-4.110200 4.604400
-4.095700 4.047200
-4.081200 3.417900
-4.066700 2.928700
-4.052200 2.723500
-4.037700 2.789000
-4.023100 2.947400
-4.008600 2.977000
-3.994100 2.778900
-3.979600 2.453600
-3.965100 2.221600
-3.950600 2.254900
-3.936100 2.552200
-3.921600 2.941700
-3.907100 3.200000
-3.892600 3.198300
-3.878100 2.975500
-3.863600 2.701500
-3.849100 2.555200
-3.834600 2.599100
-3.820100 2.737700
-3.805600 2.804000
-3.791100 2.710100
-3.776600 2.527100
-3.762000 2.415200
-3.747500 2.476600
-3.733000 2.679600
-3.718500 2.919100
-3.704000 3.131100
-3.689500 3.338200
-3.675000 3.588600
-3.660500 3.872700
-3.646000 4.111900
-3.631500 4.227400
-3.617000 4.209900
-3.602500 4.111500
-3.588000 3.980300
-3.573500 3.823800
-3.559000 3.651600
-3.544500 3.545700
-3.530000 3.665200
-3.515400 4.157100
-3.500900 5.035900
-3.486400 6.135100
-3.471900 7.181600
-3.457400 7.944600
-3.442900 8.341900
-3.428400 8.432800
-3.413900 8.332100
-3.399400 8.119100
-3.384900 7.783700
-3.370400 7.235600
-3.355900 6.400200
-3.341400 5.339500
-3.326900 4.267200
-3.312400 3.419300
-3.297900 2.909600
-3.283400 2.719300
-3.268900 2.799500
-3.254300 3.138600
-3.239800 3.717000
-3.225300 4.428100
-3.210800 5.085900
-3.196300 5.528100
-3.181800 5.716500
-3.167300 5.746000
-3.152800 5.763100
-3.138300 5.860400
-3.123800 6.023400
-3.109300 6.161200
-3.094800 6.190900
-3.080300 6.116000
-3.065800 6.054700
-3.051300 6.200500
-3.036800 6.729200
-3.022300 7.703200
-3.007700 9.040000
-2.993200 10.565800
-2.978700 12.087100
-2.964200 13.421000
-2.949700 14.442600
-2.935200 15.238200
-2.920700 16.263200
-2.906200 18.228600
-2.891700 21.638400
-2.877200 26.337100
-2.862700 31.544500
-2.848200 36.421800
-2.833700 40.699300
-2.819200 44.853800
-2.804700 49.767300
-2.790200 56.207400
-2.775700 64.483500
-2.761200 74.375000
-2.746600 85.260700
-2.732100 96.434100
-2.717600 107.561200
-2.703100 118.954900
-2.688600 131.227100
-2.674100 144.423800
-2.659600 157.476600
-2.645100 168.704600
-2.630600 177.052000
-2.616100 182.915400
-2.601600 187.810700
-2.587100 193.293000
-2.572600 200.151000
-2.558100 208.429600
-2.543600 217.960800
-2.529100 228.666200
-2.514600 240.188500
-2.500100 251.078200
-2.485500 258.306800
-2.471000 257.857200
-2.456500 246.477600
-2.442000 223.712300
-2.427500 192.764200
-2.413000 159.287600
-2.398500 128.751100
-2.384000 104.197400
-2.369500 85.796000
-2.355000 71.995200
-2.340500 61.023900
-2.326000 51.762800
-2.311500 43.846700
-2.297000 37.327900
-2.282500 32.247600
-2.268000 28.382100
-2.253500 25.310600
-2.238900 22.718300
-2.224400 20.626000
-2.209900 19.298100
-2.195400 18.899500
-2.180900 19.229900
-2.166400 19.780300
-2.151900 20.051800
-2.137400 19.860900
-2.122900 19.418300
-2.108400 19.176200
-2.093900 19.574100
-2.079400 20.829800
-2.064900 22.867600
-2.050400 25.379600
-2.035900 27.934900
-2.021400 30.059300
-2.006900 31.305200
-1.992400 31.366000
-1.977800 30.198600
-1.963300 28.048900
-1.948800 25.349900
-1.934300 22.564100
-1.919800 20.048700
-1.905300 17.977100
-1.890800 16.350300
-1.876300 15.114900
-1.861800 14.303700
-1.847300 14.053400
-1.832800 14.468700
-1.818300 15.479100
-1.803800 16.828700
-1.789300 18.156900
-1.774800 19.083200
-1.760300 19.332800
-1.745800 18.960000
-1.731200 18.505400
-1.716700 18.819300
-1.702200 20.541900
-1.687700 23.599500
-1.673200 27.127300
-1.658700 29.930500
-1.644200 31.179400
-1.629700 30.851300
-1.615200 29.646600
-1.600700 28.529700
-1.586200 28.256600
-1.571700 29.120100
-1.557200 30.944400
-1.542700 33.288800
-1.528200 35.730200
-1.513700 38.002900
-1.499200 39.893700
-1.484700 41.076000
-1.470100 41.148100
-1.455600 39.874900
-1.441100 37.383100
-1.426600 34.119400
-1.412100 30.630200
-1.397600 27.368600
-1.383100 24.643600
-1.368600 22.644400
-1.354100 21.420300
-1.339600 20.837300
-1.325100 20.642800
-1.310600 20.664100
-1.296100 20.994700
-1.281600 22.018300
-1.267100 24.241100
-1.252600 28.013300
-1.238100 33.258900
-1.223600 39.354200
-1.209000 45.272100
-1.194500 49.975100
-1.180000 52.849600
-1.165500 53.898100
-1.151000 53.569100
-1.136500 52.390100
-1.122000 50.702100
-1.107500 48.671400
-1.093000 46.505800
-1.078500 44.628800
-1.064000 43.590600
-1.049500 43.723500
-1.035000 44.833100
-1.020500 46.259500
-1.006000 47.321600
-0.991500 47.769100
-0.977000 47.850400
-0.962400 48.026200
-0.947900 48.701700
-0.933400 50.211400
-0.918900 52.881800
-0.904400 56.897100
-0.889900 62.020200
-0.875400 67.500200
-0.860900 72.343900
-0.846400 75.757300
-0.831900 77.462500
-0.817400 77.786200
-0.802900 77.523400
-0.788400 77.531000
-0.773900 78.139800
-0.759400 78.805700
-0.744900 78.403600
-0.730400 76.028600
-0.715900 71.697900
-0.701300 66.465800
-0.686800 61.957500
-0.672300 59.648100
-0.657800 60.228700
-0.643300 63.307700
-0.628800 67.606200
-0.614300 71.614400
-0.599800 74.361200
-0.585300 75.805500
-0.570800 76.600400
-0.556300 77.451300
-0.541800 78.529000
-0.527300 79.286000
-0.512800 78.774300
-0.498300 76.316700
-0.483800 72.137600
-0.469300 67.460900
-0.454800 63.873900
-0.440200 62.335000
-0.425700 62.562900
-0.411200 63.317800
-0.396700 63.370500
-0.382200 62.381500
-0.367700 61.022800
-0.353200 60.341000
-0.338700 60.943800
-0.324200 62.619500
-0.309700 64.569800
-0.295200 65.962200
-0.280700 66.361100
-0.266200 65.823200
-0.251700 64.738600
-0.237200 63.577200
-0.222700 62.659400
-0.208200 62.060900
-0.193600 61.704400
-0.179100 61.507300
-0.164600 61.378800
-0.150100 61.079000
-0.135600 60.205900
-0.121100 58.463700
-0.106600 55.976600
-0.092100 53.279700
-0.077600 50.952000
-0.063100 49.265900
-0.048600 48.187100
-0.034100 47.642800
-0.019600 47.699600
-0.005100 48.470600
0.009400 49.930000
0.023900 51.882000
0.038400 54.081500
0.052900 56.318900
0.067500 58.405000
0.082000 60.185900
0.096500 61.648700
0.111000 62.959900
0.125500 64.283000
0.140000 65.524500
0.154500 66.329500
0.169000 66.385300
0.183500 65.707000
0.198000 64.587000
0.212500 63.324300
0.227000 62.116100
0.241500 61.223400
0.256000 61.061200
0.270500 61.909700
0.285000 63.487400
0.299500 64.946500
0.314100 65.441400
0.328600 64.773100
0.343100 63.508000
0.357600 62.510300
0.372100 62.337300
0.386600 62.930500
0.401100 63.703400
0.415600 63.895900
0.430100 63.007300
0.444600 61.063800
0.459100 58.520200
0.473600 55.886100
0.488100 53.448500
0.502600 51.335700
0.517100 49.748200
0.531600 49.030500
0.546100 49.528000
0.560600 51.412800
0.575200 54.572200
0.589700 58.501400
0.604200 62.250100
0.618700 64.640400
0.633200 64.801800
0.647700 62.674400
0.662200 59.042400
0.676700 55.068900
0.691200 51.730600
0.705700 49.531900
0.720200 48.543500
0.734700 48.591700
0.749200 49.438900
0.763700 50.888900
0.778200 52.806300
0.792700 55.060400
0.807200 57.431300
0.821700 59.568000
0.836300 61.088000
0.850800 61.791600
0.865300 61.830500
0.879800 61.682900
0.894300 61.942100
0.908800 63.050000
0.923300 65.105600
0.937800 67.803600
0.952300 70.540000
0.966800 72.703000
0.981300 74.045100
0.995800 74.877800
1.010300 75.875700
1.024800 77.561500
1.039300 79.847000
1.053800 81.999100
1.068300 83.051600
1.082900 82.352400
1.097400 79.924000
1.111900 76.512200
1.126400 73.310900
1.140900 71.414500
1.155400 71.236000
1.169900 72.286800
1.184400 73.514000
1.198900 73.953200
1.213400 73.234100
1.227900 71.650800
1.242400 69.828900
1.256900 68.278800
1.271400 67.214300
1.285900 66.756400
1.300400 67.174000
1.314900 68.721000
1.329400 71.160200
1.344000 73.564100
1.358500 74.758500
1.373000 74.091600
1.387500 71.852800
1.402000 68.981100
1.416500 66.329600
1.431000 64.116100
1.445500 61.987000
1.460000 59.574800
1.474500 57.020000
1.489000 54.997800
1.503500 54.250600
1.518000 55.050600
1.532500 57.019400
1.547000 59.374900
1.561500 61.344800
1.576000 62.461600
1.590500 62.656400
1.605100 62.225600
1.619600 61.692300
1.634100 61.529300
1.648600 61.852200
1.663100 62.350400
1.677600 62.577200
1.692100 62.376000
1.706600 62.079900
1.721100 62.293600
1.735600 63.393700
1.750100 65.151700
1.764600 66.849200
1.779100 67.825400
1.793600 67.956500
1.808100 67.631700
1.822600 67.288900
1.837100 66.959600
1.851700 66.210300
1.866200 64.502400
1.880700 61.656000
1.895200 58.065300
1.909700 54.550600
1.924200 51.987400
1.938700 50.930100
1.953200 51.391800
1.967700 52.845600
1.982200 54.432900
1.996700 55.284300
2.011200 54.807700
2.025700 52.835800
2.040200 49.624200
2.054700 45.755900
2.069200 41.982000
2.083700 38.996200
2.098200 37.203500
2.112800 36.603500
2.127300 36.844000
2.141800 37.393700
2.156300 37.735000
2.170800 37.507400
2.185300 36.554900
2.199800 34.892900
2.214300 32.668600
2.228800 30.161300
2.243300 27.781900
2.257800 25.998900
2.272300 25.190900
2.286800 25.502700
2.301300 26.793500
2.315800 28.712000
2.330300 30.871300
2.344800 33.043200
2.359400 35.264600
2.373900 37.794300
2.388400 40.933300
2.402900 44.792300
2.417400 49.103100
2.431900 53.150200
2.446400 55.886400
2.460900 56.274800
2.475400 53.781800
2.489900 48.763700
2.504400 42.445400
2.518900 36.435900
2.533400 32.051900
2.547900 29.814000
2.562400 29.319100
2.576900 29.496800
2.591400 29.138200
2.605900 27.470400
2.620500 24.472400
2.635000 20.761500
2.649500 17.173000
2.664000 14.348600
2.678500 12.562200
2.693000 11.787200
2.707500 11.833100
2.722000 12.402600
2.736500 13.088500
2.751000 13.452200
2.765500 13.218800
2.780000 12.420700
2.794500 11.324900
2.809000 10.207500
2.823500 9.197800
2.838000 8.304300
2.852500 7.539100
2.867000 7.006300
2.881600 6.893900
2.896100 7.377000
2.910600 8.478500
2.925100 9.995200
2.939600 11.592100
2.954100 13.012100
2.968600 14.181600
2.983100 15.089800
2.997600 15.604700
3.012100 15.494800
3.026600 14.670200
3.041100 13.367700
3.055600 12.061600
3.070100 11.182800
3.084600 10.905300
3.099100 11.137800
3.113600 11.654800
3.128200 12.220800
3.142700 12.636900
3.157200 12.735600
3.171700 12.384600
3.186200 11.534700
3.200700 10.289600
3.215200 8.937600
3.229700 7.872400
3.244200 7.406200
3.258700 7.589700
3.273200 8.185200
3.287700 8.815600
3.302200 9.170100
3.316700 9.137100
3.331200 8.819700
3.345700 8.449100
3.360200 8.242600
3.374700 8.297400
3.389300 8.590100
3.403800 9.043900
3.418300 9.560500
3.432800 9.996300
3.447300 10.170900
3.461800 9.962900
3.476300 9.419800
3.490800 8.757000
3.505300 8.220800
3.519800 7.929000
3.534300 7.828100
3.548800 7.793000
3.563300 7.756800
3.577800 7.748500
3.592300 7.832100
3.606800 8.034600
3.621300 8.329000
3.635900 8.654700
3.650400 8.940100
3.664900 9.126900
3.679400 9.202300
3.693900 9.214200
3.708400 9.251000
3.722900 9.397400
3.737400 9.690900
3.751900 10.087500
3.766400 10.452400
3.780900 10.598800
3.795400 10.374700
3.809900 9.751600
3.824400 8.875800
3.838900 8.058600
3.853400 7.683500
3.867900 8.024900
3.882400 9.059700
3.897000 10.414000
3.911500 11.520400
3.926000 11.907000
3.940500 11.450600
3.955000 10.445300
3.969500 9.441600
3.984000 8.951900
3.998500 9.211300
4.013000 10.132600
4.027500 11.421800
4.042000 12.708500
4.056500 13.612900
4.071000 13.805700
4.085500 13.127100
4.100000 11.702200
4.114500 9.922000
4.129000 8.259000
4.143500 7.048000
4.158100 6.390200
4.172600 6.214600
4.187100 6.404900
4.201600 6.883800
4.216100 7.607800
4.230600 8.506300
4.245100 9.451600
4.259600 10.321400
4.274100 11.104400
4.288600 11.915300
4.303100 12.855700
4.317600 13.831800
4.332100 14.507400
4.346600 14.460600
4.361100 13.438800
4.375600 11.546700
4.390100 9.249100
4.404700 7.181300
4.419200 5.862300
4.433700 5.465300
4.448200 5.767400
4.462700 6.294100
4.477200 6.576700
4.491700 6.384400
4.506200 5.812800
4.520700 5.190500
4.535200 4.862400
4.549700 4.982200
4.564200 5.441600
4.578700 5.980800
4.593200 6.389300
4.607700 6.628600
4.622200 6.785500
4.636700 6.922400
4.651200 6.978500
4.665800 6.803700
4.680300 6.284400
4.694800 5.460300
4.709300 4.551600
4.723800 3.873900
4.738300 3.690300
4.752800 4.085100
4.767300 4.935900
4.781800 5.991900
4.796300 7.005600
4.810800 7.827000
4.825300 8.408200
4.839800 8.738900
4.854300 8.793900
4.868800 8.555500
4.883300 8.088600
4.897800 7.583600
4.912300 7.301000
4.926900 7.435700
4.941400 7.988500
4.955900 8.723500
4.970400 9.245700
4.984900 9.181700
4.999400 8.388600
5.013900 7.062400
5.028400 5.644300
5.042900 4.568300
5.057400 4.039600
5.071900 4.005400
5.086400 4.303400
5.100900 4.831200
5.115400 5.595500
5.129900 6.634400
5.144400 7.911300
5.158900 9.292700
5.173500 10.629000
5.188000 11.850500
5.202500 12.981900
5.217000 14.072600
5.231500 15.112000
5.246000 15.978200
5.260500 16.441200
5.275000 16.239700
5.289500 15.231200
5.304000 13.520000
5.318500 11.446300
5.333000 9.423700
5.347500 7.751800
5.362000 6.547800
5.376500 5.818900
5.391000 5.568600
5.405500 5.810200
5.420000 6.484300
5.434600 7.399900
5.449100 8.302100
5.463600 9.024300
5.478100 9.572200
5.492600 10.051100
5.507100 10.517100
5.521600 10.912400
5.536100 11.145900
5.550600 11.224700
5.565100 11.291100
5.579600 11.519800
5.594100 11.966700
5.608600 12.523100
5.623100 13.034300
5.637600 13.449700
5.652100 13.810300
5.666600 14.067800
5.681200 13.977800
5.695700 13.256200
5.710200 11.865400
5.724700 10.124700
5.739200 8.531700
5.753700 7.471500
5.768200 7.038200
5.782700 7.036900
5.797200 7.109700
5.811700 6.919900
5.826200 6.328200
5.840700 5.472500
5.855200 4.690300
5.869700 4.320300
5.884200 4.509100
5.898700 5.148700
5.913200 5.980800
5.927700 6.788500
5.942300 7.516600
5.956800 8.214900
5.971300 8.874000
5.985800 9.350300
6.000300 9.472000
6.014800 9.214000
6.029300 8.767900
6.043800 8.449200
6.058300 8.507700
6.072800 8.954400
6.087300 9.527300
6.101800 9.859300
6.116300 9.748400
6.130800 9.306800
6.145300 8.855000
6.159800 8.664100
6.174300 8.770700
6.188800 8.993900
6.203400 9.104900
6.217900 9.005500
6.232400 8.782000
6.246900 8.597100
6.261400 8.512000
6.275900 8.408300
6.290400 8.092400
6.304900 7.497400
6.319400 6.806500
6.333900 6.388800
6.348400 6.586300
6.362900 7.485200
6.377400 8.807600
6.391900 10.001500
6.406400 10.505100
6.420900 10.040400
6.435400 8.752600
6.450000 7.110100
6.464500 5.645600
6.479000 4.708300
6.493500 4.357800
6.508000 4.421900
6.522500 4.648800
6.537000 4.861200
6.551500 5.040000
6.566000 5.302500
6.580500 5.790800
6.595000 6.550300
6.609500 7.489600
6.624000 8.442700
6.638500 9.259200
6.653000 9.851600
6.667500 10.204300
6.682000 10.384000
6.696500 10.544500
6.711100 10.877800
6.725600 11.514200
6.740100 12.442300
6.754600 13.517200
6.769100 14.543900
6.783600 15.367200
6.798100 15.911400
6.812600 16.166400
6.827100 16.149100
6.841600 15.887300
6.856100 15.446600
6.870600 14.956200
6.885100 14.572500
6.899600 14.392700
6.914100 14.397900
6.928600 14.469100
6.943100 14.452800
6.957600 14.242000
6.972200 13.835600
6.986700 13.334600
7.001200 12.867800
7.015700 12.508200
7.030200 12.235400
7.044700 11.954800
7.059200 11.561900
7.073700 11.032500
7.088200 10.479400
7.102700 10.114600
7.117200 10.119500
7.131700 10.514000
7.146200 11.120000
7.160700 11.648400
7.175200 11.866200
7.189700 11.743200
7.204200 11.466600
7.218800 11.295300
7.233300 11.375800
7.247800 11.699600
7.262300 12.213900
7.276800 12.907200
7.291300 13.739900
7.305800 14.528000
7.320300 14.977500
7.334800 14.874600
7.349300 14.228400
7.363800 13.231500
7.378300 12.125300
7.392800 11.126600
7.407300 10.428200
7.421800 10.164700
7.436300 10.303200
7.450800 10.569500
7.465300 10.548700
7.479900 9.951500
7.494400 8.835500
7.508900 7.573100
7.523400 6.579700
7.537900 6.048000
7.552400 5.895900
7.566900 5.912300
7.581400 5.948000
7.595900 6.034000
7.610400 6.379300
7.624900 7.222300
7.639400 8.586200
7.653900 10.126000
7.668400 11.253500
7.682900 11.496700
7.697400 10.806600
7.711900 9.563200
7.726500 8.332700
7.741000 7.619700
7.755500 7.747700
7.770000 8.794500
7.784500 10.500500
7.799000 12.246400
7.813500 13.271100
7.828000 13.103700
7.842500 11.894200
7.857000 10.329600
7.871500 9.176400
7.886000 8.835100
7.900500 9.234800
7.915000 10.041800
7.929500 10.911400
7.944000 11.595700
7.958500 11.939200
7.973000 11.870700
7.987600 11.409100
8.002100 10.647700
8.016600 9.718000
8.031100 8.756100
8.045600 7.865300
8.060100 7.073700
8.074600 6.348300
8.089100 5.702200
8.103600 5.308600
8.118100 5.483900
8.132600 6.508100
8.147100 8.402300
8.161600 10.826100
8.176100 13.172300
8.190600 14.818200
8.205100 15.400000
8.219600 14.952000
8.234100 13.828200
8.248700 12.473500
8.263200 11.207200
8.277700 10.142700
8.292200 9.248100
8.306700 8.469800
8.321200 7.819200
8.335700 7.360600
8.350200 7.120600
8.364700 7.023000
8.379200 6.944800
8.393700 6.859800
8.408200 6.916800
8.422700 7.341400
8.437200 8.227000
8.451700 9.403900
8.466200 10.522400
8.480700 11.289100
8.495300 11.658800
8.509800 11.829300
8.524300 12.066000
8.538800 12.506000
8.553300 13.082400
8.567800 13.604800
8.582300 13.913600
8.596800 13.967100
8.611300 13.794000
8.625800 13.402500
8.640300 12.779400
8.654800 11.968500
8.669300 11.104500
8.683800 10.346700
8.698300 9.793000
8.712800 9.454800
8.727300 9.276600
8.741800 9.164600
8.756400 9.043600
8.770900 8.947800
8.785400 9.054000
8.799900 9.561100
8.814400 10.488000
