set title 'mp-10869 - Density of States'
set xlabel 'Energy (eV)'
set ylabel 'DOS (states/eV)'
set grid
set xrange [-10:10]
set yrange [0:0.817]
set xzeroaxis lt -1
set terminal png size 800,600
set output 'mp-10869_dos_gnuplot.png'
plot '-' using 1:2 with lines title 'DOS'
-21.413800 0.000000
-21.287900 0.000000
-21.162000 0.000000
-21.036100 0.000000
-20.910200 0.000000
-20.784200 0.000000
-20.658300 0.000000
-20.532400 0.000000
-20.406500 0.000000
-20.280600 0.000000
-20.154600 0.000000
-20.028700 0.000000
-19.902800 0.000000
-19.776900 0.000000
-19.651000 0.000000
-19.525000 0.000000
-19.399100 0.000000
-19.273200 0.000000
-19.147300 0.000000
-19.021400 0.000000
-18.895400 0.000000
-18.769500 0.000000
-18.643600 0.000000
-18.517700 0.000000
-18.391800 0.000000
-18.265800 0.000000
-18.139900 0.000000
-18.014000 0.000000
-17.888100 0.000000
-17.762200 0.000000
-17.636200 0.000000
-17.510300 0.000000
-17.384400 0.000000
-17.258500 0.000000
-17.132600 0.000000
-17.006600 0.000000
-16.880700 0.000000
-16.754800 0.000000
-16.628900 0.000000
-16.503000 0.000000
-16.377000 0.000000
-16.251100 0.000000
-16.125200 0.000000
-15.999300 0.000000
-15.873400 0.000000
-15.747400 0.000000
-15.621500 0.000000
-15.495600 0.000000
-15.369700 0.000000
-15.243800 0.000000
-15.117800 0.000000
-14.991900 0.000000
-14.866000 0.000000
-14.740100 0.000000
-14.614200 0.000000
-14.488200 0.000000
-14.362300 0.000000
-14.236400 0.000000
-14.110500 0.000000
-13.984600 0.000000
-13.858600 0.000000
-13.732700 0.000000
-13.606800 0.000000
-13.480900 0.000000
-13.355000 0.000000
-13.229000 0.000000
-13.103100 0.000000
-12.977200 0.000000
-12.851300 0.000000
-12.725400 0.000000
-12.599400 0.000000
-12.473500 0.000000
-12.347600 0.000000
-12.221700 0.000000
-12.095800 0.000000
-11.969800 0.000000
-11.843900 0.000000
-11.718000 0.000000
-11.592100 0.000000
-11.466200 0.000000
-11.340200 0.000000
-11.214300 0.000000
-11.088400 0.000000
-10.962500 0.000000
-10.836600 0.000000
-10.710600 0.000000
-10.584700 0.000000
-10.458800 0.000000
-10.332900 0.000000
-10.207000 0.000000
-10.081000 0.000000
-9.955100 0.001300
-9.829200 0.053000
-9.703300 0.082900
-9.577400 0.103600
-9.451400 0.121700
-9.325500 0.136600
-9.199600 0.154400
-9.073700 0.166800
-8.947800 0.180000
-8.821800 0.195000
-8.695900 0.207800
-8.570000 0.220800
-8.444100 0.234600
-8.318200 0.248900
-8.192200 0.263400
-8.066300 0.278400
-7.940400 0.294000
-7.814500 0.312400
-7.688600 0.333300
-7.562600 0.354600
-7.436700 0.382200
-7.310800 0.426600
-7.184900 0.526700
-7.059000 0.506700
-6.933100 0.489300
-6.807100 0.483000
-6.681200 0.468600
-6.555300 0.460200
-6.429400 0.447700
-6.303500 0.438500
-6.177500 0.430000
-6.051600 0.419300
-5.925700 0.409400
-5.799800 0.400600
-5.673900 0.391600
-5.547900 0.382100
-5.422000 0.372600
-5.296100 0.363500
-5.170200 0.354800
-5.044300 0.347000
-4.918300 0.336700
-4.792400 0.326800
-4.666500 0.324300
-4.540600 0.305300
-4.414700 0.261200
-4.288700 0.220700
-4.162800 0.196500
-4.036900 0.173400
-3.911000 0.156500
-3.785100 0.141000
-3.659100 0.126700
-3.533200 0.114800
-3.407300 0.103600
-3.281400 0.093000
-3.155500 0.084200
-3.029500 0.075700
-2.903600 0.067800
-2.777700 0.060400
-2.651800 0.053600
-2.525900 0.047400
-2.399900 0.041400
-2.274000 0.035600
-2.148100 0.030000
-2.022200 0.025000
-1.896300 0.021500
-1.770300 0.013500
-1.644400 0.007100
-1.518500 0.000000
-1.392600 0.000000
-1.266700 0.000000
-1.140700 0.000000
-1.014800 0.000000
-0.888900 0.078100
-0.763000 0.116200
-0.637100 0.150700
-0.511100 0.186600
-0.385200 0.211600
-0.259300 0.235900
-0.133400 0.258000
-0.007500 0.283500
0.118500 0.308700
0.244400 0.334900
0.370300 0.361200
0.496200 0.386400
0.622100 0.413400
0.748100 0.441700
0.874000 0.477000
0.999900 0.516400
1.125800 0.564800
1.251700 0.667400
1.377700 0.720000
1.503600 0.695500
1.629500 0.690100
1.755400 0.743000
1.881300 0.702700
2.007300 0.681400
2.133200 0.674100
2.259100 0.678900
2.385000 0.715600
2.510900 0.700700
2.636900 0.677200
2.762800 0.666300
2.888700 0.662800
3.014600 0.666800
3.140500 0.687900
3.266500 0.647000
3.392400 0.619900
3.518300 0.578300
3.644200 0.562900
3.770100 0.539600
3.896100 0.535100
4.022000 0.534400
4.147900 0.501200
4.273800 0.528400
4.399700 0.562100
4.525700 0.502200
4.651600 0.472900
4.777500 0.478200
4.903400 0.474600
5.029300 0.484900
5.155300 0.503800
5.281200 0.623800
5.407100 0.459500
5.533000 0.457600
5.658900 0.471100
5.784900 0.456500
5.910800 0.459900
6.036700 0.495700
6.162600 0.508400
6.288500 0.474800
6.414500 0.452900
6.540400 0.452600
6.666300 0.462400
6.792200 0.465300
6.918100 0.479600
7.044100 0.474400
7.170000 0.523200
7.295900 0.477900
7.421800 0.486000
7.547700 0.514600
7.673700 0.491500
7.799600 0.496000
7.925500 0.507700
8.051400 0.549300
8.177300 0.533100
8.303300 0.584000
8.429200 0.599900
8.555100 0.648300
8.681000 0.646600
8.806900 0.634600
8.932900 0.632600
9.058800 0.618900
9.184700 0.613400
9.310600 0.607500
9.436500 0.601300
9.562500 0.606700
9.688400 0.596800
9.814300 0.635700
9.940200 0.626600
10.066100 0.600800
10.192000 0.456100
10.318000 0.414200
10.443900 0.383900
10.569800 0.354500
10.695700 0.341800
10.821600 0.298500
10.947600 0.236400
11.073500 0.254100
11.199400 0.269900
11.325300 0.231000
11.451200 0.178700
11.577200 0.186600
11.703100 0.196100
11.829000 0.206000
11.954900 0.216200
12.080800 0.225700
12.206800 0.237700
12.332700 0.251000
12.458600 0.276300
12.584500 0.318200
12.710400 0.334300
12.836400 0.287000
12.962300 0.285300
13.088200 0.288500
13.214100 0.320700
13.340000 0.294900
13.466000 0.299100
13.591900 0.301900
13.717800 0.312200
13.843700 0.312400
13.969600 0.337500
14.095600 0.312500
14.221500 0.315000
14.347400 0.322600
14.473300 0.333800
14.599200 0.345400
14.725200 0.357000
14.851100 0.368100
14.977000 0.394700
15.102900 0.402800
15.228800 0.419900
15.354800 0.424200
15.480700 0.435700
15.606600 0.445400
15.732500 0.458300
15.858400 0.472500
15.984400 0.486400
16.110300 0.502100
16.236200 0.537300
16.362100 0.550000
16.488000 0.578600
16.614000 0.612900
16.739900 0.649800
16.865800 0.679600
16.991700 0.699100
17.117600 0.705700
17.243600 0.655400
17.369500 0.608900
17.495400 0.579600
17.621300 0.553800
17.747200 0.538400
17.873200 0.504500
17.999100 0.633100
18.125000 0.755600
18.250900 0.831900
18.376800 0.883500
18.502800 0.924300
18.628700 1.051600
18.754600 1.052100
18.880500 0.889900
19.006400 0.884100
19.132400 0.850200
19.258300 0.815400
19.384200 0.735400
19.510100 0.708600
19.636000 0.746600
19.762000 0.627800
19.887900 0.603500
20.013800 0.587700
20.139700 0.586500
20.265600 0.609000
20.391600 0.649200
20.517500 0.699000
20.643400 0.788500
20.769300 0.930400
20.895200 1.122600
21.021200 1.236800
21.147100 1.100200
21.273000 0.910300
21.398900 0.783100
21.524800 0.682400
21.650800 0.574100
21.776700 0.616600
21.902600 0.656400
22.028500 0.701800
22.154400 0.783100
22.280400 0.896100
22.406300 0.936400
22.532200 0.900300
22.658100 0.929200
22.784000 0.950600
22.910000 0.893100
23.035900 0.830300
23.161800 0.745100
23.287700 0.705000
23.413600 0.690200
23.539600 0.674500
23.665500 0.648700
23.791400 0.638100
23.917300 0.599400
24.043200 0.593100
24.169200 0.589600
24.295100 0.597200
24.421000 0.607200
24.546900 0.666300
24.672800 0.746100
24.798800 0.801800
24.924700 0.758200
25.050600 0.726600
25.176500 0.681300
25.302400 0.690100
25.428400 0.728100
25.554300 0.776500
25.680200 0.830800
25.806100 0.845600
25.932000 0.791900
26.058000 0.747000
26.183900 0.745400
26.309800 0.723300
26.435700 0.744000
26.561600 0.736500
26.687600 0.770000
26.813500 0.810100
26.939400 0.860800
27.065300 0.933500
27.191200 0.916900
27.317100 0.884400
27.443100 0.860900
27.569000 0.835300
27.694900 0.793200
27.820800 0.761100
27.946700 0.746900
28.072700 0.751500
28.198600 0.767800
28.324500 0.737700
28.450400 0.703900
28.576300 0.690100
28.702300 0.667200
28.828200 0.577300
28.954100 0.605300
29.080000 0.677700
29.205900 0.676800
29.331900 0.520800
29.457800 0.352700
29.583700 0.284000
29.709600 0.263600
29.835500 0.264800
29.961500 0.282200
30.087400 0.312000
30.213300 0.346200
30.339200 0.376400
30.465100 0.430200
30.591100 0.481600
30.717000 0.523400
30.842900 0.586300
30.968800 0.611100
31.094700 0.640300
31.220700 0.673600
31.346600 0.719800
31.472500 0.820200
31.598400 0.900000
31.724300 0.787300
31.850300 0.776800
31.976200 0.784100
32.102100 0.809100
32.228000 0.857600
32.353900 0.862200
32.479900 0.867700
32.605800 0.863000
32.731700 0.865700
32.857600 0.849800
32.983500 0.785000
33.109500 0.802700
33.235400 0.786900
33.361300 0.785000
33.487200 0.802900
33.613100 0.803500
33.739100 0.823000
33.865000 0.857500
33.990900 0.876900
34.116800 0.838200
34.242700 0.800900
34.368700 0.748400
34.494600 0.733900
34.620500 0.594500
34.746400 0.544800
34.872300 0.560600
34.998300 0.573400
35.124200 0.566400
35.250100 0.569000
35.376000 0.596300
35.501900 0.638700
35.627900 0.856500
35.753800 1.029800
35.879700 1.118400
36.005600 1.135100
36.131500 0.994600
36.257500 0.833900
36.383400 0.735700
36.509300 0.666700
36.635200 0.629700
36.761100 0.600200
36.887100 0.569500
37.013000 0.547000
37.138900 0.530400
37.264800 0.524800
37.390700 0.522800
37.516700 0.528700
37.642600 0.534400
37.768500 0.515700
37.894400 0.518900
38.020300 0.530000
38.146300 0.542500
38.272200 0.560300
38.398100 0.608600
38.524000 0.647900
38.649900 0.732700
38.775900 0.783200
38.901800 0.857700
39.027700 0.959400
39.153600 0.949100
39.279500 0.931700
39.405500 0.901400
39.531400 0.872700
39.657300 0.857900
39.783200 0.857300
39.909100 0.847100
40.035100 0.849500
40.161000 0.823300
40.286900 0.805800
40.412800 0.811500
40.538700 0.694800
40.664700 0.676900
40.790600 0.688100
40.916500 0.715100
41.042400 0.770400
41.168300 0.783200
41.294300 0.822900
41.420200 0.855800
41.546100 0.824300
41.672000 0.818300
41.797900 0.835900
41.923900 0.866200
42.049800 0.919400
42.175700 1.007900
42.301600 1.006800
42.427500 0.953700
42.553500 0.913500
42.679400 0.897900
42.805300 0.886000
42.931200 0.876800
43.057100 0.868500
43.183100 0.849500
43.309000 0.830100
43.434900 0.819100
43.560800 0.819900
43.686700 0.787400
43.812700 0.811800
43.938600 0.848800
44.064500 0.921300
44.190400 1.024500
44.316300 1.117800
44.442200 1.176200
44.568200 1.207700
44.694100 1.257400
44.820000 1.293800
44.945900 1.198600
45.071800 1.115500
45.197800 1.094200
45.323700 1.112800
45.449600 1.097600
45.575500 1.072000
45.701400 0.999100
45.827400 0.918400
45.953300 0.844300
46.079200 0.798500
46.205100 0.740800
46.331000 0.709700
46.457000 0.675900
46.582900 0.662500
46.708800 0.701600
46.834700 0.697800
46.960600 0.668800
47.086600 0.656300
47.212500 0.708400
47.338400 0.674200
47.464300 0.660000
47.590200 0.621000
47.716200 0.658000
47.842100 0.635500
47.968000 0.691100
48.093900 0.817600
48.219800 0.925300
48.345800 1.010000
48.471700 1.000000
48.597600 1.007800
48.723500 0.990700
48.849400 0.937200
48.975400 0.911500
49.101300 0.899900
49.227200 0.877000
49.353100 0.849300
49.479000 0.867500
49.605000 0.911400
49.730900 1.044100
49.856800 1.127000
49.982700 1.258900
50.108600 1.237600
50.234600 1.281700
50.360500 1.356800
50.486400 1.102400
50.612300 1.009600
50.738200 0.910500
50.864200 0.872200
50.990100 0.837900
51.116000 0.794900
51.241900 0.814400
51.367800 0.815300
51.493800 0.892800
51.619700 0.755300
51.745600 0.742200
51.871500 0.747900
51.997400 0.832700
52.123400 0.867300
52.249300 0.943300
52.375200 0.974800
52.501100 1.037700
52.627000 1.084100
52.753000 1.058400
52.878900 1.111000
53.004800 1.129100
53.130700 1.022200
53.256600 0.937900
53.382600 0.906200
53.508500 0.881000
53.634400 0.872400
53.760300 0.870900
53.886200 0.905200
54.012200 0.933800
54.138100 0.937200
54.264000 0.931300
54.389900 0.932600
54.515800 0.998600
54.641800 1.072400
54.767700 1.029300
54.893600 0.940700
55.019500 0.880000
55.145400 0.954000
55.271400 0.870800
55.397300 0.854000
55.523200 0.863800
55.649100 0.920700
55.775000 1.006200
55.901000 0.989000
56.026900 0.974200
56.152800 0.961500
56.278700 1.000200
56.404600 1.037200
56.530600 1.048700
56.656500 1.068100
56.782400 1.025300
56.908300 1.014600
57.034200 1.022400
57.160200 0.888200
57.286100 0.803900
57.412000 0.748400
57.537900 0.799700
57.663800 0.828900
57.789800 0.886000
57.915700 0.926000
58.041600 0.893600
58.167500 0.858500
58.293400 0.836400
58.419400 0.864700
58.545300 0.863700
58.671200 0.887500
58.797100 0.929500
58.923000 0.850700
59.049000 0.835600
59.174900 0.830800
59.300800 0.907700
59.426700 0.928400
59.552600 0.907100
59.678600 0.896800
59.804500 0.855300
59.930400 0.794800
60.056300 0.777900
60.182200 0.795600
60.308200 0.831500
60.434100 0.898700
60.560000 0.879400
60.685900 0.823100
60.811800 0.810000
60.937800 0.798700
61.063700 0.818200
61.189600 0.810900
61.315500 0.814100
61.441400 0.829900
61.567300 0.860600
61.693300 0.919700
61.819200 0.925400
61.945100 0.963300
62.071000 1.018800
62.196900 1.078400
62.322900 1.133700
62.448800 1.040400
62.574700 1.013700
62.700600 1.027100
62.826500 1.053200
62.952500 1.051200
63.078400 1.059600
63.204300 1.010900
63.330200 0.964800
63.456100 0.943300
63.582100 0.950300
63.708000 0.916100
63.833900 0.893400
63.959800 0.864700
64.085700 0.864400
64.211700 0.877800
64.337600 0.920800
64.463500 1.018400
64.589400 1.154900
64.715300 1.265400
64.841300 1.150800
64.967200 1.091100
65.093100 1.036800
65.219000 0.982900
65.344900 0.920500
65.470900 0.857300
65.596800 0.794400
65.722700 0.763800
65.848600 0.731600
65.974500 0.750800
66.100500 0.832400
66.226400 0.912800
66.352300 0.923600
66.478200 0.949700
66.604100 0.991800
66.730100 1.137300
66.856000 1.310100
66.981900 1.276000
67.107800 1.231100
67.233700 1.202300
67.359700 1.237000
67.485600 1.282300
67.611500 1.263800
67.737400 1.248700
67.863300 1.321100
67.989300 1.315900
68.115200 1.313100
68.241100 1.256100
68.367000 1.153500
68.492900 1.077000
68.618900 1.092800
68.744800 1.078100
68.870700 1.001100
68.996600 1.009700
69.122500 1.052100
69.248500 1.072500
69.374400 1.091300
69.500300 1.146500
69.626200 1.188000
69.752100 1.263800
69.878100 1.172000
70.004000 0.995200
70.129900 0.863300
70.255800 0.807100
70.381700 0.811600
70.507700 0.869000
70.633600 0.916000
70.759500 0.943700
70.885400 1.059500
71.011300 1.144300
71.137300 1.408700
71.263200 1.291900
71.389100 1.179300
71.515000 0.978600
71.640900 0.802600
71.766900 0.708500
71.892800 0.636700
72.018700 0.626500
72.144600 0.653000
72.270500 0.679300
72.396500 0.748800
72.522400 0.890500
72.648300 0.978400
72.774200 1.076000
72.900100 1.126600
73.026100 1.160900
73.152000 1.177000
73.277900 1.154300
73.403800 1.133500
73.529700 1.127600
73.655700 1.110000
73.781600 1.047900
73.907500 1.082000
74.033400 1.091100
74.159300 1.036700
74.285300 1.028900
74.411200 1.030300
74.537100 1.081000
74.663000 1.119700
74.788900 1.160900
74.914900 1.147800
75.040800 1.108600
75.166700 1.084000
75.292600 1.057200
75.418500 1.030300
75.544500 1.106200
75.670400 0.917400
75.796300 0.919300
75.922200 0.880800
76.048100 0.899200
76.174100 0.993900
76.300000 1.016800
76.425900 1.044600
76.551800 1.093800
76.677700 1.099600
76.803700 1.100000
76.929600 1.099800
77.055500 1.072100
77.181400 1.081200
77.307300 1.069700
77.433300 1.008000
77.559200 1.014000
77.685100 0.996400
77.811000 1.025800
77.936900 1.129000
78.062900 1.089600
78.188800 1.103300
78.314700 1.090400
78.440600 1.150400
78.566500 1.227300
78.692400 1.190400
78.818400 1.080700
78.944300 1.018000
79.070200 1.011100
79.196100 1.102700
79.322000 1.219500
79.448000 1.273500
79.573900 1.297900
79.699800 1.199000
79.825700 1.099600
79.951600 1.065800
80.077600 1.027900
80.203500 1.014400
80.329400 1.068700
80.455300 1.148000
80.581200 1.201600
80.707200 1.287400
80.833100 1.319900
80.959000 1.269600
81.084900 1.280900
81.210800 1.367100
81.336800 1.335600
81.462700 1.284500
81.588600 1.251500
81.714500 1.238000
81.840400 1.234500
81.966400 1.190100
82.092300 1.170900
82.218200 1.127500
82.344100 1.104100
82.470000 1.096600
82.596000 1.115800
82.721900 1.112500
82.847800 1.120600
82.973700 1.125500
83.099600 1.141800
83.225600 1.186100
83.351500 1.161500
83.477400 1.176600
83.603300 1.196400
83.729200 1.182300
83.855200 1.133900
83.981100 1.115400
84.107000 1.083000
84.232900 1.050700
84.358800 1.061300
84.484800 1.067800
84.610700 1.007900
84.736600 1.009000
84.862500 1.001100
84.988400 1.006600
85.114400 1.036300
85.240300 1.058000
85.366200 1.074500
85.492100 1.087300
85.618000 1.155900
85.744000 1.181500
85.869900 1.184600
85.995800 1.204500
86.121700 1.197100
86.247600 1.218200
86.373600 1.273900
86.499500 1.303300
86.625400 1.247700
86.751300 1.225500
86.877200 1.217300
87.003200 1.141200
87.129100 1.145500
87.255000 1.174100
87.380900 1.148400
87.506800 1.122900
87.632800 1.111500
87.758700 1.116000
87.884600 1.120200
88.010500 1.128200
88.136400 1.115500
88.262400 1.058000
88.388300 1.059200
88.514200 1.060300
88.640100 1.060600
88.766000 1.075800
88.892000 1.078100
89.017900 1.062200
89.143800 1.047100
89.269700 1.055200
89.395600 1.094400
89.521600 1.091000
89.647500 1.091800
89.773400 1.098500
89.899300 1.129200
90.025200 1.053000
90.151200 1.041400
90.277100 1.050100
90.403000 1.099200
90.528900 1.140200
90.654800 1.125000
90.780800 1.141400
90.906700 1.125600
91.032600 1.094900
91.158500 1.094100
91.284400 1.049100
91.410400 1.031400
91.536300 1.034100
91.662200 1.063100
91.788100 1.132300
91.914000 1.174300
92.040000 1.196600
92.165900 1.187900
92.291800 1.238100
92.417700 1.285200
92.543600 1.286200
92.669600 1.235800
92.795500 1.231800
92.921400 1.178300
93.047300 1.178900
93.173200 1.176800
93.299200 1.222900
93.425100 1.177600
93.551000 1.149700
93.676900 1.149500
93.802800 1.166500
93.928800 1.177900
94.054700 1.174300
94.180600 1.172000
94.306500 1.237700
94.432400 1.328600
94.558400 1.330100
94.684300 1.392700
94.810200 1.437400
94.936100 1.425700
95.062000 1.361300
95.188000 1.310400
95.313900 1.270600
95.439800 1.240800
95.565700 1.180100
95.691600 1.112900
95.817500 1.093200
95.943500 1.129900
96.069400 1.210000
96.195300 1.214300
96.321200 1.207300
96.447100 1.225200
96.573100 1.224600
96.699000 1.253900
96.824900 1.295400
96.950800 1.248400
97.076700 1.224100
97.202700 1.219600
97.328600 1.195700
97.454500 1.186300
97.580400 1.188500
97.706300 1.120900
97.832300 1.063000
97.958200 1.052400
98.084100 1.066100
98.210000 1.138300
98.335900 1.188700
98.461900 1.204800
98.587800 1.202900
98.713700 1.211200
98.839600 1.181200
98.965500 1.176600
99.091500 1.219500
99.217400 1.261500
99.343300 1.289600
99.469200 1.360600
99.595100 1.337500
99.721100 1.350100
99.847000 1.340600
99.972900 1.310100
100.098800 1.292400
100.224700 1.299000
100.350700 1.327600
100.476600 1.313400
100.602500 1.260400
100.728400 1.222600
100.854300 1.165100
100.980300 1.129800
101.106200 1.128000
101.232100 1.179900
101.358000 1.201000
101.483900 1.237000
101.609900 1.274700
101.735800 1.303900
101.861700 1.301000
101.987600 1.274400
102.113500 1.266500
102.239500 1.291400
102.365400 1.338700
102.491300 1.373700
102.617200 1.317800
102.743100 1.288700
102.869100 1.263400
102.995000 1.255000
103.120900 1.219700
103.246800 1.162800
103.372700 1.116900
103.498700 1.106600
103.624600 1.109800
103.750500 1.135600
103.876400 1.252300
104.002300 1.278800
104.128300 1.282600
104.254200 1.221500
104.380100 1.186500
104.506000 1.150400
104.631900 1.151900
104.757900 1.197600
104.883800 1.266500
105.009700 1.349400
105.135600 1.326300
105.261500 1.297700
105.387500 1.278500
105.513400 1.255500
105.639300 1.244400
105.765200 1.221000
105.891100 1.200400
106.017100 1.210100
106.143000 1.247000
106.268900 1.255400
106.394800 1.277100
106.520700 1.314700
106.646700 1.314500
106.772600 1.344700
106.898500 1.350200
107.024400 1.315300
107.150300 1.296500
107.276300 1.284200
107.402200 1.226100
107.528100 1.248300
107.654000 1.347300
107.779900 1.219800
107.905900 1.287400
108.031800 1.392400
108.157700 1.429700
108.283600 1.409500
108.409500 1.328100
108.535500 1.308200
