set title 'mp-1215509 - Density of States'
set xlabel 'Energy (eV)'
set ylabel 'DOS (states/eV)'
set grid
set xrange [-10:10]
set yrange [0:64.767]
set xzeroaxis lt -1
set terminal png size 800,600
set output 'mp-1215509_dos_gnuplot.png'
plot '-' using 1:2 with lines title 'DOS'
-5.684000 0.000000
-5.667400 0.000000
-5.650800 0.000000
-5.634200 0.000000
-5.617600 0.000000
-5.601000 0.000000
-5.584400 0.000000
-5.567800 0.000000
-5.551200 0.000000
-5.534600 0.000000
-5.518000 0.000000
-5.501400 0.000000
-5.484800 0.000000
-5.468200 0.000000
-5.451600 0.000000
-5.435000 0.000000
-5.418400 0.000000
-5.401800 0.000000
-5.385200 0.000000
-5.368600 0.000000
-5.352000 0.000000
-5.335400 0.000000
-5.318800 0.000000
-5.302200 0.000000
-5.285600 0.000000
-5.269000 0.000000
-5.252400 0.000000
-5.235800 0.000000
-5.219200 0.000000
-5.202600 0.000000
-5.186000 0.000000
-5.169400 0.000000
-5.152800 0.000000
-5.136200 0.000000
-5.119600 0.000000
-5.103000 0.000000
-5.086400 0.000000
-5.069800 0.000000
-5.053200 0.000000
-5.036600 0.000000
-5.020000 0.000000
-5.003400 0.000000
-4.986800 0.000000
-4.970200 0.000000
-4.953500 0.000000
-4.936900 0.000000
-4.920300 0.000000
-4.903700 0.000000
-4.887100 0.000000
-4.870500 0.000000
-4.853900 0.000000
-4.837300 0.000000
-4.820700 0.000000
-4.804100 0.000000
-4.787500 0.000000
-4.770900 0.000000
-4.754300 0.000000
-4.737700 0.000000
-4.721100 0.000000
-4.704500 0.000000
-4.687900 0.000000
-4.671300 0.000000
-4.654700 0.000000
-4.638100 0.000000
-4.621500 0.000000
-4.604900 0.000000
-4.588300 0.000000
-4.571700 0.000000
-4.555100 0.000000
-4.538500 0.000000
-4.521900 0.000000
-4.505300 0.000000
-4.488700 0.000000
-4.472100 0.000000
-4.455500 0.000000
-4.438900 0.000000
-4.422300 0.000000
-4.405700 0.000000
-4.389100 0.000000
-4.372500 0.000000
-4.355900 0.000000
-4.339300 0.000000
-4.322700 0.000000
-4.306100 0.000000
-4.289500 0.000000
-4.272900 0.000000
-4.256300 0.000000
-4.239700 0.000000
-4.223100 0.000000
-4.206500 0.000000
-4.189900 0.000000
-4.173300 0.000100
-4.156600 0.015500
-4.140000 0.056500
-4.123400 0.115700
-4.106800 0.189400
-4.090200 0.256200
-4.073600 0.319300
-4.057000 0.365600
-4.040400 0.391600
-4.023800 0.405700
-4.007200 0.386400
-3.990600 0.374200
-3.974000 0.369100
-3.957400 0.373600
-3.940800 0.389100
-3.924200 0.404600
-3.907600 0.419000
-3.891000 0.426600
-3.874400 0.428100
-3.857800 0.425400
-3.841200 0.420200
-3.824600 0.412000
-3.808000 0.407200
-3.791400 0.405200
-3.774800 0.407700
-3.758200 0.413000
-3.741600 0.418200
-3.725000 0.423500
-3.708400 0.428800
-3.691800 0.434000
-3.675200 0.439300
-3.658600 0.444800
-3.642000 0.451200
-3.625400 0.458300
-3.608800 0.465900
-3.592200 0.474700
-3.575600 0.484100
-3.559000 0.494300
-3.542400 0.504700
-3.525800 0.514900
-3.509200 0.525000
-3.492600 0.534600
-3.476000 0.544300
-3.459400 0.554000
-3.442800 0.563600
-3.426200 0.573300
-3.409600 0.583000
-3.393000 0.594100
-3.376400 0.608900
-3.359700 0.624200
-3.343100 0.642700
-3.326500 0.660500
-3.309900 0.742500
-3.293300 0.889100
-3.276700 1.352500
-3.260100 3.550600
-3.243500 5.834500
-3.226900 5.931400
-3.210300 6.292300
-3.193700 8.098200
-3.177100 9.518400
-3.160500 13.015500
-3.143900 20.960800
-3.127300 19.344500
-3.110700 18.053600
-3.094100 15.819400
-3.077500 16.075700
-3.060900 26.472600
-3.044300 23.238300
-3.027700 23.629600
-3.011100 29.957200
-2.994500 25.527300
-2.977900 23.615200
-2.961300 20.089100
-2.944700 44.863600
-2.928100 34.314900
-2.911500 49.150100
-2.894900 51.565500
-2.878300 46.874100
-2.861700 58.879100
-2.845100 56.904800
-2.828500 47.094400
-2.811900 41.243700
-2.795300 28.768600
-2.778700 35.298000
-2.762100 33.623800
-2.745500 25.777000
-2.728900 40.325100
-2.712300 38.054600
-2.695700 26.777200
-2.679100 22.537500
-2.662500 23.080900
-2.645900 34.512800
-2.629300 23.810900
-2.612700 20.213900
-2.596100 13.960900
-2.579400 11.796800
-2.562800 14.804900
-2.546200 9.691900
-2.529600 10.004900
-2.513000 7.892900
-2.496400 9.637900
-2.479800 9.679600
-2.463200 14.586300
-2.446600 15.102700
-2.430000 4.508400
-2.413400 3.820600
-2.396800 3.571800
-2.380200 3.295200
-2.363600 3.056100
-2.347000 2.895900
-2.330400 3.310100
-2.313800 2.849300
-2.297200 1.366600
-2.280600 1.165200
-2.264000 1.181700
-2.247400 1.191000
-2.230800 1.198600
-2.214200 1.216600
-2.197600 1.240800
-2.181000 1.264800
-2.164400 1.288700
-2.147800 1.301000
-2.131200 1.310500
-2.114600 1.319200
-2.098000 1.329700
-2.081400 1.353100
-2.064800 1.371400
-2.048200 1.390900
-2.031600 1.411200
-2.015000 1.430600
-1.998400 1.450100
-1.981800 1.468500
-1.965200 1.487200
-1.948600 1.506900
-1.932000 1.530200
-1.915400 1.557400
-1.898800 1.594800
-1.882200 1.630300
-1.865600 1.661600
-1.849000 1.693100
-1.832400 1.717600
-1.815800 1.756900
-1.799200 1.786800
-1.782500 1.815200
-1.765900 1.842100
-1.749300 1.867700
-1.732700 1.892600
-1.716100 1.921000
-1.699500 1.955600
-1.682900 1.993700
-1.666300 2.038500
-1.649700 2.084500
-1.633100 2.133700
-1.616500 2.217700
-1.599900 2.281900
-1.583300 2.362100
-1.566700 2.426900
-1.550100 2.479400
-1.533500 2.525200
-1.516900 2.566600
-1.500300 2.608200
-1.483700 2.660300
-1.467100 2.716600
-1.450500 2.795400
-1.433900 2.883400
-1.417300 2.988200
-1.400700 3.225000
-1.384100 3.466800
-1.367500 3.677900
-1.350900 3.926900
-1.334300 4.188200
-1.317700 4.468200
-1.301100 4.756700
-1.284500 5.064000
-1.267900 5.608000
-1.251300 7.416000
-1.234700 8.204000
-1.218100 9.192200
-1.201500 9.006500
-1.184900 4.729200
-1.168300 3.683400
-1.151700 3.367700
-1.135100 2.840000
-1.118500 2.310900
-1.101900 2.043200
-1.085300 1.712500
-1.068700 1.493900
-1.052100 1.297100
-1.035500 1.144800
-1.018900 0.930300
-1.002300 0.777100
-0.985600 0.704900
-0.969000 0.692300
-0.952400 0.672500
-0.935800 0.633300
-0.919200 0.617500
-0.902600 0.624400
-0.886000 0.745100
-0.869400 0.930200
-0.852800 1.188500
-0.836200 1.392100
-0.819600 1.527100
-0.803000 1.806400
-0.786400 2.028600
-0.769800 1.973000
-0.753200 2.038500
-0.736600 2.143700
-0.720000 2.223900
-0.703400 2.286100
-0.686800 2.292400
-0.670200 2.314500
-0.653600 2.361500
-0.637000 2.453300
-0.620400 2.627200
-0.603800 3.204700
-0.587200 3.294500
-0.570600 3.962100
-0.554000 4.732700
-0.537400 5.287100
-0.520800 5.764600
-0.504200 6.387100
-0.487600 7.190700
-0.471000 7.817500
-0.454400 8.073300
-0.437800 8.074200
-0.421200 8.315500
-0.404600 8.687700
-0.388000 8.407600
-0.371400 9.566200
-0.354800 9.567400
-0.338200 8.807000
-0.321600 8.810500
-0.305000 9.087400
-0.288400 9.460600
-0.271800 9.916000
-0.255200 10.409400
-0.238600 11.078500
-0.222000 11.584900
-0.205400 12.575900
-0.188700 13.243600
-0.172100 14.569400
-0.155500 14.659600
-0.138900 14.193200
-0.122300 14.008900
-0.105700 13.925800
-0.089100 14.816000
-0.072500 15.389300
-0.055900 14.838600
-0.039300 14.367600
-0.022700 13.994000
-0.006100 14.304100
0.010500 13.959100
0.027100 13.644600
0.043700 14.538300
0.060300 15.572000
0.076900 16.207500
0.093500 15.088600
0.110100 13.072100
0.126700 12.702300
0.143300 17.957600
0.159900 17.104100
0.176500 18.038600
0.193100 15.016000
0.209700 12.770900
0.226300 11.277100
0.242900 10.538800
0.259500 10.216900
0.276100 10.724100
0.292700 11.841000
0.309300 11.885500
0.325900 11.561700
0.342500 10.196700
0.359100 10.190700
0.375700 10.767000
0.392300 10.199400
0.408900 10.112200
0.425500 10.881800
0.442100 12.414600
0.458700 13.061900
0.475300 10.853900
0.491900 10.485900
0.508500 10.660700
0.525100 10.541900
0.541700 10.525600
0.558300 10.566000
0.574900 10.797800
0.591500 11.340800
0.608200 11.979500
0.624800 12.826300
0.641400 13.799700
0.658000 13.555200
0.674600 13.059800
0.691200 14.016700
0.707800 13.697100
0.724400 13.825500
0.741000 12.555700
0.757600 12.063900
0.774200 11.780800
0.790800 12.122900
0.807400 11.813100
0.824000 10.722700
0.840600 10.613900
0.857200 11.035500
0.873800 11.686400
0.890400 12.600200
0.907000 13.222800
0.923600 12.143300
0.940200 13.054700
0.956800 11.040000
0.973400 10.444800
0.990000 11.589000
1.006600 12.544000
1.023200 14.106400
1.039800 12.438700
1.056400 12.206300
1.073000 13.310700
1.089600 14.144900
1.106200 12.857200
1.122800 12.152400
1.139400 13.962600
1.156000 14.227800
1.172600 11.630100
1.189200 11.212500
1.205800 11.450300
1.222400 12.945400
1.239000 13.091700
1.255600 12.468300
1.272200 12.355600
1.288800 11.407100
1.305400 10.930100
1.322000 10.951800
1.338600 11.511900
1.355200 11.851000
1.371800 11.287300
1.388500 11.353000
1.405100 10.659000
1.421700 10.918400
1.438300 10.917700
1.454900 10.941800
1.471500 11.043700
1.488100 11.109200
1.504700 11.200100
1.521300 11.346900
1.537900 11.094500
1.554500 10.757400
1.571100 9.832600
1.587700 9.161300
1.604300 8.897200
1.620900 8.931400
1.637500 9.308200
1.654100 9.868000
1.670700 10.953400
1.687300 12.163400
1.703900 11.975000
1.720500 8.626600
1.737100 9.042700
1.753700 9.932700
1.770300 10.123100
1.786900 10.263700
1.803500 10.813300
1.820100 11.112200
1.836700 10.833300
1.853300 10.121400
1.869900 9.649600
1.886500 9.123200
1.903100 8.791100
1.919700 8.790500
1.936300 8.735100
1.952900 8.640800
1.969500 8.322100
1.986100 7.974200
2.002700 8.173500
2.019300 7.779900
2.035900 7.429400
2.052500 7.201900
2.069100 7.445100
2.085700 6.979700
2.102300 7.022800
2.118900 7.173400
2.135500 7.054100
2.152100 6.748600
2.168700 6.772400
2.185400 6.831500
2.202000 6.765500
2.218600 7.102600
2.235200 6.436500
2.251800 6.196800
2.268400 6.076700
2.285000 6.082700
2.301600 6.182500
2.318200 6.265900
2.334800 6.437800
2.351400 6.789200
2.368000 7.215500
2.384600 7.292500
2.401200 7.217700
2.417800 7.044400
2.434400 7.011300
2.451000 6.924700
2.467600 7.144200
2.484200 7.488100
2.500800 7.132100
2.517400 6.758500
2.534000 7.447000
2.550600 6.225900
2.567200 6.282700
2.583800 6.553000
2.600400 7.187900
2.617000 6.832700
2.633600 6.784000
2.650200 6.929100
2.666800 7.383200
2.683400 8.263600
2.700000 8.552900
2.716600 8.746800
2.733200 9.560100
2.749800 9.258600
2.766400 10.735300
2.783000 8.097900
2.799600 8.026500
2.816200 7.535300
2.832800 6.662300
2.849400 6.069900
2.866000 5.929100
2.882600 5.942900
2.899200 5.392300
2.915800 5.359900
2.932400 8.246500
2.949000 10.626300
2.965600 14.881100
2.982300 12.435200
2.998900 11.671900
3.015500 11.287600
3.032100 12.049100
3.048700 7.685500
3.065300 6.678400
3.081900 6.148000
3.098500 5.779400
3.115100 5.581000
3.131700 5.360400
3.148300 5.107800
3.164900 5.655500
3.181500 3.616500
3.198100 3.304000
3.214700 3.044700
3.231300 2.832600
3.247900 2.644200
3.264500 2.457600
3.281100 2.278700
3.297700 2.111000
3.314300 2.040300
3.330900 1.976400
3.347500 1.919100
3.364100 1.864600
3.380700 1.811200
3.397300 1.758600
3.413900 1.716200
3.430500 1.678000
3.447100 1.643600
3.463700 1.616200
3.480300 1.593000
3.496900 1.568600
3.513500 1.549600
3.530100 1.532500
3.546700 1.520100
3.563300 1.509500
3.579900 1.500600
3.596500 1.493300
3.613100 1.486800
3.629700 1.480600
3.646300 1.474800
3.662900 1.468800
3.679500 1.462600
3.696100 1.453800
3.712700 1.445000
3.729300 1.436200
3.745900 1.429300
3.762500 1.426000
3.779200 1.430900
3.795800 1.442300
3.812400 1.436700
3.829000 1.429200
3.845600 1.418300
3.862200 1.442900
3.878800 1.471300
3.895400 1.504000
3.912000 1.506200
3.928600 1.508400
3.945200 1.511900
3.961800 1.543200
3.978400 1.597500
3.995000 1.655400
4.011600 1.706900
4.028200 1.756100
4.044800 1.804200
4.061400 1.849600
4.078000 1.902900
4.094600 1.952200
4.111200 1.999800
4.127800 2.033000
4.144400 2.000800
4.161000 1.915400
4.177600 1.810800
4.194200 1.745400
4.210800 1.712600
4.227400 1.703700
4.244000 1.699500
4.260600 1.696600
4.277200 1.695600
4.293800 1.686800
4.310400 1.688400
4.327000 1.689600
4.343600 1.687300
4.360200 1.681700
4.376800 1.674300
4.393400 1.658000
4.410000 1.643500
4.426600 1.639800
4.443200 1.643300
4.459800 1.648200
4.476400 1.707600
4.493000 1.718500
4.509600 1.727800
4.526200 1.736800
4.542800 1.753200
4.559500 1.773600
4.576100 1.794700
4.592700 1.818500
4.609300 1.830300
4.625900 1.836600
4.642500 1.843000
4.659100 1.855200
4.675700 1.879000
4.692300 1.914900
4.708900 1.956500
4.725500 1.956000
4.742100 1.962600
4.758700 1.963700
4.775300 1.957200
4.791900 1.942700
4.808500 1.927800
4.825100 1.918900
4.841700 1.901400
4.858300 1.861700
4.874900 1.816500
4.891500 1.785300
4.908100 1.776000
4.924700 1.768100
4.941300 1.762000
4.957900 1.757400
4.974500 1.755100
4.991100 1.755000
5.007700 1.755000
5.024300 1.755700
5.040900 1.756800
5.057500 1.755500
5.074100 1.752900
5.090700 1.747800
5.107300 1.741500
5.123900 1.734200
5.140500 1.725700
5.157100 1.715800
5.173700 1.705900
5.190300 1.694700
5.206900 1.682100
5.223500 1.668200
5.240100 1.653700
5.256700 1.640500
5.273300 1.621500
5.289900 1.597700
5.306500 1.584300
5.323100 1.561300
5.339700 1.539600
5.356400 1.521700
5.373000 1.514300
5.389600 1.539900
5.406200 1.532400
5.422800 1.528300
5.439400 1.526600
5.456000 1.526800
5.472600 1.527700
5.489200 1.528700
5.505800 1.529900
5.522400 1.530700
5.539000 1.532400
5.555600 1.534600
5.572200 1.536500
5.588800 1.537900
5.605400 1.539300
5.622000 1.541000
5.638600 1.542900
5.655200 1.544900
5.671800 1.548500
5.688400 1.551100
5.705000 1.559900
5.721600 1.570200
5.738200 1.583600
5.754800 1.599300
5.771400 1.617300
5.788000 1.711300
5.804600 1.683300
5.821200 1.654700
5.837800 1.624100
5.854400 1.614800
5.871000 1.612500
5.887600 1.610300
5.904200 1.607700
5.920800 1.604900
5.937400 1.602200
5.954000 1.598500
5.970600 1.593500
5.987200 1.587600
6.003800 1.581100
6.020400 1.573800
6.037000 1.565700
6.053600 1.557400
6.070200 1.549500
6.086800 1.562100
6.103400 1.559800
6.120000 1.553900
6.136600 1.548000
6.153300 1.542100
6.169900 1.536000
6.186500 1.531300
6.203100 1.526500
6.219700 1.520100
6.236300 1.513900
6.252900 1.507800
6.269500 1.501900
6.286100 1.496100
6.302700 1.490300
6.319300 1.484500
6.335900 1.483700
6.352500 1.476900
6.369100 1.471500
6.385700 1.466200
6.402300 1.461000
6.418900 1.456000
6.435500 1.479800
6.452100 1.486600
6.468700 1.492100
6.485300 1.419200
6.501900 1.417400
6.518500 1.415700
6.535100 1.414100
6.551700 1.412900
6.568300 1.411900
6.584900 1.411100
6.601500 1.410400
6.618100 1.410000
6.634700 1.410400
6.651300 1.411100
6.667900 1.412300
6.684500 1.413500
6.701100 1.414300
6.717700 1.414600
6.734300 1.414700
6.750900 1.427700
6.767500 1.433300
6.784100 1.428500
6.800700 1.423400
6.817300 1.418300
6.833900 1.413500
6.850500 1.408500
6.867100 1.403300
6.883700 1.399400
6.900300 1.455200
6.916900 1.414600
6.933500 1.403400
6.950200 1.406600
6.966800 1.408400
6.983400 1.409400
7.000000 1.409800
7.016600 1.409500
7.033200 1.403200
7.049800 1.382100
7.066400 1.355500
7.083000 1.319800
7.099600 1.282100
7.116200 1.278900
7.132800 1.276400
7.149400 1.273900
7.166000 1.271400
7.182600 1.268800
7.199200 1.266200
7.215800 1.263700
7.232400 1.261500
7.249000 1.259600
7.265600 1.257600
7.282200 1.255400
7.298800 1.253700
7.315400 1.252300
7.332000 1.287800
7.348600 1.289100
7.365200 1.290100
7.381800 1.290800
7.398400 1.291100
7.415000 1.290800
7.431600 1.290600
7.448200 1.289800
7.464800 1.289100
7.481400 1.292400
7.498000 1.300000
7.514600 1.306600
7.531200 1.318800
7.547800 1.332400
7.564400 1.346300
7.581000 1.360100
7.597600 1.373700
7.614200 1.387000
7.630800 1.429600
7.647400 1.422200
7.664000 1.413300
7.680600 1.404700
7.697200 1.404600
7.713800 1.416800
7.730500 1.430700
7.747100 1.454400
7.763700 1.465200
7.780300 1.477900
7.796900 1.498400
7.813500 1.591100
7.830100 1.612900
7.846700 1.581800
7.863300 1.516900
7.879900 1.468500
7.896500 1.439400
7.913100 1.411600
7.929700 1.389600
7.946300 1.371200
7.962900 1.353100
7.979500 1.335300
7.996100 1.319600
8.012700 1.304000
8.029300 1.288500
8.045900 1.244100
8.062500 1.224400
8.079100 1.210500
8.095700 1.196800
8.112300 1.229800
8.128900 1.216700
8.145500 1.200900
8.162100 1.186300
8.178700 1.169400
8.195300 1.175700
8.211900 1.165500
8.228500 1.163000
8.245100 1.181800
8.261700 1.175400
8.278300 1.170500
8.294900 1.172200
8.311500 1.169500
8.328100 1.167600
8.344700 1.166500
8.361300 1.166400
8.377900 1.170800
8.394500 1.175400
8.411100 1.178200
8.427700 1.174100
8.444300 1.170600
8.460900 1.168500
8.477500 1.172500
8.494100 1.183600
8.510700 1.201900
8.527400 1.226400
8.544000 1.252300
8.560600 1.285000
8.577200 1.349000
8.593800 1.361800
8.610400 1.358200
8.627000 1.338100
8.643600 1.234800
8.660200 1.115800
8.676800 1.076600
8.693400 1.094700
8.710000 1.187100
8.726600 1.186700
8.743200 1.187200
8.759800 1.174400
8.776400 1.167100
8.793000 1.157600
8.809600 1.144300
8.826200 1.038500
8.842800 1.020700
8.859400 1.014300
8.876000 1.015300
8.892600 1.016800
8.909200 1.020300
8.925800 1.026700
8.942400 1.033700
8.959000 1.040900
8.975600 1.047600
8.992200 1.055700
9.008800 1.066000
9.025400 1.076300
9.042000 1.089900
9.058600 1.114400
9.075200 1.149900
9.091800 1.148400
9.108400 1.178600
9.125000 1.227200
9.141600 1.350300
9.158200 1.414600
9.174800 1.477900
9.191400 1.539200
9.208000 1.562800
9.224600 1.652900
9.241200 1.724400
9.257800 1.753600
9.274400 1.809400
9.291000 1.869700
9.307600 1.934900
9.324300 2.016900
9.340900 2.104700
9.357500 2.177600
9.374100 2.261200
9.390700 2.376400
9.407300 2.551600
9.423900 2.658700
9.440500 2.783300
9.457100 2.851800
9.473700 2.895200
9.490300 2.855200
9.506900 2.805000
9.523500 2.765000
9.540100 2.710800
9.556700 2.650300
9.573300 2.601500
9.589900 2.571400
9.606500 2.513000
9.623100 2.456500
9.639700 2.385900
9.656300 2.302000
9.672900 2.219600
9.689500 2.137800
9.706100 2.112100
9.722700 2.008100
9.739300 1.913300
9.755900 1.830600
9.772500 1.784200
9.789100 1.746100
9.805700 1.713500
9.822300 1.686100
9.838900 1.641200
9.855500 1.613900
9.872100 1.589200
9.888700 1.567100
9.905300 1.530900
9.921900 1.511900
9.938500 1.504000
9.955100 1.565700
9.971700 1.484200
9.988300 1.415900
10.004900 1.315800
10.021500 1.243200
10.038100 1.218600
10.054700 1.217100
10.071300 1.220000
10.087900 1.218200
10.104500 1.251200
10.121200 1.301400
10.137800 1.370200
10.154400 1.403500
10.171000 1.434700
10.187600 1.467200
10.204200 1.512800
10.220800 1.573300
10.237400 1.636600
10.254000 1.643300
10.270600 1.662700
10.287200 1.657600
10.303800 1.688900
10.320400 1.719100
10.337000 1.714800
10.353600 1.729700
10.370200 1.746100
10.386800 1.764000
10.403400 1.782800
10.420000 1.792500
10.436600 1.832200
10.453200 1.883400
10.469800 1.938700
10.486400 1.998300
10.503000 2.006800
10.519600 2.007500
10.536200 2.013000
10.552800 2.020500
10.569400 2.073600
10.586000 2.112600
10.602600 2.160000
10.619200 2.212500
10.635800 2.267700
10.652400 2.310000
10.669000 2.371300
10.685600 2.514300
10.702200 2.318100
10.718800 2.301500
10.735400 2.303500
10.752000 2.301200
10.768600 2.294900
10.785200 2.285800
10.801800 2.271900
10.818400 2.254500
10.835000 2.250900
10.851600 2.252000
10.868200 2.266300
10.884800 2.246800
10.901400 2.282300
10.918100 2.280500
10.934700 2.268200
10.951300 2.239300
10.967900 2.203000
10.984500 2.161000
11.001100 2.122800
11.017700 2.087500
11.034300 2.055800
11.050900 2.034900
11.067500 2.020000
11.084100 1.965800
11.100700 1.998300
11.117300 1.957200
11.133900 1.920000
11.150500 1.903600
11.167100 1.918200
11.183700 1.924000
11.200300 1.866600
11.216900 1.845000
11.233500 1.824800
11.250100 1.816900
11.266700 1.812500
11.283300 1.811000
11.299900 1.815800
11.316500 1.821600
11.333100 1.826200
11.349700 1.827500
11.366300 1.819100
11.382900 1.814400
11.399500 1.816400
11.416100 1.840200
11.432700 1.861500
11.449300 1.932600
11.465900 2.012700
11.482500 2.097700
11.499100 2.190700
11.515700 2.100500
11.532300 2.082300
11.548900 2.088100
11.565500 2.404100
11.582100 2.240300
11.598700 2.109300
11.615300 2.124000
11.631900 2.088300
11.648500 2.175200
11.665100 2.160100
11.681700 2.101300
11.698400 2.028300
11.715000 1.972700
11.731600 1.953800
11.748200 2.001300
11.764800 2.068100
11.781400 2.125900
11.798000 2.155400
11.814600 2.177300
11.831200 2.195400
11.847800 2.214500
11.864400 2.333500
11.881000 2.187600
11.897600 2.200700
