set title 'mp-782 - Density of States'
set xlabel 'Energy (eV)'
set ylabel 'DOS (states/eV)'
set grid
set xrange [-10:10]
set yrange [0:10.462]
set xzeroaxis lt -1
set terminal png size 800,600
set output 'mp-782_dos_gnuplot.png'
plot '-' using 1:2 with lines title 'DOS'
-7.745400 0.000000
-7.731100 0.000000
-7.716900 0.000000
-7.702700 0.000000
-7.688500 0.000000
-7.674200 0.000000
-7.660000 0.000000
-7.645800 0.000000
-7.631600 0.000000
-7.617300 0.000000
-7.603100 0.000000
-7.588900 0.000000
-7.574700 0.000000
-7.560400 0.000000
-7.546200 0.000000
-7.532000 0.000000
-7.517800 0.000000
-7.503500 0.000000
-7.489300 0.000000
-7.475100 0.000000
-7.460800 0.000000
-7.446600 0.000000
-7.432400 0.000000
-7.418200 0.000000
-7.403900 0.000000
-7.389700 0.000000
-7.375500 0.000000
-7.361300 0.000000
-7.347000 0.000000
-7.332800 0.000000
-7.318600 0.000000
-7.304400 0.000000
-7.290100 0.000000
-7.275900 0.000000
-7.261700 0.000000
-7.247500 0.000000
-7.233200 0.000000
-7.219000 0.000000
-7.204800 0.000000
-7.190600 0.000000
-7.176300 0.000000
-7.162100 0.000000
-7.147900 0.000000
-7.133600 0.000000
-7.119400 0.000000
-7.105200 0.000000
-7.091000 0.000000
-7.076700 0.000000
-7.062500 0.000000
-7.048300 0.000000
-7.034100 0.000000
-7.019800 0.000000
-7.005600 0.000000
-6.991400 0.000000
-6.977200 0.000000
-6.962900 0.000000
-6.948700 0.000000
-6.934500 0.000000
-6.920300 0.000000
-6.906000 0.000000
-6.891800 0.000000
-6.877600 0.000000
-6.863400 0.000000
-6.849100 0.000000
-6.834900 0.000000
-6.820700 0.000000
-6.806400 0.000000
-6.792200 0.000000
-6.778000 0.000000
-6.763800 0.000000
-6.749500 0.000000
-6.735300 0.000000
-6.721100 0.000000
-6.706900 0.000000
-6.692600 0.000000
-6.678400 0.000000
-6.664200 0.000000
-6.650000 0.000000
-6.635700 0.000000
-6.621500 0.000000
-6.607300 0.000000
-6.593100 0.000000
-6.578800 0.000000
-6.564600 0.000000
-6.550400 0.000000
-6.536100 0.000000
-6.521900 0.000000
-6.507700 0.000000
-6.493500 0.000000
-6.479200 0.000000
-6.465000 0.000000
-6.450800 0.000200
-6.436600 0.021900
-6.422300 0.080500
-6.408100 0.138100
-6.393900 0.157600
-6.379700 0.163600
-6.365400 0.187900
-6.351200 0.213200
-6.337000 0.238600
-6.322800 0.259100
-6.308500 0.272300
-6.294300 0.280700
-6.280100 0.290400
-6.265900 0.305200
-6.251600 0.320000
-6.237400 0.334900
-6.223200 0.349600
-6.208900 0.364500
-6.194700 0.377000
-6.180500 0.388200
-6.166300 0.400100
-6.152000 0.413000
-6.137800 0.424000
-6.123600 0.432700
-6.109400 0.443300
-6.095100 0.454200
-6.080900 0.464900
-6.066700 0.476500
-6.052500 0.488400
-6.038200 0.500600
-6.024000 0.512700
-6.009800 0.523400
-5.995600 0.533000
-5.981300 0.543100
-5.967100 0.554000
-5.952900 0.565000
-5.938600 0.575900
-5.924400 0.586700
-5.910200 0.597100
-5.896000 0.606900
-5.881700 0.617700
-5.867500 0.628700
-5.853300 0.639700
-5.839100 0.650800
-5.824800 0.661900
-5.810600 0.673200
-5.796400 0.683600
-5.782200 0.693800
-5.767900 0.704200
-5.753700 0.714900
-5.739500 0.726000
-5.725300 0.737600
-5.711000 0.749400
-5.696800 0.761300
-5.682600 0.773500
-5.668400 0.785800
-5.654100 0.798200
-5.639900 0.810800
-5.625700 0.823900
-5.611400 0.837000
-5.597200 0.850100
-5.583000 0.863300
-5.568800 0.876700
-5.554500 0.891400
-5.540300 0.906000
-5.526100 0.920700
-5.511900 0.935500
-5.497600 0.950500
-5.483400 0.965600
-5.469200 0.981000
-5.455000 0.996400
-5.440700 1.011900
-5.426500 1.027500
-5.412300 1.043200
-5.398100 1.059000
-5.383800 1.074400
-5.369600 1.085500
-5.355400 1.093000
-5.341200 1.103900
-5.326900 1.114300
-5.312700 1.124600
-5.298500 1.134600
-5.284200 1.146200
-5.270000 1.158800
-5.255800 1.172100
-5.241600 1.185700
-5.227300 1.199600
-5.213100 1.216000
-5.198900 1.242900
-5.184700 1.267900
-5.170400 1.296400
-5.156200 1.327500
-5.142000 1.359000
-5.127800 1.391300
-5.113500 1.425000
-5.099300 1.459700
-5.085100 1.495300
-5.070900 1.531300
-5.056600 1.568000
-5.042400 1.606400
-5.028200 1.650400
-5.013900 1.700400
-4.999700 1.752100
-4.985500 1.809600
-4.971300 1.874500
-4.957000 1.947800
-4.942800 2.028800
-4.928600 2.119500
-4.914400 2.419800
-4.900100 2.442800
-4.885900 2.370800
-4.871700 2.368000
-4.857500 2.352100
-4.843200 2.342700
-4.829000 2.345900
-4.814800 2.415200
-4.800600 2.463000
-4.786300 2.469500
-4.772100 2.482800
-4.757900 2.490900
-4.743700 2.495000
-4.729400 2.510100
-4.715200 2.529500
-4.701000 2.630300
-4.686700 2.822300
-4.672500 2.764600
-4.658300 2.277400
-4.644100 2.244900
-4.629800 2.055100
-4.615600 1.997700
-4.601400 1.979600
-4.587200 1.852800
-4.572900 1.736500
-4.558700 1.624200
-4.544500 1.585200
-4.530300 1.544300
-4.516000 1.499000
-4.501800 1.456900
-4.487600 1.439200
-4.473400 1.433900
-4.459100 1.429200
-4.444900 1.419400
-4.430700 1.385600
-4.416400 1.547200
-4.402200 2.232800
-4.388000 2.702100
-4.373800 4.430400
-4.359500 4.608600
-4.345300 4.775500
-4.331100 4.954900
-4.316900 4.765000
-4.302600 5.088100
-4.288400 5.244600
-4.274200 4.315200
-4.260000 3.622600
-4.245700 3.254400
-4.231500 3.019900
-4.217300 2.834300
-4.203100 2.663500
-4.188800 2.503700
-4.174600 2.352700
-4.160400 2.234500
-4.146200 2.127400
-4.131900 2.023800
-4.117700 1.927700
-4.103500 1.846800
-4.089200 1.790500
-4.075000 1.742400
-4.060800 1.685900
-4.046600 1.629900
-4.032300 1.576400
-4.018100 1.523300
-4.003900 1.463100
-3.989700 1.406100
-3.975400 1.351100
-3.961200 1.296600
-3.947000 1.246100
-3.932800 1.200300
-3.918500 1.160400
-3.904300 1.125900
-3.890100 1.091600
-3.875900 1.056700
-3.861600 1.020100
-3.847400 0.985600
-3.833200 0.948100
-3.819000 0.922100
-3.804700 0.895800
-3.790500 0.869400
-3.776300 0.843200
-3.762000 0.817400
-3.747800 0.792800
-3.733600 0.769200
-3.719400 0.746000
-3.705100 0.715000
-3.690900 0.684100
-3.676700 0.653600
-3.662500 0.622700
-3.648200 0.592800
-3.634000 0.565000
-3.619800 0.539300
-3.605600 0.517200
-3.591300 0.494900
-3.577100 0.472300
-3.562900 0.448000
-3.548700 0.421400
-3.534400 0.401400
-3.520200 0.383700
-3.506000 0.364800
-3.491700 0.345300
-3.477500 0.327000
-3.463300 0.307300
-3.449100 0.291200
-3.434800 0.255800
-3.420600 0.214200
-3.406400 0.174900
-3.392200 0.135000
-3.377900 0.095800
-3.363700 0.060900
-3.349500 0.024500
-3.335300 0.000100
-3.321000 0.000000
-3.306800 0.000000
-3.292600 0.000000
-3.278400 0.000000
-3.264100 0.000000
-3.249900 0.000000
-3.235700 0.000000
-3.221500 0.000000
-3.207200 0.000000
-3.193000 0.000000
-3.178800 0.000000
-3.164500 0.000000
-3.150300 0.000000
-3.136100 0.000000
-3.121900 0.000000
-3.107600 0.000000
-3.093400 0.000000
-3.079200 0.000000
-3.065000 0.000000
-3.050700 0.000000
-3.036500 0.000000
-3.022300 0.000000
-3.008100 0.000000
-2.993800 0.000000
-2.979600 0.000000
-2.965400 0.000000
-2.951200 0.000000
-2.936900 0.000000
-2.922700 0.000000
-2.908500 0.000000
-2.894200 0.000000
-2.880000 0.000000
-2.865800 0.000000
-2.851600 0.000000
-2.837300 0.000000
-2.823100 0.000000
-2.808900 0.000000
-2.794700 0.000000
-2.780400 0.000000
-2.766200 0.000000
-2.752000 0.000000
-2.737800 0.000000
-2.723500 0.000000
-2.709300 0.000000
-2.695100 0.000000
-2.680900 0.000000
-2.666600 0.000000
-2.652400 0.000000
-2.638200 0.000000
-2.624000 0.000000
-2.609700 0.000000
-2.595500 0.000000
-2.581300 0.000000
-2.567000 0.000000
-2.552800 0.000000
-2.538600 0.000000
-2.524400 0.000000
-2.510100 0.000000
-2.495900 0.000000
-2.481700 0.000000
-2.467500 0.000000
-2.453200 0.000000
-2.439000 0.000000
-2.424800 0.000000
-2.410600 0.000000
-2.396300 0.000000
-2.382100 0.000000
-2.367900 0.000000
-2.353700 0.000000
-2.339400 0.000000
-2.325200 0.000000
-2.311000 0.000000
-2.296800 0.000000
-2.282500 0.000000
-2.268300 0.000000
-2.254100 0.000000
-2.239800 0.000000
-2.225600 0.000000
-2.211400 0.000000
-2.197200 0.000000
-2.182900 0.000000
-2.168700 0.000000
-2.154500 0.000000
-2.140300 0.000000
-2.126000 0.000000
-2.111800 0.000000
-2.097600 0.000000
-2.083400 0.000000
-2.069100 0.000000
-2.054900 0.000000
-2.040700 0.000000
-2.026500 0.000000
-2.012200 0.000000
-1.998000 0.000000
-1.983800 0.000000
-1.969500 0.000000
-1.955300 0.000000
-1.941100 0.000000
-1.926900 0.000000
-1.912600 0.000000
-1.898400 0.000000
-1.884200 0.000000
-1.870000 0.000000
-1.855700 0.000000
-1.841500 0.000000
-1.827300 0.000000
-1.813100 0.000000
-1.798800 0.000000
-1.784600 0.000000
-1.770400 0.000000
-1.756200 0.000000
-1.741900 0.000000
-1.727700 0.000000
-1.713500 0.000000
-1.699300 0.000000
-1.685000 0.000000
-1.670800 0.000000
-1.656600 0.000000
-1.642300 0.000000
-1.628100 0.000000
-1.613900 0.000000
-1.599700 0.000000
-1.585400 0.000000
-1.571200 0.000000
-1.557000 0.000000
-1.542800 0.000000
-1.528500 0.000000
-1.514300 0.000000
-1.500100 0.000000
-1.485900 0.000000
-1.471600 0.000000
-1.457400 0.000000
-1.443200 0.000000
-1.429000 0.000000
-1.414700 0.000000
-1.400500 0.000000
-1.386300 0.000000
-1.372000 0.000000
-1.357800 0.000000
-1.343600 0.000000
-1.329400 0.000000
-1.315100 0.000000
-1.300900 0.000000
-1.286700 0.000000
-1.272500 0.000000
-1.258200 0.000000
-1.244000 0.000000
-1.229800 0.000000
-1.215600 0.000000
-1.201300 0.000000
-1.187100 0.000000
-1.172900 0.000000
-1.158700 0.000000
-1.144400 0.000000
-1.130200 0.000000
-1.116000 0.000000
-1.101800 0.000000
-1.087500 0.000000
-1.073300 0.000000
-1.059100 0.000000
-1.044800 0.000000
-1.030600 0.000000
-1.016400 0.000000
-1.002200 0.000000
-0.987900 0.000000
-0.973700 0.000000
-0.959500 0.000000
-0.945300 0.000000
-0.931000 0.000000
-0.916800 0.000000
-0.902600 0.000000
-0.888400 0.000000
-0.874100 0.000000
-0.859900 0.000000
-0.845700 0.000000
-0.831500 0.000000
-0.817200 0.000000
-0.803000 0.000000
-0.788800 0.000000
-0.774600 0.000000
-0.760300 0.000000
-0.746100 0.000000
-0.731900 0.000000
-0.717600 0.000000
-0.703400 0.000000
-0.689200 0.000000
-0.675000 0.000000
-0.660700 0.000000
-0.646500 0.000000
-0.632300 0.000000
-0.618100 0.000000
-0.603800 0.000000
-0.589600 0.000000
-0.575400 0.000000
-0.561200 0.000000
-0.546900 0.000000
-0.532700 0.000000
-0.518500 0.000000
-0.504300 0.000000
-0.490000 0.000000
-0.475800 0.000000
-0.461600 0.000000
-0.447300 0.000000
-0.433100 0.000000
-0.418900 0.000000
-0.404700 0.000000
-0.390400 0.000000
-0.376200 0.000000
-0.362000 0.000000
-0.347800 0.000000
-0.333500 0.000000
-0.319300 0.000000
-0.305100 0.000000
-0.290900 0.000000
-0.276600 0.000000
-0.262400 0.000000
-0.248200 0.000000
-0.234000 0.000000
-0.219700 0.000000
-0.205500 0.000000
-0.191300 0.000000
-0.177100 0.000000
-0.162800 0.000000
-0.148600 0.000000
-0.134400 0.000000
-0.120100 0.000000
-0.105900 0.000000
-0.091700 0.000000
-0.077500 0.000000
-0.063200 0.000000
-0.049000 0.000000
-0.034800 0.000000
-0.020600 0.000000
-0.006300 0.000000
0.007900 0.000000
0.022100 0.000000
0.036300 0.000000
0.050600 0.000000
0.064800 0.000000
0.079000 0.000000
0.093200 0.000000
0.107500 0.000000
0.121700 0.000000
0.135900 0.000000
0.150200 0.000000
0.164400 0.000000
0.178600 0.000000
0.192800 0.000000
0.207100 0.000000
0.221300 0.000000
0.235500 0.000000
0.249700 0.000000
0.264000 0.000000
0.278200 0.000000
0.292400 0.000000
0.306600 0.000000
0.320900 0.000000
0.335100 0.000000
0.349300 0.000000
0.363500 0.000000
0.377800 0.000000
0.392000 0.000000
0.406200 0.000000
0.420400 0.000000
0.434700 0.000000
0.448900 0.000000
0.463100 0.000000
0.477400 0.000000
0.491600 0.000000
0.505800 0.000000
0.520000 0.000000
0.534300 0.000000
0.548500 0.000000
0.562700 0.000000
0.576900 0.000000
0.591200 0.000000
0.605400 0.000000
0.619600 0.000000
0.633800 0.000000
0.648100 0.000000
0.662300 0.000000
0.676500 0.000000
0.690700 0.000000
0.705000 0.000000
0.719200 0.000000
0.733400 0.005900
0.747600 0.052200
0.761900 0.151500
0.776100 0.338800
0.790300 0.336800
0.804600 0.379500
0.818800 0.429900
0.833000 0.461100
0.847200 0.488900
0.861500 0.531200
0.875700 0.573900
0.889900 0.615500
0.904100 0.649400
0.918400 0.678700
0.932600 0.709500
0.946800 0.739500
0.961000 0.768500
0.975300 0.802500
0.989500 0.840400
1.003700 0.884700
1.017900 0.936400
1.032200 0.988500
1.046400 1.040900
1.060600 1.092000
1.074900 1.147200
1.089100 1.210800
1.103300 1.282300
1.117500 1.358900
1.131800 1.430400
1.146000 1.504600
1.160200 1.582000
1.174400 1.660800
1.188700 1.740800
1.202900 1.825400
1.217100 1.921700
1.231300 2.027700
1.245600 2.154200
1.259800 2.333400
1.274000 2.652000
1.288200 2.976000
1.302500 3.346500
1.316700 3.599000
1.330900 3.571400
1.345100 3.854600
1.359400 3.955300
1.373600 4.461700
1.387800 5.021700
1.402100 4.761100
1.416300 4.829100
1.430500 5.050900
1.444700 5.206500
1.459000 5.206300
1.473200 5.032400
1.487400 4.715700
1.501600 4.483400
1.515900 4.262700
1.530100 4.270200
1.544300 4.263300
1.558500 4.038800
1.572800 3.692400
1.587000 3.470700
1.601200 3.255300
1.615400 3.093600
1.629700 2.962000
1.643900 2.860500
1.658100 2.759100
1.672400 2.665900
1.686600 2.577100
1.700800 2.498900
1.715000 2.430900
1.729300 2.368900
1.743500 2.313600
1.757700 2.264900
1.771900 2.223200
1.786200 2.185100
1.800400 2.149200
1.814600 2.115900
1.828800 2.109500
1.843100 2.099900
1.857300 2.088300
1.871500 2.041200
1.885700 1.952400
1.900000 1.906300
1.914200 1.868700
1.928400 1.862600
1.942600 1.870300
1.956900 2.195800
1.971100 2.610600
1.985300 2.764000
1.999600 2.942700
2.013800 3.120100
2.028000 3.348400
2.042200 3.595000
2.056500 4.032900
2.070700 4.428100
2.084900 4.797100
2.099100 5.166600
2.113400 5.819300
2.127600 6.090200
2.141800 5.278000
2.156000 4.788300
2.170300 4.506700
2.184500 4.333000
2.198700 4.363300
2.212900 4.476400
2.227200 4.713600
2.241400 5.205100
2.255600 5.227500
2.269800 5.139100
2.284100 4.894200
2.298300 4.862300
2.312500 4.880000
2.326800 4.934500
2.341000 5.074900
2.355200 5.319100
2.369400 5.463300
2.383700 5.261200
2.397900 5.149700
2.412100 5.027100
2.426300 4.878900
2.440600 4.682700
2.454800 4.425800
2.469000 4.288800
2.483200 4.199300
2.497500 4.111200
2.511700 4.079900
2.525900 3.776200
2.540100 3.643400
2.554400 3.576800
2.568600 3.543000
2.582800 3.524900
2.597100 3.510700
2.611300 3.466300
2.625500 3.326200
2.639700 3.010900
2.654000 2.657400
2.668200 2.456400
2.682400 2.234900
2.696600 1.959000
2.710900 1.854100
2.725100 1.436300
2.739300 1.231700
2.753500 1.082500
2.767800 1.038200
2.782000 1.085100
2.796200 1.140200
2.810400 1.275300
2.824700 1.525900
2.838900 1.690400
2.853100 1.901900
2.867300 2.164800
2.881600 2.573400
2.895800 3.050600
2.910000 3.230600
2.924300 3.285200
2.938500 3.377800
2.952700 3.449500
2.966900 3.472700
2.981200 3.469800
2.995400 3.563500
3.009600 3.594700
3.023800 3.632200
3.038100 3.628400
3.052300 3.581600
3.066500 3.500800
3.080700 4.138900
3.095000 4.451900
3.109200 4.553400
3.123400 4.688000
3.137600 4.800000
3.151900 4.904900
3.166100 5.053100
3.180300 5.310600
3.194600 5.830600
3.208800 5.949800
3.223000 6.374500
3.237200 6.925100
3.251500 7.403800
3.265700 7.707300
3.279900 7.599600
3.294100 7.366600
3.308400 7.235800
3.322600 7.204100
3.336800 7.344000
3.351000 7.991000
3.365300 8.942900
3.379500 8.961600
3.393700 8.918900
3.407900 9.301300
3.422200 8.821800
3.436400 7.721400
3.450600 6.849000
3.464800 6.506000
3.479100 6.348500
3.493300 5.431800
3.507500 4.295500
3.521800 2.466900
3.536000 2.108700
3.550200 1.891600
3.564400 1.738000
3.578700 1.673000
3.592900 1.599800
3.607100 1.473800
3.621300 1.441700
3.635600 1.616300
3.649800 2.774600
3.664000 2.940100
3.678200 3.211300
3.692500 2.498900
3.706700 2.486500
3.720900 2.834500
3.735100 5.596100
3.749400 6.576200
3.763600 9.511300
3.777800 8.323700
3.792000 6.624400
3.806300 5.761600
3.820500 5.500900
3.834700 5.554100
3.849000 5.543300
3.863200 5.243500
3.877400 4.974400
3.891600 5.009700
3.905900 5.064800
3.920100 5.102300
3.934300 5.117300
3.948500 5.038300
3.962800 5.043600
3.977000 5.091800
3.991200 5.033400
4.005400 4.729500
4.019700 4.344300
4.033900 4.129200
4.048100 4.031600
4.062300 3.939400
4.076600 3.934500
4.090800 3.951200
4.105000 3.969000
4.119300 3.919500
4.133500 3.792400
4.147700 3.610600
4.161900 3.445500
4.176200 3.335800
4.190400 3.281600
4.204600 3.273700
4.218800 3.284900
4.233100 3.334400
4.247300 3.472100
4.261500 3.664600
4.275700 3.717100
4.290000 3.739900
4.304200 3.765200
4.318400 3.698400
4.332600 3.490600
4.346900 3.490200
4.361100 3.473300
4.375300 3.360400
4.389500 3.352300
4.403800 3.349900
4.418000 3.347000
4.432200 3.345400
4.446500 3.365900
4.460700 3.404100
4.474900 3.448200
4.489100 3.453200
4.503400 3.451500
4.517600 3.576000
4.531800 3.392200
4.546000 3.257000
4.560300 3.143800
4.574500 3.099100
4.588700 3.050500
4.602900 3.000200
4.617200 2.962900
4.631400 2.942300
4.645600 2.927800
4.659800 2.901600
4.674100 2.868500
4.688300 2.816600
4.702500 2.773300
4.716800 2.739200
4.731000 2.717100
4.745200 2.701500
4.759400 2.687500
4.773700 2.676300
4.787900 2.657300
4.802100 2.645500
4.816300 2.636700
4.830600 2.629200
4.844800 2.617200
4.859000 2.610000
4.873200 2.598800
4.887500 2.589600
4.901700 2.579600
4.915900 2.567200
4.930100 2.544100
4.944400 2.499100
4.958600 2.464600
4.972800 2.434900
4.987000 2.406500
5.001300 2.377000
5.015500 2.335600
5.029700 2.298200
5.044000 2.265700
5.058200 2.239900
5.072400 2.216100
5.086600 2.193900
5.100900 2.181800
5.115100 2.169100
5.129300 2.158300
5.143500 2.155900
5.157800 2.162700
5.172000 2.171800
5.186200 2.182800
5.200400 2.216700
5.214700 2.288000
5.228900 2.354200
5.243100 2.409800
5.257300 2.460100
5.271600 2.485500
5.285800 2.462300
5.300000 2.463500
5.314200 2.456500
5.328500 2.441500
5.342700 2.439300
5.356900 2.435900
5.371200 2.430500
5.385400 2.425200
5.399600 2.412300
5.413800 2.384400
5.428100 2.375200
5.442300 2.473200
5.456500 2.340000
5.470700 2.303700
5.485000 2.288000
5.499200 2.269200
5.513400 2.218500
5.527600 2.157600
5.541900 2.103900
5.556100 2.059500
5.570300 2.022400
5.584500 1.991300
5.598800 1.971300
5.613000 1.959700
5.627200 1.948700
5.641500 1.942300
5.655700 1.946500
5.669900 1.935700
5.684100 1.890100
5.698400 1.835800
5.712600 1.802100
5.726800 1.766100
5.741000 1.731300
5.755300 1.698900
5.769500 1.671800
5.783700 1.654000
5.797900 1.642400
5.812200 1.636800
5.826400 1.640200
5.840600 1.654400
5.854800 1.677600
5.869100 1.720000
5.883300 1.760700
5.897500 1.770300
5.911700 1.736200
5.926000 1.674000
5.940200 1.646600
5.954400 1.619600
5.968700 1.596400
5.982900 1.579700
5.997100 1.571300
6.011300 1.573100
6.025600 1.571800
6.039800 1.533000
6.054000 1.515200
6.068200 1.513000
6.082500 1.479800
6.096700 1.454800
6.110900 1.434600
6.125100 1.408000
6.139400 1.369500
6.153600 1.329100
6.167800 1.286100
6.182000 1.250600
6.196300 1.233000
6.210500 1.215400
6.224700 1.194700
6.239000 1.176800
6.253200 1.162200
6.267400 1.149600
6.281600 1.138600
6.295900 1.130200
6.310100 1.130500
6.324300 1.141900
6.338500 1.171500
6.352800 1.217300
6.367000 1.206400
6.381200 1.153500
6.395400 1.107600
6.409700 1.084300
6.423900 1.090800
6.438100 1.136500
6.452300 1.167000
6.466600 1.160300
6.480800 1.132800
6.495000 1.097300
6.509200 1.056700
6.523500 1.021700
6.537700 1.002200
6.551900 0.986400
6.566200 0.988000
6.580400 0.990100
6.594600 0.997500
6.608800 0.994600
6.623100 0.982800
6.637300 0.986500
6.651500 0.999000
6.665700 1.019600
6.680000 1.047400
6.694200 1.082600
6.708400 1.131400
6.722600 1.200400
6.736900 1.298100
6.751100 1.389100
6.765300 1.470500
6.779500 1.542500
6.793800 1.618200
6.808000 1.676900
6.822200 1.814200
6.836500 1.758400
6.850700 1.761400
6.864900 1.760900
6.879100 1.759700
6.893400 1.767600
6.907600 1.776300
6.921800 1.791400
6.936000 1.807000
6.950300 1.821100
6.964500 1.834800
6.978700 1.848600
6.992900 1.861700
7.007200 1.872600
7.021400 1.884600
7.035600 1.893900
7.049800 1.900300
7.064100 1.916200
7.078300 1.944200
7.092500 1.949000
7.106700 1.960700
7.121000 1.963100
7.135200 1.978100
7.149400 2.008600
7.163700 1.996500
7.177900 1.998900
7.192100 2.011000
7.206300 2.025600
7.220600 2.037200
7.234800 2.051100
7.249000 2.061700
7.263200 2.067000
7.277500 2.052900
7.291700 2.007500
7.305900 1.944200
7.320100 1.882200
7.334400 1.811700
7.348600 1.731500
7.362800 1.672700
7.377000 1.630000
7.391300 1.591700
