set title 'mp-985280 - Density of States'
set xlabel 'Energy (eV)'
set ylabel 'DOS (states/eV)'
set grid
set xrange [-10:10]
set yrange [0:24.876]
set xzeroaxis lt -1
set terminal png size 800,600
set output 'mp-985280_dos_gnuplot.png'
plot '-' using 1:2 with lines title 'DOS'
-8.378500 0.000000
-8.353600 0.000000
-8.328800 0.000000
-8.304000 0.000000
-8.279100 0.000000
-8.254300 0.000000
-8.229500 0.000000
-8.204600 0.000000
-8.179800 0.000000
-8.155000 0.000000
-8.130100 0.000000
-8.105300 0.000000
-8.080500 0.000000
-8.055600 0.000000
-8.030800 0.000000
-8.006000 0.000000
-7.981100 0.000000
-7.956300 0.000000
-7.931500 0.000000
-7.906600 0.000000
-7.881800 0.000000
-7.857000 0.000000
-7.832100 0.000000
-7.807300 0.000000
-7.782500 0.000000
-7.757600 0.000000
-7.732800 0.000000
-7.708000 0.000000
-7.683100 0.000000
-7.658300 0.000000
-7.633500 0.000000
-7.608600 0.000000
-7.583800 0.000000
-7.559000 0.000000
-7.534100 0.000000
-7.509300 0.000000
-7.484500 0.000000
-7.459600 0.000000
-7.434800 0.000000
-7.410000 0.000000
-7.385100 0.000000
-7.360300 0.000000
-7.335500 0.000000
-7.310600 0.000000
-7.285800 0.000000
-7.261000 0.000000
-7.236100 0.000000
-7.211300 0.000000
-7.186500 0.000000
-7.161600 0.000000
-7.136800 0.000000
-7.112000 0.000000
-7.087100 0.000000
-7.062300 0.000000
-7.037400 0.000000
-7.012600 0.000000
-6.987800 0.000000
-6.962900 0.000000
-6.938100 0.000000
-6.913300 0.000000
-6.888400 0.000000
-6.863600 0.000000
-6.838800 0.000000
-6.813900 0.000000
-6.789100 0.000000
-6.764300 0.000000
-6.739400 0.000000
-6.714600 0.000000
-6.689800 0.000000
-6.664900 0.000000
-6.640100 0.000000
-6.615300 0.000000
-6.590400 0.000000
-6.565600 0.000000
-6.540800 0.000000
-6.515900 0.000000
-6.491100 0.000000
-6.466300 0.000000
-6.441400 0.000000
-6.416600 0.000000
-6.391800 0.000000
-6.366900 0.000000
-6.342100 0.000000
-6.317300 0.000000
-6.292400 0.000000
-6.267600 0.000000
-6.242800 0.000000
-6.217900 0.000000
-6.193100 0.000000
-6.168300 0.000000
-6.143400 0.000000
-6.118600 0.000200
-6.093800 0.027500
-6.068900 0.095200
-6.044100 0.137100
-6.019300 0.154200
-5.994400 0.177300
-5.969600 0.197800
-5.944800 0.222900
-5.919900 0.250000
-5.895100 0.270000
-5.870300 0.279900
-5.845400 0.299100
-5.820600 0.315900
-5.795800 0.331800
-5.770900 0.347800
-5.746100 0.365400
-5.721200 0.383900
-5.696400 0.404300
-5.671600 0.424400
-5.646700 0.441200
-5.621900 0.456900
-5.597100 0.472700
-5.572200 0.490600
-5.547400 0.508600
-5.522600 0.526700
-5.497700 0.546200
-5.472900 0.566500
-5.448100 0.587900
-5.423200 0.611400
-5.398400 0.636300
-5.373600 0.661700
-5.348700 0.687000
-5.323900 0.713000
-5.299100 0.739700
-5.274200 0.768000
-5.249400 0.799000
-5.224600 0.832300
-5.199700 0.877600
-5.174900 0.938000
-5.150100 1.021100
-5.125200 1.067400
-5.100400 1.090200
-5.075600 1.095900
-5.050700 1.128000
-5.025900 1.158300
-5.001100 1.176900
-4.976200 1.203700
-4.951400 1.241000
-4.926600 1.279100
-4.901700 1.318400
-4.876900 1.358300
-4.852100 1.400200
-4.827200 1.446900
-4.802400 1.503400
-4.777600 1.570700
-4.752700 1.681100
-4.727900 1.819900
-4.703100 2.029200
-4.678200 2.394000
-4.653400 2.499900
-4.628600 2.497900
-4.603700 2.540100
-4.578900 2.010200
-4.554100 1.820300
-4.529200 1.689400
-4.504400 1.567300
-4.479600 1.485800
-4.454700 1.430800
-4.429900 1.364700
-4.405100 1.297000
-4.380200 1.233800
-4.355400 1.183100
-4.330500 1.147900
-4.305700 1.126500
-4.280900 1.096800
-4.256000 1.070000
-4.231200 1.041000
-4.206400 0.995700
-4.181500 0.945100
-4.156700 0.919100
-4.131900 0.948300
-4.107000 1.016000
-4.082200 0.834300
-4.057400 0.691200
-4.032500 0.240100
-4.007700 0.000000
-3.982900 0.000000
-3.958000 0.000000
-3.933200 0.000000
-3.908400 0.000000
-3.883500 0.000000
-3.858700 0.000000
-3.833900 0.000000
-3.809000 0.000000
-3.784200 0.000000
-3.759400 0.000000
-3.734500 0.000000
-3.709700 0.000000
-3.684900 0.000000
-3.660000 0.000000
-3.635200 0.000000
-3.610400 0.000000
-3.585500 0.000000
-3.560700 0.000000
-3.535900 0.000000
-3.511000 0.000000
-3.486200 0.000000
-3.461400 0.000000
-3.436500 0.000000
-3.411700 0.000000
-3.386900 0.000000
-3.362000 0.000000
-3.337200 0.000000
-3.312400 0.000000
-3.287500 0.000000
-3.262700 0.000000
-3.237900 0.000000
-3.213000 0.000000
-3.188200 0.000000
-3.163400 0.000000
-3.138500 0.000000
-3.113700 0.000000
-3.088900 0.000000
-3.064000 0.000000
-3.039200 0.000000
-3.014400 0.000000
-2.989500 0.000000
-2.964700 0.000000
-2.939800 0.000000
-2.915000 0.000000
-2.890200 0.000000
-2.865300 0.000000
-2.840500 0.000000
-2.815700 0.000000
-2.790800 0.000000
-2.766000 0.000000
-2.741200 0.000000
-2.716300 0.000000
-2.691500 0.000000
-2.666700 0.000000
-2.641800 0.000000
-2.617000 0.000000
-2.592200 0.000000
-2.567300 0.000000
-2.542500 0.000000
-2.517700 0.000000
-2.492800 0.000000
-2.468000 0.000000
-2.443200 0.000000
-2.418300 0.000000
-2.393500 0.000000
-2.368700 0.000000
-2.343800 0.000000
-2.319000 0.000000
-2.294200 0.000000
-2.269300 0.000000
-2.244500 0.000000
-2.219700 0.000000
-2.194800 0.000000
-2.170000 0.000000
-2.145200 0.000000
-2.120300 0.000000
-2.095500 0.000000
-2.070700 0.000000
-2.045800 0.000000
-2.021000 0.000000
-1.996200 0.000000
-1.971300 0.000000
-1.946500 0.000000
-1.921700 0.000000
-1.896800 0.000000
-1.872000 0.000000
-1.847200 0.000000
-1.822300 0.000000
-1.797500 0.000000
-1.772700 0.000000
-1.747800 0.000000
-1.723000 0.000000
-1.698200 0.000000
-1.673300 0.000000
-1.648500 0.000000
-1.623700 0.000000
-1.598800 0.000000
-1.574000 0.000000
-1.549100 0.000000
-1.524300 0.000000
-1.499500 0.000000
-1.474600 0.000000
-1.449800 0.000000
-1.425000 0.000000
-1.400100 0.000000
-1.375300 0.000000
-1.350500 0.000000
-1.325600 0.000000
-1.300800 0.000000
-1.276000 0.000000
-1.251100 0.000000
-1.226300 0.000000
-1.201500 0.000000
-1.176600 0.000000
-1.151800 0.000000
-1.127000 0.000000
-1.102100 0.000000
-1.077300 0.000000
-1.052500 0.000000
-1.027600 0.000000
-1.002800 0.000000
-0.978000 0.000000
-0.953100 0.000000
-0.928300 0.000000
-0.903500 0.000000
-0.878600 0.000000
-0.853800 0.000000
-0.829000 0.000000
-0.804100 0.000000
-0.779300 0.000000
-0.754500 0.000000
-0.729600 0.000000
-0.704800 0.000000
-0.680000 0.000000
-0.655100 0.000000
-0.630300 0.000000
-0.605500 0.000000
-0.580600 0.000000
-0.555800 0.000000
-0.531000 0.000000
-0.506100 0.000000
-0.481300 0.000000
-0.456500 0.000000
-0.431600 0.000000
-0.406800 0.000000
-0.382000 0.000000
-0.357100 0.000000
-0.332300 0.000000
-0.307500 0.000000
-0.282600 0.000000
-0.257800 0.000000
-0.233000 0.000000
-0.208100 0.000000
-0.183300 0.000000
-0.158400 0.000000
-0.133600 0.000000
-0.108800 0.000000
-0.083900 0.000000
-0.059100 0.000000
-0.034300 0.000000
-0.009400 0.000000
0.015400 0.000000
0.040200 0.000000
0.065100 0.000000
0.089900 0.000000
0.114700 0.000000
0.139600 0.000000
0.164400 0.000000
0.189200 0.000000
0.214100 0.040800
0.238900 0.048400
0.263700 0.064700
0.288600 0.077500
0.313400 0.244800
0.338200 0.318900
0.363100 0.380000
0.387900 0.430100
0.412700 0.483800
0.437600 0.507500
0.462400 0.562500
0.487200 0.623300
0.512100 0.687900
0.536900 0.756500
0.561700 0.809300
0.586600 0.923400
0.611400 0.996800
0.636200 1.038700
0.661100 1.064900
0.685900 1.093700
0.710700 1.095300
0.735600 1.129900
0.760400 1.165800
0.785200 1.191100
0.810100 1.220500
0.834900 1.257800
0.859700 1.301500
0.884600 1.352600
0.909400 1.401200
0.934200 1.452700
0.959100 1.547500
0.983900 1.627000
1.008700 1.637600
1.033600 1.538100
1.058400 1.516400
1.083200 1.507000
1.108100 1.514100
1.132900 1.558300
1.157700 1.718400
1.182600 1.856800
1.207400 2.192500
1.232300 2.251600
1.257100 2.132600
1.281900 1.908500
1.306800 1.846700
1.331600 1.763800
1.356400 1.720000
1.381300 1.675300
1.406100 1.651400
1.430900 1.584700
1.455800 1.516700
1.480600 1.536600
1.505400 1.352700
1.530300 1.237900
1.555100 1.146300
1.579900 1.055200
1.604800 0.962600
1.629600 0.884400
1.654400 0.828400
1.679300 0.775100
1.704100 0.671500
1.728900 0.645400
1.753800 0.632500
1.778600 0.627600
1.803400 0.625100
1.828300 0.624200
1.853100 0.643400
1.877900 0.674700
1.902800 0.708400
1.927600 0.739700
1.952400 0.772600
1.977300 0.856000
2.002100 0.906400
2.026900 0.966700
2.051800 1.031100
2.076600 1.050200
2.101400 1.085400
2.126300 1.123400
2.151100 1.164100
2.175900 1.165000
2.200800 1.160900
2.225600 1.174200
2.250400 1.184900
2.275300 1.193300
2.300100 1.206300
2.324900 1.221700
2.349800 1.240100
2.374600 1.258100
2.399400 1.275900
2.424300 1.310700
2.449100 1.337000
2.473900 1.346200
2.498800 1.358200
2.523600 1.386200
2.548400 1.415800
2.573300 1.446000
2.598100 1.475500
2.623000 1.504100
2.647800 1.535900
2.672600 1.579100
2.697500 1.634500
2.722300 1.701500
2.747100 1.778800
2.772000 1.877900
2.796800 2.076500
2.821600 2.178800
2.846500 2.109100
2.871300 2.117500
2.896100 2.190500
2.921000 2.190300
2.945800 2.154000
2.970600 2.049900
2.995500 2.013000
3.020300 2.010300
3.045100 2.002400
3.070000 2.012700
3.094800 2.040200
3.119600 2.123800
3.144500 2.343300
3.169300 2.530500
3.194100 2.700400
3.219000 2.695200
3.243800 2.741400
3.268600 2.811700
3.293500 2.868500
3.318300 2.913600
3.343100 2.941000
3.368000 2.965900
3.392800 3.002500
3.417600 3.017800
3.442500 3.032600
3.467300 3.208300
3.492100 3.275600
3.517000 2.834300
3.541800 2.456700
3.566600 2.093100
3.591500 1.930900
3.616300 1.844900
3.641100 1.841900
3.666000 1.858800
3.690800 1.882500
3.715600 2.318900
3.740500 3.003900
3.765300 3.134500
3.790100 2.874900
3.815000 2.631800
3.839800 2.308600
3.864600 2.035200
3.889500 1.827600
3.914300 1.601500
3.939100 1.408500
3.964000 1.294400
3.988800 1.152400
4.013700 1.055000
4.038500 0.956600
4.063300 0.884400
4.088200 0.832400
4.113000 0.863700
4.137800 1.153800
4.162700 1.111700
4.187500 1.113800
4.212300 1.122200
4.237200 1.134600
4.262000 1.139200
4.286800 1.118700
4.311700 1.199400
4.336500 1.218600
4.361300 1.318800
4.386200 1.476500
4.411000 1.733600
4.435800 2.115300
4.460700 2.653300
4.485500 3.076900
4.510300 3.544500
4.535200 4.316800
4.560000 5.511500
4.584800 6.833600
4.609700 12.585500
4.634500 9.227600
4.659300 5.796300
4.684200 5.120000
4.709000 4.747700
4.733800 4.718300
4.758700 4.100600
4.783500 2.086400
4.808300 2.168000
4.833200 3.987700
4.858000 6.955500
4.882800 5.821900
4.907700 8.493900
4.932500 9.825100
4.957300 9.140700
4.982200 11.664000
5.007000 10.615900
5.031800 10.478600
5.056700 10.936400
5.081500 9.296900
5.106300 8.640300
5.131200 7.995000
5.156000 8.324700
5.180800 8.397100
5.205700 7.567000
5.230500 5.685400
5.255300 3.870200
5.280200 3.415100
5.305000 4.450200
5.329900 9.012600
5.354700 7.954900
5.379500 7.589400
5.404400 6.553000
5.429200 6.506800
5.454000 6.248900
5.478900 7.419300
5.503700 7.751800
5.528500 11.858100
5.553400 10.997300
5.578200 13.292200
5.603000 12.873300
5.627900 13.637200
5.652700 12.575200
5.677500 11.292400
5.702400 9.493400
5.727200 8.012300
5.752000 7.400400
5.776900 7.510500
5.801700 6.594100
5.826500 6.283700
5.851400 6.374700
5.876200 6.824700
5.901000 6.420700
5.925900 6.690700
5.950700 7.940500
5.975500 9.107600
6.000400 10.455500
6.025200 10.107500
6.050000 9.901300
6.074900 6.287500
6.099700 4.618800
6.124500 4.407300
6.149400 4.543700
6.174200 4.367000
6.199000 5.236100
6.223900 6.007000
6.248700 6.164000
6.273500 10.111200
6.298400 11.665600
6.323200 9.534000
6.348000 9.722300
6.372900 9.853300
6.397700 10.217900
6.422500 8.696100
6.447400 9.080600
6.472200 12.441400
6.497000 16.918100
6.521900 17.755800
6.546700 22.614100
6.571500 20.376500
6.596400 16.014600
6.621200 15.138300
6.646000 15.529300
6.670900 11.628900
6.695700 10.948400
6.720600 14.422800
6.745400 13.215800
6.770200 11.091900
6.795100 10.080600
6.819900 9.134000
6.844700 7.597200
6.869600 6.321700
6.894400 5.629200
6.919200 6.299300
6.944100 6.626800
6.968900 5.575400
6.993700 4.768700
7.018600 3.591800
7.043400 1.331000
7.068200 2.697100
7.093100 2.937400
7.117900 5.010000
7.142700 9.398200
7.167600 10.363300
7.192400 10.994000
7.217200 14.433100
7.242100 12.848000
7.266900 12.176000
7.291700 12.159200
7.316600 15.149100
7.341400 12.756800
7.366200 9.003000
7.391100 6.923800
7.415900 6.092400
7.440700 5.302000
7.465600 4.369400
7.490400 4.049100
7.515200 4.095700
7.540100 4.147500
7.564900 3.346000
7.589700 3.312900
7.614600 3.331800
7.639400 3.370600
7.664200 3.322400
7.689100 3.310000
7.713900 3.321700
7.738700 3.336800
7.763600 3.454100
7.788400 3.437300
7.813200 3.348100
7.838100 3.181600
7.862900 3.058400
7.887700 3.755100
7.912600 5.271000
7.937400 4.233700
7.962200 3.553700
7.987100 3.410000
8.011900 3.009200
8.036700 2.803000
8.061600 2.700300
8.086400 2.630900
8.111300 2.664400
8.136100 2.628900
8.160900 2.538300
8.185800 2.474200
8.210600 2.408700
8.235400 2.316100
8.260300 2.208300
8.285100 2.003200
8.309900 1.825600
8.334800 1.701400
8.359600 1.622000
8.384400 1.561800
8.409300 1.484200
8.434100 1.410000
8.458900 1.373300
8.483800 1.347600
8.508600 1.337800
8.533400 1.269100
8.558300 1.240700
8.583100 1.209800
8.607900 1.177200
8.632800 1.141800
8.657600 1.145500
8.682400 1.007900
8.707300 0.966500
8.732100 0.931200
8.756900 0.909600
8.781800 0.911700
8.806600 0.933000
8.831400 0.961100
8.856300 1.010100
8.881100 1.076900
8.905900 1.161000
8.930800 1.242800
8.955600 1.331200
8.980400 1.464800
9.005300 1.621100
9.030100 1.723100
9.054900 1.796100
9.079800 1.798700
9.104600 1.847300
9.129400 1.919700
9.154300 2.007800
9.179100 2.023100
9.203900 2.037200
9.228800 2.002900
9.253600 1.983000
9.278400 1.932900
9.303300 1.885100
9.328100 1.813000
9.352900 1.709000
9.377800 1.612500
9.402600 1.539800
9.427400 1.478300
9.452300 1.425300
9.477100 1.390800
9.502000 1.345900
9.526800 1.255300
9.551600 1.226000
9.576500 1.204400
9.601300 1.180500
9.626100 1.162400
9.651000 1.150800
9.675800 1.125600
9.700600 1.121800
9.725500 1.118100
9.750300 1.099700
9.775100 1.064500
9.800000 1.056800
9.824800 1.041300
9.849600 1.053100
9.874500 1.062400
9.899300 1.071500
9.924100 1.080200
9.949000 1.086800
9.973800 1.090500
9.998600 1.093000
10.023500 1.095700
10.048300 1.097100
10.073100 1.079400
10.098000 1.094400
10.122800 1.068800
10.147600 1.035000
10.172500 1.021500
10.197300 1.021500
10.222100 1.022800
10.247000 1.017000
10.271800 0.982900
10.296600 0.933600
10.321500 0.895000
10.346300 0.858200
10.371100 0.824800
10.396000 0.794500
10.420800 0.772500
10.445600 0.755800
10.470500 0.741300
10.495300 0.715600
10.520100 0.694100
10.545000 0.673800
10.569800 0.655200
10.594600 0.639000
10.619500 0.626500
10.644300 0.615700
10.669100 0.603600
10.694000 0.591200
10.718800 0.584700
10.743600 0.581500
10.768500 0.580800
10.793300 0.619600
10.818100 0.727600
10.843000 0.893300
10.867800 1.135600
10.892700 1.434300
10.917500 1.632300
10.942300 1.445300
10.967200 1.339100
10.992000 1.282400
11.016800 1.295700
11.041700 1.316400
11.066500 1.326800
11.091300 1.349000
11.116200 1.347300
11.141000 1.317900
11.165800 1.278700
11.190700 1.238000
11.215500 1.258000
11.240300 1.263400
11.265200 1.276900
11.290000 1.293600
11.314800 1.308000
11.339700 1.319200
11.364500 1.374900
11.389300 1.397600
11.414200 1.399400
11.439000 1.400900
11.463800 1.402500
11.488700 1.397500
11.513500 1.402900
11.538300 1.397600
11.563200 1.399400
11.588000 1.404600
11.612800 1.415400
11.637700 1.414800
11.662500 1.415200
11.687300 1.417900
11.712200 1.474600
11.737000 1.588300
11.761800 1.586300
11.786700 1.588500
11.811500 1.576600
11.836300 1.549500
11.861200 1.534000
11.886000 1.513100
11.910800 1.500000
11.935700 1.485900
11.960500 1.480100
11.985300 1.476700
12.010200 1.474400
12.035000 1.473400
12.059800 1.473800
12.084700 1.477800
12.109500 1.484100
12.134300 1.492100
12.159200 1.480700
12.184000 1.477100
12.208800 1.457700
12.233700 1.418200
12.258500 1.383500
12.283400 1.352000
12.308200 1.321500
12.333000 1.298300
12.357900 1.286600
12.382700 1.262900
12.407500 1.257000
12.432400 1.230700
12.457200 1.211600
12.482000 1.194000
12.506900 1.179500
12.531700 1.173900
12.556500 1.150500
12.581400 1.119400
12.606200 1.099500
12.631000 1.123200
12.655900 1.148600
12.680700 1.143800
12.705500 1.147000
12.730400 1.149900
12.755200 1.152600
12.780000 1.156400
12.804900 1.161600
12.829700 1.170700
12.854500 1.355300
12.879400 1.337100
12.904200 1.342700
12.929000 1.346900
12.953900 1.353500
12.978700 1.355500
13.003500 1.355300
13.028400 1.360000
13.053200 1.374000
13.078000 1.389200
13.102900 1.403500
13.127700 1.417700
13.152500 1.428700
13.177400 1.442100
13.202200 1.457600
13.227000 1.463900
13.251900 1.467300
13.276700 1.464900
13.301500 1.463500
13.326400 1.469800
13.351200 1.488300
13.376000 1.488800
13.400900 1.504500
13.425700 1.502400
13.450500 1.486900
13.475400 1.476200
13.500200 1.473500
13.525000 1.476200
13.549900 1.482600
13.574700 1.492200
13.599500 1.503800
13.624400 1.523700
13.649200 1.547000
13.674100 1.575900
13.698900 1.610000
13.723700 1.647200
13.748600 1.726100
13.773400 1.808500
13.798200 1.869900
13.823100 1.924600
13.847900 1.963400
13.872700 2.039700
13.897600 2.031000
13.922400 1.981000
13.947200 1.904700
13.972100 1.829800
13.996900 1.728500
14.021700 1.669500
14.046600 1.622700
14.071400 1.599600
14.096200 1.574800
14.121100 1.551200
14.145900 1.524200
14.170700 1.495600
14.195600 1.482300
14.220400 1.488000
14.245200 1.462900
14.270100 1.463900
14.294900 1.458600
14.319700 1.452900
14.344600 1.472100
14.369400 1.497200
14.394200 1.527000
14.419100 1.590400
14.443900 1.606400
14.468700 1.622500
14.493600 1.655300
14.518400 1.660900
14.543200 1.665100
14.568100 1.669600
14.592900 1.677600
14.617700 1.696100
14.642600 1.736000
14.667400 1.773900
14.692200 1.810600
14.717100 1.854300
14.741900 1.906100
14.766700 1.950500
14.791600 1.999500
14.816400 2.083400
14.841200 2.142400
14.866100 2.164300
14.890900 2.148600
14.915700 2.134500
14.940600 2.133300
14.965400 2.061400
14.990200 2.008600
15.015100 1.960600
15.039900 1.920300
15.064800 1.887200
15.089600 1.978900
15.114400 2.127500
15.139300 2.207800
15.164100 2.064300
15.188900 1.914700
15.213800 1.789500
15.238600 1.672300
15.263400 1.578800
15.288300 1.621500
15.313100 1.552300
15.337900 1.531700
15.362800 1.514000
15.387600 1.512000
15.412400 1.513900
15.437300 1.521200
15.462100 1.551300
15.486900 1.665800
15.511800 1.697000
15.536600 1.618300
15.561400 1.531800
15.586300 1.500200
15.611100 1.493800
15.635900 1.507900
15.660800 1.532000
15.685600 1.570800
15.710400 1.626100
15.735300 1.685500
15.760100 1.751500
15.784900 1.771400
15.809800 1.804900
15.834600 1.836800
15.859400 1.890700
15.884300 1.910400
15.909100 1.908000
15.933900 1.912600
15.958800 1.943500
15.983600 1.958600
16.008400 1.970700
16.033300 2.025400
16.058100 2.097300
16.082900 2.065900
16.107800 2.063300
16.132600 2.035500
16.157400 2.006200
16.182300 2.010400
16.207100 1.992900
16.231900 1.970300
16.256800 1.933500
16.281600 1.938200
16.306400 1.859500
16.331300 1.847300
16.356100 1.834300
16.380900 1.832600
16.405800 1.863900
16.430600 1.953700
16.455500 1.897600
16.480300 1.710700
16.505100 1.662000
16.530000 1.632000
16.554800 1.591300
16.579600 1.607900
16.604500 1.640100
16.629300 1.689100
16.654100 1.749600
16.679000 1.824100
16.703800 1.920800
16.728600 2.143800
16.753500 2.268900
16.778300 2.288300
16.803100 2.393400
16.828000 2.548000
16.852800 2.593700
16.877600 2.481800
16.902500 2.364100
16.927300 2.256000
16.952100 2.161000
16.977000 2.089600
17.001800 2.030300
17.026600 1.997500
17.051500 1.966000
17.076300 1.952300
17.101100 1.938900
17.126000 1.935600
17.150800 1.915800
17.175600 1.914600
17.200500 1.932900
17.225300 1.963300
17.250100 2.070100
17.275000 2.102500
17.299800 2.021500
17.324600 1.935400
17.349500 1.935800
17.374300 1.932800
17.399100 1.975200
17.424000 2.014100
17.448800 2.049900
17.473600 2.084800
17.498500 2.119200
17.523300 2.157300
17.548100 2.219300
17.573000 2.218900
17.597800 2.200500
17.622600 2.167600
17.647500 2.126800
17.672300 2.075400
17.697100 2.038700
17.722000 2.027800
17.746800 2.027400
17.771700 2.038100
17.796500 2.055700
17.821300 2.072700
17.846200 2.077000
