set title 'mp-971767 - Density of States'
set xlabel 'Energy (eV)'
set ylabel 'DOS (states/eV)'
set grid
set xrange [-10:10]
set yrange [0:39.255]
set xzeroaxis lt -1
set terminal png size 800,600
set output 'mp-971767_dos_gnuplot.png'
plot '-' using 1:2 with lines title 'DOS'
-7.961600 0.000000
-7.944600 0.000000
-7.927600 0.000000
-7.910500 0.000000
-7.893500 0.000000
-7.876500 0.000000
-7.859500 0.000000
-7.842400 0.000000
-7.825400 0.000000
-7.808400 0.000000
-7.791300 0.000000
-7.774300 0.000000
-7.757300 0.000000
-7.740300 0.000000
-7.723200 0.000000
-7.706200 0.000000
-7.689200 0.000000
-7.672200 0.000000
-7.655100 0.000000
-7.638100 0.000000
-7.621100 0.000000
-7.604000 0.000000
-7.587000 0.000000
-7.570000 0.000000
-7.553000 0.000000
-7.535900 0.000000
-7.518900 0.000000
-7.501900 0.000000
-7.484900 0.000000
-7.467800 0.000000
-7.450800 0.000000
-7.433800 0.000000
-7.416700 0.000000
-7.399700 0.000000
-7.382700 0.000000
-7.365700 0.000000
-7.348600 0.000000
-7.331600 0.000000
-7.314600 0.000000
-7.297500 0.000000
-7.280500 0.000000
-7.263500 0.000000
-7.246500 0.000000
-7.229400 0.000000
-7.212400 0.000000
-7.195400 0.000000
-7.178400 0.000000
-7.161300 0.000000
-7.144300 0.000000
-7.127300 0.000000
-7.110200 0.000000
-7.093200 0.000000
-7.076200 0.000000
-7.059200 0.000000
-7.042100 0.000000
-7.025100 0.000000
-7.008100 0.000000
-6.991100 0.000000
-6.974000 0.000000
-6.957000 0.000000
-6.940000 0.000000
-6.922900 0.000000
-6.905900 0.000000
-6.888900 0.000000
-6.871900 0.000000
-6.854800 0.000000
-6.837800 0.000000
-6.820800 0.000000
-6.803800 0.000000
-6.786700 0.000000
-6.769700 0.000000
-6.752700 0.000000
-6.735600 0.000000
-6.718600 0.000000
-6.701600 0.000000
-6.684600 0.000000
-6.667500 0.000000
-6.650500 0.000000
-6.633500 0.000000
-6.616500 0.000000
-6.599400 0.000000
-6.582400 0.000000
-6.565400 0.000000
-6.548300 0.000000
-6.531300 0.000100
-6.514300 0.000400
-6.497300 0.001600
-6.480200 0.004900
-6.463200 0.012000
-6.446200 0.023600
-6.429100 0.037600
-6.412100 0.050500
-6.395100 0.061100
-6.378100 0.073700
-6.361000 0.094900
-6.344000 0.127900
-6.327000 0.172100
-6.310000 0.225500
-6.292900 0.282300
-6.275900 0.328700
-6.258900 0.346800
-6.241800 0.325500
-6.224800 0.268900
-6.207800 0.197100
-6.190800 0.141400
-6.173700 0.131300
-6.156700 0.179300
-6.139700 0.271100
-6.122700 0.368900
-6.105600 0.433600
-6.088600 0.449700
-6.071600 0.430000
-6.054500 0.398600
-6.037500 0.378200
-6.020500 0.388000
-6.003500 0.442900
-5.986400 0.542600
-5.969400 0.657200
-5.952400 0.731500
-5.935400 0.721900
-5.918300 0.638100
-5.901300 0.542800
-5.884300 0.504700
-5.867200 0.549800
-5.850200 0.647600
-5.833200 0.734100
-5.816200 0.759600
-5.799100 0.726800
-5.782100 0.683200
-5.765100 0.678800
-5.748100 0.746900
-5.731000 0.918800
-5.714000 1.237000
-5.697000 1.742900
-5.679900 2.466700
-5.662900 3.429300
-5.645900 4.630300
-5.628900 6.003500
-5.611800 7.378200
-5.594800 8.512000
-5.577800 9.214800
-5.560700 9.484100
-5.543700 9.527300
-5.526700 9.633300
-5.509700 9.990500
-5.492600 10.602200
-5.475600 11.345300
-5.458600 12.091100
-5.441600 12.798200
-5.424500 13.550000
-5.407500 14.511000
-5.390500 15.787400
-5.373400 17.309600
-5.356400 18.886800
-5.339400 20.344000
-5.322400 21.517100
-5.305300 22.179800
-5.288300 22.189100
-5.271300 21.774100
-5.254300 21.513600
-5.237200 21.895200
-5.220200 22.918700
-5.203200 24.133400
-5.186100 25.004000
-5.169100 25.271700
-5.152100 25.076600
-5.135100 24.779000
-5.118000 24.649400
-5.101000 24.749200
-5.084000 25.109800
-5.067000 25.914300
-5.049900 27.362300
-5.032900 29.353800
-5.015900 31.391900
-4.998800 32.829800
-4.981800 33.203600
-4.964800 32.371600
-4.947800 30.469200
-4.930700 27.848700
-4.913700 25.032000
-4.896700 22.575900
-4.879700 20.916100
-4.862600 20.344100
-4.845600 21.034200
-4.828600 22.932300
-4.811500 25.623300
-4.794500 28.449100
-4.777500 30.833400
-4.760500 32.527500
-4.743400 33.638700
-4.726400 34.468400
-4.709400 35.205900
-4.692400 35.686800
-4.675300 35.521300
-4.658300 34.510000
-4.641300 32.856900
-4.624200 30.944600
-4.607200 28.995300
-4.590200 27.019700
-4.573200 25.038000
-4.556100 23.236600
-4.539100 21.863300
-4.522100 21.033900
-4.505000 20.735900
-4.488000 21.012700
-4.471000 22.035800
-4.454000 23.884700
-4.436900 26.249100
-4.419900 28.447000
-4.402900 29.841000
-4.385900 30.251300
-4.368800 29.949000
-4.351800 29.334200
-4.334800 28.695300
-4.317700 28.159100
-4.300700 27.663500
-4.283700 26.958400
-4.266700 25.795900
-4.249600 24.207400
-4.232600 22.538200
-4.215600 21.176500
-4.198600 20.288700
-4.181500 19.804500
-4.164500 19.555400
-4.147500 19.398800
-4.130400 19.291700
-4.113400 19.289800
-4.096400 19.467900
-4.079400 19.871200
-4.062300 20.522600
-4.045300 21.329700
-4.028300 21.922900
-4.011300 21.744600
-3.994200 20.451400
-3.977200 18.215300
-3.960200 15.585100
-3.943100 13.085500
-3.926100 10.968400
-3.909100 9.262100
-3.892100 7.937700
-3.875000 6.986300
-3.858000 6.370900
-3.841000 5.964900
-3.824000 5.584800
-3.806900 5.101000
-3.789900 4.517800
-3.772900 3.939900
-3.755800 3.454600
-3.738800 3.042300
-3.721800 2.612600
-3.704800 2.127700
-3.687700 1.668900
-3.670700 1.369900
-3.653700 1.308900
-3.636600 1.473100
-3.619600 1.782700
-3.602600 2.109100
-3.585600 2.312800
-3.568500 2.330200
-3.551500 2.217600
-3.534500 2.066900
-3.517500 1.903200
-3.500400 1.720800
-3.483400 1.586200
-3.466400 1.609200
-3.449300 1.795300
-3.432300 1.985700
-3.415300 1.981600
-3.398300 1.715900
-3.381200 1.297900
-3.364200 0.914400
-3.347200 0.699800
-3.330200 0.669300
-3.313100 0.736000
-3.296100 0.786500
-3.279100 0.764800
-3.262000 0.704400
-3.245000 0.678400
-3.228000 0.722900
-3.211000 0.815800
-3.193900 0.917500
-3.176900 1.001500
-3.159900 1.045800
-3.142900 1.030800
-3.125800 0.957100
-3.108800 0.846000
-3.091800 0.726900
-3.074700 0.638800
-3.057700 0.630400
-3.040700 0.729200
-3.023700 0.903800
-3.006600 1.068100
-2.989600 1.132800
-2.972600 1.060600
-2.955600 0.887700
-2.938500 0.699000
-2.921500 0.574200
-2.904500 0.540800
-2.887400 0.567400
-2.870400 0.603100
-2.853400 0.629600
-2.836400 0.672100
-2.819300 0.762200
-2.802300 0.902500
-2.785300 1.070500
-2.768200 1.240600
-2.751200 1.391900
-2.734200 1.506900
-2.717200 1.568200
-2.700100 1.556800
-2.683100 1.466100
-2.666100 1.336100
-2.649100 1.254300
-2.632000 1.292800
-2.615000 1.434400
-2.598000 1.574800
-2.580900 1.606800
-2.563900 1.501900
-2.546900 1.315200
-2.529900 1.121800
-2.512800 0.959500
-2.495800 0.823300
-2.478800 0.693800
-2.461800 0.557000
-2.444700 0.415200
-2.427700 0.293200
-2.410700 0.229700
-2.393600 0.251600
-2.376600 0.351700
-2.359600 0.492100
-2.342600 0.625800
-2.325500 0.714700
-2.308500 0.733600
-2.291500 0.679800
-2.274500 0.590200
-2.257400 0.536600
-2.240400 0.594400
-2.223400 0.810100
-2.206300 1.172600
-2.189300 1.589900
-2.172300 1.910000
-2.155300 2.005500
-2.138200 1.857200
-2.121200 1.562900
-2.104200 1.279100
-2.087200 1.136100
-2.070100 1.161900
-2.053100 1.267900
-2.036100 1.334400
-2.019000 1.316500
-2.002000 1.245400
-1.985000 1.148100
-1.968000 1.020200
-1.950900 0.881800
-1.933900 0.805100
-1.916900 0.852400
-1.899800 1.003100
-1.882800 1.162100
-1.865800 1.237300
-1.848800 1.203000
-1.831700 1.096400
-1.814700 0.974600
-1.797700 0.881100
-1.780700 0.838900
-1.763600 0.849000
-1.746600 0.894800
-1.729600 0.957000
-1.712500 1.018700
-1.695500 1.048300
-1.678500 0.999400
-1.661500 0.853100
-1.644400 0.647300
-1.627400 0.447100
-1.610400 0.294100
-1.593400 0.196200
-1.576300 0.154700
-1.559300 0.184500
-1.542300 0.308100
-1.525200 0.534100
-1.508200 0.845100
-1.491200 1.199500
-1.474200 1.541900
-1.457100 1.819400
-1.440100 2.010900
-1.423100 2.141800
-1.406100 2.240000
-1.389000 2.270200
-1.372000 2.151200
-1.355000 1.862600
-1.337900 1.504500
-1.320900 1.226300
-1.303900 1.108500
-1.286900 1.119700
-1.269800 1.160800
-1.252800 1.137300
-1.235800 1.010800
-1.218800 0.809500
-1.201700 0.602200
-1.184700 0.465400
-1.167700 0.457900
-1.150600 0.599300
-1.133600 0.859100
-1.116600 1.170500
-1.099600 1.458800
-1.082500 1.661700
-1.065500 1.747300
-1.048500 1.733200
-1.031400 1.672900
-1.014400 1.604200
-0.997400 1.520200
-0.980400 1.406400
-0.963300 1.281100
-0.946300 1.172900
-0.929300 1.075200
-0.912300 0.958600
-0.895200 0.823900
-0.878200 0.715600
-0.861200 0.676200
-0.844100 0.698400
-0.827100 0.736000
-0.810100 0.761000
-0.793100 0.793000
-0.776000 0.862300
-0.759000 0.955600
-0.742000 1.029300
-0.725000 1.086200
-0.707900 1.209000
-0.690900 1.476400
-0.673900 1.845800
-0.656800 2.154800
-0.639800 2.260900
-0.622800 2.164700
-0.605800 1.976700
-0.588700 1.786500
-0.571700 1.602000
-0.554700 1.405200
-0.537700 1.212900
-0.520600 1.055000
-0.503600 0.924600
-0.486600 0.789000
-0.469500 0.639900
-0.452500 0.505600
-0.435500 0.414100
-0.418500 0.364300
-0.401400 0.340400
-0.384400 0.342500
-0.367400 0.395100
-0.350400 0.527000
-0.333300 0.747900
-0.316300 1.038500
-0.299300 1.357000
-0.282200 1.648700
-0.265200 1.860700
-0.248200 1.963100
-0.231200 1.968200
-0.214100 1.923400
-0.197100 1.874900
-0.180100 1.836900
-0.163000 1.800600
-0.146000 1.764900
-0.129000 1.747000
-0.112000 1.760400
-0.094900 1.784800
-0.077900 1.773000
-0.060900 1.697900
-0.043900 1.589100
-0.026800 1.514500
-0.009800 1.533500
0.007200 1.653300
0.024300 1.810600
0.041300 1.905100
0.058300 1.878000
0.075300 1.761500
0.092400 1.653200
0.109400 1.641000
0.126400 1.731500
0.143400 1.832400
0.160500 1.822300
0.177500 1.651900
0.194500 1.373800
0.211600 1.081700
0.228600 0.848900
0.245600 0.708200
0.262600 0.647800
0.279700 0.624100
0.296700 0.611300
0.313700 0.646000
0.330700 0.798700
0.347800 1.082300
0.364800 1.399900
0.381800 1.611300
0.398900 1.666300
0.415900 1.649000
0.432900 1.683700
0.449900 1.822200
0.467000 2.024600
0.484000 2.200700
0.501000 2.257200
0.518000 2.143300
0.535100 1.891500
0.552100 1.610700
0.569100 1.415100
0.586200 1.339100
0.603200 1.320800
0.620200 1.276400
0.637200 1.192400
0.654300 1.145000
0.671300 1.233100
0.688300 1.479600
0.705300 1.784600
0.722400 1.984400
0.739400 1.981800
0.756400 1.832100
0.773500 1.687300
0.790500 1.648400
0.807500 1.681600
0.824500 1.686300
0.841600 1.627600
0.858600 1.573500
0.875600 1.597200
0.892700 1.668700
0.909700 1.672800
0.926700 1.536300
0.943700 1.316400
0.960800 1.153200
0.977800 1.145800
0.994800 1.282600
1.011800 1.473700
1.028900 1.629800
1.045900 1.715300
1.062900 1.748500
1.080000 1.769500
1.097000 1.813900
1.114000 1.896100
1.131000 1.992100
1.148100 2.039100
1.165100 1.978700
1.182100 1.811100
1.199100 1.599000
1.216200 1.417800
1.233200 1.310700
1.250200 1.287800
1.267300 1.341600
1.284300 1.445300
1.301300 1.541900
1.318300 1.564000
1.335400 1.479600
1.352400 1.326400
1.369400 1.194000
1.386400 1.159400
1.403500 1.220700
1.420500 1.292600
1.437500 1.279400
1.454600 1.161600
1.471600 1.007100
1.488600 0.904100
1.505600 0.891700
1.522700 0.949900
1.539700 1.041900
1.556700 1.164500
1.573700 1.352000
1.590800 1.619000
1.607800 1.901700
1.624800 2.073700
1.641900 2.024600
1.658900 1.736500
1.675900 1.309100
1.692900 0.915700
1.710000 0.713300
1.727000 0.773200
1.744000 1.074900
1.761100 1.535300
1.778100 2.024100
1.795100 2.390700
1.812100 2.533400
1.829200 2.461300
1.846200 2.268900
1.863200 2.050800
1.880200 1.850800
1.897300 1.678800
1.914300 1.543200
1.931300 1.453200
1.948400 1.396500
1.965400 1.332500
1.982400 1.219400
1.999400 1.051300
2.016500 0.864800
2.033500 0.709400
2.050500 0.616900
2.067500 0.593200
2.084600 0.626600
2.101600 0.691500
2.118600 0.750100
2.135700 0.763100
2.152700 0.705900
2.169700 0.583600
2.186700 0.435800
2.203800 0.319800
2.220800 0.275200
2.237800 0.300800
2.254800 0.365700
2.271900 0.439600
2.288900 0.507200
2.305900 0.565000
2.323000 0.626400
2.340000 0.731400
2.357000 0.926200
2.374000 1.204400
2.391100 1.478000
2.408100 1.634500
2.425100 1.634700
2.442100 1.541900
2.459200 1.458500
2.476200 1.448100
2.493200 1.507300
2.510300 1.580100
2.527300 1.595400
2.544300 1.514400
2.561300 1.361700
2.578400 1.217200
2.595400 1.174300
2.612400 1.283800
2.629500 1.505100
2.646500 1.706600
2.663500 1.749500
2.680500 1.605600
2.697600 1.384400
2.714600 1.234700
2.731600 1.226600
2.748600 1.323000
2.765700 1.434000
2.782700 1.485300
2.799700 1.457800
2.816800 1.388900
2.833800 1.334200
2.850800 1.319500
2.867800 1.327100
2.884900 1.315600
2.901900 1.244200
2.918900 1.096000
2.935900 0.902700
2.953000 0.738100
2.970000 0.667100
2.987000 0.697000
3.004100 0.784900
3.021100 0.889300
3.038100 1.011300
3.055100 1.184900
3.072200 1.425000
3.089200 1.684500
3.106200 1.874300
3.123200 1.931400
3.140300 1.866500
3.157300 1.740500
3.174300 1.611300
3.191400 1.518200
3.208400 1.490300
3.225400 1.534100
3.242400 1.609600
3.259500 1.649900
3.276500 1.616500
3.293500 1.531900
3.310500 1.462600
3.327600 1.471800
3.344600 1.574800
3.361600 1.721900
3.378700 1.829400
3.395700 1.842900
3.412700 1.781100
3.429700 1.723400
3.446800 1.760600
3.463800 1.941200
3.480800 2.229400
3.497900 2.492700
3.514900 2.566800
3.531900 2.377000
3.548900 2.001400
3.566000 1.598200
3.583000 1.287200
3.600000 1.111300
3.617000 1.076100
3.634100 1.184800
3.651100 1.433900
3.668100 1.786500
3.685200 2.151600
3.702200 2.396900
3.719200 2.414000
3.736200 2.199800
3.753300 1.866100
3.770300 1.552000
3.787300 1.329200
3.804300 1.200600
3.821400 1.173100
3.838400 1.289200
3.855400 1.564000
3.872500 1.911500
3.889500 2.180400
3.906500 2.274100
3.923500 2.210600
3.940600 2.057100
3.957600 1.846300
3.974600 1.583400
3.991600 1.302500
4.008700 1.076800
4.025700 0.976900
4.042700 1.041600
4.059800 1.280000
4.076800 1.667000
4.093800 2.123000
4.110800 2.528700
4.127900 2.785600
4.144900 2.863900
4.161900 2.794900
4.178900 2.634000
4.196000 2.434500
4.213000 2.234800
4.230000 2.055800
4.247100 1.901500
4.264100 1.761300
4.281100 1.625700
4.298100 1.503900
4.315200 1.415100
4.332200 1.363900
4.349200 1.335900
4.366300 1.326500
4.383300 1.361600
4.400300 1.475700
4.417300 1.665200
4.434400 1.876600
4.451400 2.050900
4.468400 2.162400
4.485400 2.196500
4.502500 2.114800
4.519500 1.887800
4.536500 1.558200
4.553600 1.234300
4.570600 1.009600
4.587600 0.904500
4.604600 0.887500
4.621700 0.938600
4.638700 1.081100
4.655700 1.346000
4.672700 1.709500
4.689800 2.069400
4.706800 2.291700
4.723800 2.296300
4.740900 2.108100
4.757900 1.830800
4.774900 1.575900
4.791900 1.409500
4.809000 1.342100
4.826000 1.354800
4.843000 1.431400
4.860000 1.560500
4.877100 1.705500
4.894100 1.793300
4.911100 1.756600
4.928200 1.590200
4.945200 1.356200
4.962200 1.138100
4.979200 0.996800
4.996300 0.948200
5.013300 0.959000
5.030300 0.976600
5.047300 0.989200
5.064400 1.049600
5.081400 1.226400
5.098400 1.534400
5.115500 1.906400
5.132500 2.217300
5.149500 2.349900
5.166500 2.268000
5.183600 2.035900
5.200600 1.771700
5.217600 1.587900
5.234700 1.548700
5.251700 1.636600
5.268700 1.757300
5.285700 1.816800
5.302800 1.813600
5.319800 1.836700
5.336800 1.958100
5.353800 2.141400
5.370900 2.272400
5.387900 2.269800
5.404900 2.142500
5.422000 1.945700
5.439000 1.719800
5.456000 1.494000
5.473000 1.312600
5.490100 1.213800
5.507100 1.192600
5.524100 1.213900
5.541100 1.250800
5.558200 1.287300
5.575200 1.310800
5.592200 1.342900
5.609300 1.464100
5.626300 1.751500
5.643300 2.171600
5.660300 2.553700
5.677400 2.699300
5.694400 2.536200
5.711400 2.175700
5.728400 1.826800
5.745500 1.651500
5.762500 1.672500
5.779500 1.777600
5.796600 1.810600
5.813600 1.686600
5.830600 1.444800
5.847600 1.200000
5.864700 1.049800
5.881700 1.024400
5.898700 1.102100
5.915700 1.246800
5.932800 1.420300
5.949800 1.571300
5.966800 1.646100
5.983900 1.628200
6.000900 1.558000
6.017900 1.498200
6.034900 1.481700
6.052000 1.498100
6.069000 1.521300
6.086000 1.537900
6.103000 1.542900
6.120100 1.515300
6.137100 1.417500
6.154100 1.232400
6.171200 0.998300
6.188200 0.805100
6.205200 0.754500
6.222200 0.908700
6.239300 1.248500
6.256300 1.674000
6.273300 2.059800
6.290400 2.321800
6.307400 2.442300
6.324400 2.458700
6.341400 2.436000
6.358500 2.427600
6.375500 2.447200
6.392500 2.484500
6.409500 2.534100
6.426600 2.586200
6.443600 2.611600
6.460600 2.581900
6.477700 2.500600
6.494700 2.399300
6.511700 2.307600
6.528700 2.230600
6.545800 2.157300
6.562800 2.091800
6.579800 2.060600
6.596800 2.077600
6.613900 2.112300
6.630900 2.115300
6.647900 2.073800
6.665000 2.027500
6.682000 2.022600
6.699000 2.055000
6.716000 2.073700
6.733100 2.042700
6.750100 1.984400
6.767100 1.952100
6.784100 1.974300
6.801200 2.036900
6.818200 2.105600
6.835200 2.148500
6.852300 2.139800
6.869300 2.055100
6.886300 1.877300
6.903300 1.620600
6.920400 1.350900
6.937400 1.165700
6.954400 1.132800
6.971400 1.234700
6.988500 1.369200
7.005500 1.418300
7.022500 1.342800
7.039600 1.219900
7.056600 1.171800
7.073600 1.245300
7.090600 1.382900
7.107700 1.524200
7.124700 1.695500
7.141700 1.953900
7.158800 2.269700
7.175800 2.524900
7.192800 2.629800
7.209800 2.596900
7.226900 2.496400
7.243900 2.384700
7.260900 2.297000
7.277900 2.262500
7.295000 2.281100
7.312000 2.300500
7.329000 2.252500
7.346100 2.108500
7.363100 1.892900
7.380100 1.666800
7.397100 1.502300
7.414200 1.442100
7.431200 1.463100
7.448200 1.492400
7.465200 1.469700
7.482300 1.385400
7.499300 1.273800
7.516300 1.197600
7.533400 1.242100
7.550400 1.482100
7.567400 1.911600
7.584400 2.394700
7.601500 2.715600
7.618500 2.711600
7.635500 2.378200
7.652500 1.857700
7.669600 1.334800
7.686600 0.942800
7.703600 0.743900
7.720700 0.759800
7.737700 0.989100
7.754700 1.385900
7.771700 1.837500
7.788800 2.196000
7.805800 2.365600
7.822800 2.363400
7.839800 2.287300
7.856900 2.238500
7.873900 2.285400
7.890900 2.467600
7.908000 2.784600
7.925000 3.169500
7.942000 3.502800
7.959000 3.674900
7.976100 3.647900
7.993100 3.474000
8.010100 3.264300
8.027200 3.117600
8.044200 3.053400
8.061200 3.018000
8.078200 2.968700
8.095300 2.941000
8.112300 3.014500
8.129300 3.212800
8.146300 3.433300
8.163400 3.479600
8.180400 3.196400
8.197400 2.612000
8.214500 1.937700
8.231500 1.409900
8.248500 1.143200
8.265500 1.120500
8.282600 1.266300
8.299600 1.500200
8.316600 1.756200
8.333600 1.993200
8.350700 2.193700
8.367700 2.347400
8.384700 2.442400
8.401800 2.475800
8.418800 2.460600
8.435800 2.407800
8.452800 2.309600
8.469900 2.160600
8.486900 1.995300
8.503900 1.875400
8.520900 1.826200
8.538000 1.805500
8.555000 1.753100
8.572000 1.662600
8.589100 1.591500
8.606100 1.615600
8.623100 1.784400
8.640100 2.101700
8.657200 2.519600
8.674200 2.949600
8.691200 3.295300
8.708200 3.474000
8.725300 3.415800
8.742300 3.090400
8.759300 2.569800
8.776400 2.040000
8.793400 1.701800
8.810400 1.640600
8.827400 1.789700
8.844500 2.006300
8.861500 2.191300
8.878500 2.353200
8.895600 2.558300
8.912600 2.814900
8.929600 3.020300
8.946600 3.029000
8.963700 2.772000
8.980700 2.332200
8.997700 1.921200
9.014700 1.750000
9.031800 1.870100
9.048800 2.129200
9.065800 2.304500
9.082900 2.291900
9.099900 2.160900
9.116900 2.045200
9.133900 2.019900
9.151000 2.077900
9.168000 2.163200
9.185000 2.199200
9.202000 2.131700
9.219100 1.979800
9.236100 1.826500
9.253100 1.745900
9.270200 1.765400
9.287200 1.899400
9.304200 2.162000
9.321200 2.506000
9.338300 2.782500
9.355300 2.831100
9.372300 2.636700
9.389300 2.366000
9.406400 2.226900
9.423400 2.308700
9.440400 2.553400
9.457500 2.833300
9.474500 3.025600
9.491500 3.059100
9.508500 2.963000
9.525600 2.883300
9.542600 3.003700
9.559600 3.382500
9.576600 3.845600
9.593700 4.076300
9.610700 3.866300
9.627700 3.300100
9.644800 2.679800
9.661800 2.266000
9.678800 2.105600
9.695800 2.087400
9.712900 2.102300
9.729900 2.122600
9.746900 2.166600
9.764000 2.234500
9.781000 2.292500
9.798000 2.311000
9.815000 2.306200
9.832100 2.326700
9.849100 2.400700
9.866100 2.511200
9.883100 2.612400
9.900200 2.657700
9.917200 2.631400
9.934200 2.565600
9.951300 2.514700
9.968300 2.509200
9.985300 2.534600
10.002300 2.531900
10.019400 2.417400
10.036400 2.137400
10.053400 1.726400
10.070400 1.296600
10.087500 0.960200
10.104500 0.768900
10.121500 0.715100
10.138600 0.766100
