set title 'mp-10861 - Density of States'
set xlabel 'Energy (eV)'
set ylabel 'DOS (states/eV)'
set grid
set xrange [-10:10]
set yrange [0:42.971]
set xzeroaxis lt -1
set terminal png size 800,600
set output 'mp-10861_dos_gnuplot.png'
plot '-' using 1:2 with lines title 'DOS'
-7.494500 0.000000
-7.480400 0.000000
-7.466200 0.000000
-7.452100 0.000000
-7.438000 0.000000
-7.423800 0.000000
-7.409700 0.000000
-7.395600 0.000000
-7.381400 0.000000
-7.367300 0.000000
-7.353200 0.000000
-7.339000 0.000000
-7.324900 0.000000
-7.310700 0.000000
-7.296600 0.000000
-7.282500 0.000000
-7.268300 0.000000
-7.254200 0.000000
-7.240100 0.000000
-7.225900 0.000000
-7.211800 0.000000
-7.197700 0.000000
-7.183500 0.000000
-7.169400 0.000000
-7.155200 0.000000
-7.141100 0.000000
-7.127000 0.000000
-7.112800 0.000000
-7.098700 0.000000
-7.084600 0.000000
-7.070400 0.000000
-7.056300 0.000000
-7.042100 0.000000
-7.028000 0.000000
-7.013900 0.000000
-6.999700 0.000000
-6.985600 0.000000
-6.971500 0.000000
-6.957300 0.000000
-6.943200 0.000000
-6.929100 0.000000
-6.914900 0.000000
-6.900800 0.000000
-6.886600 0.000000
-6.872500 0.000000
-6.858400 0.000000
-6.844200 0.000000
-6.830100 0.000000
-6.816000 0.000000
-6.801800 0.000000
-6.787700 0.000000
-6.773600 0.000000
-6.759400 0.000000
-6.745300 0.000000
-6.731100 0.000000
-6.717000 0.000000
-6.702900 0.000000
-6.688700 0.000000
-6.674600 0.000000
-6.660500 0.000000
-6.646300 0.000000
-6.632200 0.000000
-6.618100 0.000000
-6.603900 0.000000
-6.589800 0.000000
-6.575600 0.000000
-6.561500 0.000000
-6.547400 0.000000
-6.533200 0.000000
-6.519100 0.000000
-6.505000 0.000000
-6.490800 0.000000
-6.476700 0.000000
-6.462600 0.000000
-6.448400 0.000000
-6.434300 0.000000
-6.420100 0.000000
-6.406000 0.000000
-6.391900 0.000000
-6.377700 0.000000
-6.363600 0.000000
-6.349500 0.000000
-6.335300 0.000000
-6.321200 0.000000
-6.307000 0.000000
-6.292900 0.000000
-6.278800 0.000000
-6.264600 0.000000
-6.250500 0.000000
-6.236400 0.000000
-6.222200 0.000000
-6.208100 0.000100
-6.194000 0.009400
-6.179800 0.034400
-6.165700 0.073900
-6.151500 0.120600
-6.137400 0.138000
-6.123300 0.144000
-6.109100 0.150000
-6.095000 0.167800
-6.080900 0.186200
-6.066700 0.205100
-6.052600 0.223300
-6.038500 0.240400
-6.024300 0.255900
-6.010200 0.272200
-5.996000 0.290100
-5.981900 0.308100
-5.967800 0.327300
-5.953600 0.348100
-5.939500 0.370400
-5.925400 0.393500
-5.911200 0.417800
-5.897100 0.446300
-5.883000 0.479800
-5.868800 0.513900
-5.854700 0.549200
-5.840500 0.827300
-5.826400 1.717700
-5.812300 2.985100
-5.798100 4.436400
-5.784000 4.645300
-5.769900 5.912500
-5.755700 5.782000
-5.741600 4.707200
-5.727500 5.121800
-5.713300 10.911300
-5.699200 14.026200
-5.685000 16.286100
-5.670900 18.186000
-5.656800 23.097500
-5.642600 23.693800
-5.628500 19.451200
-5.614400 19.187600
-5.600200 17.248300
-5.586100 20.440100
-5.572000 16.835000
-5.557800 19.354400
-5.543700 22.071500
-5.529500 27.475700
-5.515400 27.368600
-5.501300 34.077900
-5.487100 31.861900
-5.473000 29.626300
-5.458900 31.092800
-5.444700 24.006400
-5.430600 24.562800
-5.416400 18.741100
-5.402300 19.377200
-5.388200 20.789300
-5.374000 20.720600
-5.359900 22.461200
-5.345800 24.108400
-5.331600 19.420700
-5.317500 14.800900
-5.303400 15.871300
-5.289200 15.728500
-5.275100 16.642900
-5.260900 17.477200
-5.246800 17.544600
-5.232700 18.224700
-5.218500 14.964500
-5.204400 11.756600
-5.190300 11.690400
-5.176100 13.619500
-5.162000 17.111000
-5.147900 25.452400
-5.133700 22.502300
-5.119600 24.612700
-5.105400 29.699400
-5.091300 22.615100
-5.077200 29.577900
-5.063000 31.652200
-5.048900 28.821100
-5.034800 28.477600
-5.020600 28.420800
-5.006500 24.432200
-4.992400 21.673700
-4.978200 22.548600
-4.964100 23.255100
-4.949900 21.422200
-4.935800 16.876700
-4.921700 20.992100
-4.907500 24.191100
-4.893400 27.083500
-4.879300 30.049800
-4.865100 26.288100
-4.851000 26.051300
-4.836900 18.886300
-4.822700 18.224900
-4.808600 15.602700
-4.794400 17.755800
-4.780300 18.136500
-4.766200 18.448400
-4.752000 21.785400
-4.737900 18.368000
-4.723800 17.516700
-4.709600 19.029200
-4.695500 22.337300
-4.681300 26.479100
-4.667200 35.962800
-4.653100 39.064800
-4.638900 28.192500
-4.624800 35.748900
-4.610700 27.301300
-4.596500 34.813300
-4.582400 24.401500
-4.568300 21.524700
-4.554100 19.395100
-4.540000 23.405500
-4.525800 31.315500
-4.511700 20.294500
-4.497600 29.955400
-4.483400 35.019200
-4.469300 33.195000
-4.455200 19.306600
-4.441000 12.401600
-4.426900 14.363900
-4.412800 8.162400
-4.398600 7.565300
-4.384500 4.724800
-4.370300 4.001900
-4.356200 3.969900
-4.342100 3.858400
-4.327900 4.667200
-4.313800 5.133200
-4.299700 4.178900
-4.285500 3.781400
-4.271400 3.338500
-4.257300 2.751600
-4.243100 1.894000
-4.229000 1.090900
-4.214800 0.735800
-4.200700 0.731400
-4.186600 0.727500
-4.172400 0.728400
-4.158300 0.736500
-4.144200 0.743800
-4.130000 0.746100
-4.115900 0.744700
-4.101800 0.743200
-4.087600 0.741500
-4.073500 0.745500
-4.059300 0.763200
-4.045200 0.778600
-4.031100 0.791700
-4.016900 0.790300
-4.002800 0.785100
-3.988700 0.778900
-3.974500 0.771400
-3.960400 0.762800
-3.946200 0.753100
-3.932100 0.742300
-3.918000 0.730300
-3.903800 0.717200
-3.889700 0.702000
-3.875600 0.688400
-3.861400 0.677400
-3.847300 0.667800
-3.833200 0.658800
-3.819000 0.650400
-3.804900 0.642600
-3.790700 0.635400
-3.776600 0.628700
-3.762500 0.623100
-3.748300 0.619800
-3.734200 0.619000
-3.720100 0.619800
-3.705900 0.620900
-3.691800 0.620800
-3.677700 0.621800
-3.663500 0.623800
-3.649400 0.626700
-3.635200 0.630500
-3.621100 0.635000
-3.607000 0.640100
-3.592800 0.645900
-3.578700 0.652500
-3.564600 0.659900
-3.550400 0.701100
-3.536300 0.705100
-3.522200 0.709700
-3.508000 0.730700
-3.493900 0.738800
-3.479700 0.742600
-3.465600 0.725500
-3.451500 0.738000
-3.437300 0.751300
-3.423200 0.765800
-3.409100 0.781400
-3.394900 0.798300
-3.380800 0.812000
-3.366700 0.826000
-3.352500 0.812900
-3.338400 0.798300
-3.324200 0.783100
-3.310100 0.785400
-3.296000 0.786700
-3.281800 0.787400
-3.267700 0.787300
-3.253600 0.786500
-3.239400 0.785000
-3.225300 0.782900
-3.211100 0.780000
-3.197000 0.780400
-3.182900 0.779500
-3.168700 0.781500
-3.154600 0.783400
-3.140500 0.785200
-3.126300 0.784600
-3.112200 0.785000
-3.098100 0.784900
-3.083900 0.784400
-3.069800 0.783600
-3.055600 0.782500
-3.041500 0.781400
-3.027400 0.780000
-3.013200 0.779500
-2.999100 0.780200
-2.985000 0.780900
-2.970800 0.781600
-2.956700 0.782300
-2.942600 0.783000
-2.928400 0.784000
-2.914300 0.784000
-2.900100 0.785300
-2.886000 0.786500
-2.871900 0.786300
-2.857700 0.787100
-2.843600 0.787600
-2.829500 0.845100
-2.815300 0.879200
-2.801200 0.908000
-2.787100 0.894400
-2.772900 0.890000
-2.758800 0.884200
-2.744600 0.878300
-2.730500 0.876300
-2.716400 0.878500
-2.702200 0.883900
-2.688100 0.889500
-2.674000 0.895400
-2.659800 0.892300
-2.645700 0.894200
-2.631600 0.897100
-2.617400 0.901200
-2.603300 0.906800
-2.589100 0.913500
-2.575000 0.919700
-2.560900 0.927200
-2.546700 0.933500
-2.532600 0.927000
-2.518500 0.920700
-2.504300 0.918200
-2.490200 0.919600
-2.476100 0.918200
-2.461900 0.916700
-2.447800 0.915400
-2.433600 0.914700
-2.419500 0.915300
-2.405400 0.917000
-2.391200 0.920600
-2.377100 0.924100
-2.363000 0.927300
-2.348800 0.930500
-2.334700 0.933700
-2.320500 0.936800
-2.306400 0.940000
-2.292300 0.943200
-2.278100 0.946400
-2.264000 0.949400
-2.249900 0.952400
-2.235700 0.955300
-2.221600 0.958500
-2.207500 0.959700
-2.193300 0.962600
-2.179200 0.965700
-2.165000 0.968300
-2.150900 0.972000
-2.136800 0.975900
-2.122600 0.979000
-2.108500 0.982800
-2.094400 0.986500
-2.080200 0.990000
-2.066100 0.993500
-2.052000 0.996900
-2.037800 1.000200
-2.023700 1.003700
-2.009500 1.007600
-1.995400 1.011500
-1.981300 1.015300
-1.967100 1.019600
-1.953000 1.024000
-1.938900 1.028300
-1.924700 1.030800
-1.910600 1.030900
-1.896500 1.030300
-1.882300 1.029100
-1.868200 1.037100
-1.854000 1.046700
-1.839900 1.053900
-1.825800 1.056400
-1.811600 1.058500
-1.797500 1.060700
-1.783400 1.062900
-1.769200 1.065300
-1.755100 1.067400
-1.741000 1.069400
-1.726800 1.070000
-1.712700 1.070300
-1.698500 1.070700
-1.684400 1.070800
-1.670300 1.070900
-1.656100 1.071000
-1.642000 1.071800
-1.627900 1.072200
-1.613700 1.073100
-1.599600 1.074200
-1.585400 1.075600
-1.571300 1.077300
-1.557200 1.078600
-1.543000 1.080100
-1.528900 1.082000
-1.514800 1.084200
-1.500600 1.086500
-1.486500 1.087800
-1.472400 1.089600
-1.458200 1.091700
-1.444100 1.094200
-1.429900 1.097000
-1.415800 1.099800
-1.401700 1.102700
-1.387500 1.105700
-1.373400 1.108800
-1.359300 1.112100
-1.345100 1.115500
-1.331000 1.119000
-1.316900 1.115100
-1.302700 1.111500
-1.288600 1.112800
-1.274400 1.115700
-1.260300 1.119800
-1.246200 1.124300
-1.232000 1.127500
-1.217900 1.130900
-1.203800 1.134800
-1.189600 1.139300
-1.175500 1.143900
-1.161400 1.148600
-1.147200 1.154400
-1.133100 1.162100
-1.118900 1.171500
-1.104800 1.181400
-1.090700 1.190900
-1.076500 1.200200
-1.062400 1.209400
-1.048300 1.219400
-1.034100 1.229700
-1.020000 1.239700
-1.005900 1.249800
-0.991700 1.260000
-0.977600 1.270500
-0.963400 1.281900
-0.949300 1.294100
-0.935200 1.306300
-0.921000 1.318500
-0.906900 1.330700
-0.892800 1.342800
-0.878600 1.354700
-0.864500 1.366700
-0.850300 1.378600
-0.836200 1.390500
-0.822100 1.402300
-0.807900 1.414200
-0.793800 1.426000
-0.779700 1.437700
-0.765500 1.449400
-0.751400 1.466500
-0.737300 1.486800
-0.723100 1.501100
-0.709000 1.514500
-0.694800 1.528300
-0.680700 1.542400
-0.666600 1.556700
-0.652400 1.571100
-0.638300 1.585100
-0.624200 1.599700
-0.610000 1.614900
-0.595900 1.630800
-0.581800 1.644700
-0.567600 1.653000
-0.553500 1.647400
-0.539300 1.648900
-0.525200 1.645900
-0.511100 1.644300
-0.496900 1.644500
-0.482800 1.646700
-0.468700 1.649300
-0.454500 1.652900
-0.440400 1.659300
-0.426300 1.665100
-0.412100 1.672800
-0.398000 1.682700
-0.383800 1.693600
-0.369700 1.706600
-0.355600 1.722300
-0.341400 1.739500
-0.327300 1.758100
-0.313200 1.794700
-0.299000 1.820900
-0.284900 1.842300
-0.270800 1.862700
-0.256600 1.877500
-0.242500 1.897000
-0.228300 1.915000
-0.214200 1.938400
-0.200100 1.957100
-0.185900 1.959800
-0.171800 1.945200
-0.157700 1.912100
-0.143500 1.852300
-0.129400 1.764600
-0.115200 1.678600
-0.101100 1.645400
-0.087000 1.613100
-0.072800 1.582300
-0.058700 1.557300
-0.044600 1.535800
-0.030400 1.523300
-0.016300 1.509700
-0.002200 1.481800
0.012000 1.456500
0.026100 1.409200
0.040300 1.313100
0.054400 1.210300
0.068500 1.194200
0.082700 1.192500
0.096800 1.214300
0.110900 1.215700
0.125100 1.214800
0.139200 1.219000
0.153300 1.224700
0.167500 1.226800
0.181600 1.216100
0.195800 1.195400
0.209900 1.257700
0.224000 1.174900
0.238200 1.103700
0.252300 1.042200
0.266400 0.986500
0.280600 0.952900
0.294700 0.941300
0.308800 0.949300
0.323000 0.960300
0.337100 0.958800
0.351300 0.952500
0.365400 0.955800
0.379500 0.968800
0.393700 0.987000
0.407800 0.991800
0.421900 1.003900
0.436100 0.990300
0.450200 0.966000
0.464300 0.944400
0.478500 0.939600
0.492600 0.914400
0.506800 0.848600
0.520900 0.781100
0.535000 0.712100
0.549200 0.640800
0.563300 0.571100
0.577400 0.513300
0.591600 0.464700
0.605700 0.425400
0.619800 0.398500
0.634000 0.383000
0.648100 0.370600
0.662300 0.361900
0.676400 0.355000
0.690500 0.349900
0.704700 0.347700
0.718800 0.344200
0.732900 0.341000
0.747100 0.338100
0.761200 0.335600
0.775400 0.333400
0.789500 0.331600
0.803600 0.330100
0.817800 0.328900
0.831900 0.328100
0.846000 0.327500
0.860200 0.327200
0.874300 0.326900
0.888400 0.326500
0.902600 0.325900
0.916700 0.325500
0.930900 0.325600
0.945000 0.325900
0.959100 0.326400
0.973300 0.327000
0.987400 0.327800
1.001500 0.328900
1.015700 0.330100
1.029800 0.331400
1.043900 0.333000
1.058100 0.334800
1.072200 0.336800
1.086400 0.339000
1.100500 0.341300
1.114600 0.343800
1.128800 0.346500
1.142900 0.349400
1.157000 0.352400
1.171200 0.355400
1.185300 0.358500
1.199400 0.361600
1.213600 0.364900
1.227700 0.368200
1.241900 0.371600
1.256000 0.375000
1.270100 0.378400
1.284300 0.381800
1.298400 0.396100
1.312500 0.413200
1.326700 0.422100
1.340800 0.431100
1.354900 0.440500
1.369100 0.450300
1.383200 0.460800
1.397400 0.472100
1.411500 0.484200
1.425600 0.497000
1.439800 0.510400
1.453900 0.524300
1.468000 0.538900
1.482200 0.554100
1.496300 0.569900
1.510500 0.586400
1.524600 0.607700
1.538700 0.662900
1.552900 0.696500
1.567000 0.729000
1.581100 0.757100
1.595300 0.779300
1.609400 0.796000
1.623500 0.808500
1.637700 0.819300
1.651800 0.828600
1.666000 0.836300
1.680100 0.829500
1.694200 0.824000
1.708400 0.808500
1.722500 0.803400
1.736600 0.805200
1.750800 0.808000
1.764900 0.829700
1.779000 0.839800
1.793200 0.850900
1.807300 0.863100
1.821500 0.876400
1.835600 0.892700
1.849700 0.914500
1.863900 0.942000
1.878000 0.973200
1.892100 0.970000
1.906300 0.984100
1.920400 0.995400
1.934500 1.006100
1.948700 1.019700
1.962800 1.040200
1.977000 1.059400
1.991100 1.077800
2.005200 1.089800
2.019400 1.102900
2.033500 1.114300
2.047600 1.125100
2.061800 1.135400
2.075900 1.145400
2.090000 1.155100
2.104200 1.164400
2.118300 1.173400
2.132500 1.165300
2.146600 1.168800
2.160700 1.171600
2.174900 1.174500
2.189000 1.177400
2.203100 1.180700
2.217300 1.184200
2.231400 1.187900
2.245600 1.191600
2.259700 1.194600
2.273800 1.196600
2.288000 1.197800
2.302100 1.199200
2.316200 1.201200
2.330400 1.208700
2.344500 1.213100
2.358600 1.217800
2.372800 1.229700
2.386900 1.251400
2.401100 1.282000
2.415200 1.313800
2.429300 1.307600
2.443500 1.292200
2.457600 1.273900
2.471700 1.268100
2.485900 1.275400
2.500000 1.284700
2.514100 1.295800
2.528300 1.309000
2.542400 1.334400
2.556600 1.377000
2.570700 1.416200
2.584800 1.442300
2.599000 1.458300
2.613100 1.477000
2.627200 1.496200
2.641400 1.515300
2.655500 1.532600
2.669600 1.548700
2.683800 1.564600
2.697900 1.582300
2.712100 1.605800
2.726200 1.622500
2.740300 1.638100
2.754500 1.649800
2.768600 1.659800
2.782700 1.668300
2.796900 1.678100
2.811000 1.689700
2.825100 1.702800
2.839300 1.713100
2.853400 1.710200
2.867600 1.696900
2.881700 1.688100
2.895800 1.681200
2.910000 1.677600
2.924100 1.759000
2.938200 1.852700
2.952400 1.745400
2.966500 1.703300
2.980700 1.678400
2.994800 1.665400
3.008900 1.643300
3.023100 1.605100
3.037200 1.556800
3.051300 1.504400
3.065500 1.457300
3.079600 1.431500
3.093700 1.405400
3.107900 1.378700
3.122000 1.355100
3.136200 1.332100
3.150300 1.304200
3.164400 1.277300
3.178600 1.255100
3.192700 1.253000
3.206800 1.267400
3.221000 1.255000
3.235100 1.256900
3.249200 1.251800
3.263400 1.239400
3.277500 1.224700
3.291700 1.208100
3.305800 1.189700
3.319900 1.169200
3.334100 1.159000
3.348200 1.155400
3.362300 1.155000
3.376500 1.158400
3.390600 1.161600
3.404700 1.165200
3.418900 1.169600
3.433000 1.174600
3.447200 1.180400
3.461300 1.186800
3.475400 1.192800
3.489600 1.198700
3.503700 1.206700
3.517800 1.215700
3.532000 1.225500
3.546100 1.236100
3.560200 1.247600
3.574400 1.260500
3.588500 1.300600
3.602700 1.324700
3.616800 1.336300
3.630900 1.340900
3.645100 1.357900
3.659200 1.454200
3.673300 1.512700
3.687500 1.476100
3.701600 1.404000
3.715700 1.408800
3.729900 1.412900
3.744000 1.416500
3.758200 1.420900
3.772300 1.429300
3.786400 1.442100
3.800600 1.454700
3.814700 1.484900
3.828800 1.539000
3.843000 1.553100
3.857100 1.517400
3.871300 1.467700
3.885400 1.465900
3.899500 1.463400
3.913700 1.465400
3.927800 1.464500
3.941900 1.464100
3.956100 1.462300
3.970200 1.451300
3.984300 1.440800
3.998500 1.443100
4.012600 1.446300
4.026800 1.448800
4.040900 1.450100
4.055000 1.449900
4.069200 1.448300
4.083300 1.445800
4.097400 1.445800
4.111600 1.444200
4.125700 1.458400
4.139800 1.452300
4.154000 1.435100
4.168100 1.418200
4.182300 1.401800
4.196400 1.357700
4.210500 1.352300
4.224700 1.345800
4.238800 1.339400
4.252900 1.333000
4.267100 1.326300
4.281200 1.320100
4.295300 1.318100
4.309500 1.319600
4.323600 1.329600
4.337800 1.381300
4.351900 1.389500
4.366000 1.394700
4.380200 1.396200
4.394300 1.393900
4.408400 1.391200
4.422600 1.397500
4.436700 1.415600
4.450800 1.390800
4.465000 1.370100
4.479100 1.352700
4.493300 1.346300
4.507400 1.337500
4.521500 1.328700
4.535700 1.322400
4.549800 1.323600
4.563900 1.327300
4.578100 1.330900
4.592200 1.334400
4.606400 1.337900
4.620500 1.340400
4.634600 1.339100
4.648800 1.336800
4.662900 1.342900
4.677000 1.349500
4.691200 1.356700
4.705300 1.365300
4.719400 1.374700
4.733600 1.384300
4.747700 1.393700
4.761900 1.406000
4.776000 1.421100
4.790100 1.439700
4.804300 1.464000
4.818400 1.498800
4.832500 1.541600
4.846700 1.573900
4.860800 1.594000
4.874900 1.610500
4.889100 1.624300
4.903200 1.639000
4.917400 1.655700
4.931500 1.675400
4.945600 1.698600
4.959800 1.714700
4.973900 1.728600
4.988000 1.802600
5.002200 1.824100
5.016300 1.815400
5.030400 1.849900
5.044600 1.934800
5.058700 1.918200
5.072900 1.840400
5.087000 1.765200
5.101100 1.700400
5.115300 1.641100
5.129400 1.627100
5.143500 1.742800
5.157700 1.834600
5.171800 1.807900
5.185900 1.725400
5.200100 1.669700
5.214200 1.623100
5.228400 1.594000
5.242500 1.573100
5.256600 1.562300
5.270800 1.553300
5.284900 1.545700
5.299000 1.521900
5.313200 1.514900
5.327300 1.512900
5.341500 1.505500
5.355600 1.495900
5.369700 1.484700
5.383900 1.470300
5.398000 1.421900
5.412100 1.395200
5.426300 1.395300
5.440400 1.395700
5.454500 1.396300
5.468700 1.397000
5.482800 1.397600
5.497000 1.398300
5.511100 1.400000
5.525200 1.407800
5.539400 1.413200
5.553500 1.416200
5.567600 1.416600
5.581800 1.506300
5.595900 1.412600
5.610000 1.413800
5.624200 1.458600
5.638300 1.482400
5.652500 1.472700
5.666600 1.452900
5.680700 1.437000
5.694900 1.440700
5.709000 1.453100
5.723100 1.461800
5.737300 1.462300
5.751400 1.458200
5.765500 1.418100
5.779700 1.421100
5.793800 1.424100
5.808000 1.427700
5.822100 1.432900
5.836200 1.439700
5.850400 1.448400
5.864500 1.469500
5.878600 1.489700
5.892800 1.506300
5.906900 1.521900
5.921000 1.537600
5.935200 1.554300
5.949300 1.575900
5.963500 1.629800
5.977600 1.606700
5.991700 1.529900
6.005900 1.502100
6.020000 1.478100
6.034100 1.457800
6.048300 1.458000
6.062400 1.458400
6.076500 1.468100
6.090700 1.482900
6.104800 1.493400
6.119000 1.492200
6.133100 1.487900
6.147200 1.485800
6.161400 1.489700
6.175500 1.503500
6.189600 1.524900
6.203800 1.537300
6.217900 1.543300
6.232100 1.549900
6.246200 1.661200
6.260300 1.643200
6.274500 1.642300
6.288600 1.646200
6.302700 1.657200
6.316900 1.674200
6.331000 1.696100
6.345100 1.722100
6.359300 1.751100
6.373400 1.783000
6.387600 1.829700
6.401700 1.831400
6.415800 1.796500
6.430000 1.784200
6.444100 1.963300
6.458200 1.970700
6.472400 1.864600
6.486500 1.869200
6.500600 1.872700
6.514800 1.872700
6.528900 1.867000
6.543100 1.867600
6.557200 1.899700
6.571300 1.929600
6.585500 1.941700
6.599600 1.911200
6.613700 1.826200
6.627900 1.747400
6.642000 1.748900
6.656100 1.748100
6.670300 1.751400
6.684400 1.754200
6.698600 1.756000
6.712700 1.804900
6.726800 1.791100
6.741000 1.780700
6.755100 1.738300
6.769200 1.734700
6.783400 1.729000
6.797500 1.722000
6.811600 1.715600
6.825800 1.710300
6.839900 1.705200
6.854100 1.701000
6.868200 1.697900
6.882300 1.696100
6.896500 1.695500
6.910600 1.694000
6.924700 1.689700
6.938900 1.687700
6.953000 1.685500
6.967200 1.683400
6.981300 1.681600
6.995400 1.681200
7.009600 1.681900
7.023700 1.683000
7.037800 1.684500
7.052000 1.682500
7.066100 1.691700
7.080200 1.698500
7.094400 1.702100
7.108500 1.702800
7.122700 1.700300
7.136800 1.689700
7.150900 1.691800
7.165100 1.695500
7.179200 1.698000
7.193300 1.699400
7.207500 1.699400
7.221600 1.698400
7.235700 1.696200
7.249900 1.693300
7.264000 1.691000
7.278200 1.700500
7.292300 1.703900
7.306400 1.740000
7.320600 1.743800
7.334700 1.746800
7.348800 1.749000
7.363000 1.727500
7.377100 1.727600
7.391200 1.728700
7.405400 1.732200
7.419500 1.738300
7.433700 1.745900
7.447800 1.755700
7.461900 1.768000
7.476100 1.782200
7.490200 1.784900
