set title 'mp-570002 - Density of States'
set xlabel 'Energy (eV)'
set ylabel 'DOS (states/eV)'
set grid
set xrange [-10:10]
set yrange [0:6.540]
set xzeroaxis lt -1
set terminal png size 800,600
set output 'mp-570002_dos_gnuplot.png'
plot '-' using 1:2 with lines title 'DOS'
-16.760600 0.000000
-16.732400 0.000000
-16.704200 0.000000
-16.676100 0.000000
-16.647900 0.000000
-16.619700 0.000000
-16.591500 0.000000
-16.563300 0.000000
-16.535100 0.000000
-16.506900 0.000000
-16.478800 0.000000
-16.450600 0.000000
-16.422400 0.000000
-16.394200 0.000000
-16.366000 0.000000
-16.337800 0.000000
-16.309600 0.000000
-16.281500 0.000000
-16.253300 0.000000
-16.225100 0.000000
-16.196900 0.000000
-16.168700 0.000000
-16.140500 0.000000
-16.112300 0.000000
-16.084200 0.000000
-16.056000 0.000000
-16.027800 0.000000
-15.999600 0.000000
-15.971400 0.000000
-15.943200 0.000000
-15.915000 0.000000
-15.886900 0.000000
-15.858700 0.000000
-15.830500 0.000000
-15.802300 0.000000
-15.774100 0.000000
-15.745900 0.000000
-15.717700 0.000000
-15.689600 0.000000
-15.661400 0.000000
-15.633200 0.000000
-15.605000 0.000000
-15.576800 0.000000
-15.548600 0.000000
-15.520400 0.000000
-15.492300 0.000000
-15.464100 0.000000
-15.435900 0.000000
-15.407700 0.000000
-15.379500 0.000000
-15.351300 0.000000
-15.323100 0.000000
-15.295000 0.000000
-15.266800 0.000000
-15.238600 0.000000
-15.210400 0.000000
-15.182200 0.000000
-15.154000 0.000000
-15.125800 0.000000
-15.097700 0.000000
-15.069500 0.000000
-15.041300 0.000000
-15.013100 0.000000
-14.984900 0.000000
-14.956700 0.000000
-14.928500 0.000000
-14.900400 0.000000
-14.872200 0.000000
-14.844000 0.000000
-14.815800 0.000000
-14.787600 0.000000
-14.759400 0.000000
-14.731200 0.000000
-14.703100 0.000000
-14.674900 0.000000
-14.646700 0.000000
-14.618500 0.000000
-14.590300 0.000000
-14.562100 0.000000
-14.533900 0.000000
-14.505800 0.000000
-14.477600 0.000000
-14.449400 0.000000
-14.421200 0.000000
-14.393000 0.000000
-14.364800 0.000000
-14.336600 0.000000
-14.308500 0.000000
-14.280300 0.000000
-14.252100 0.000000
-14.223900 0.000000
-14.195700 0.000100
-14.167500 0.019500
-14.139300 0.071600
-14.111200 0.156400
-14.083000 0.273900
-14.054800 0.362500
-14.026600 0.408300
-13.998400 0.461000
-13.970200 0.520500
-13.942000 0.586600
-13.913900 0.651000
-13.885700 0.710000
-13.857500 0.763600
-13.829300 0.850900
-13.801100 0.887200
-13.772900 0.933800
-13.744700 0.990500
-13.716600 1.057200
-13.688400 1.133600
-13.660200 1.219600
-13.632000 1.315200
-13.603800 1.395800
-13.575600 1.497600
-13.547400 1.611800
-13.519300 1.743300
-13.491100 1.892100
-13.462900 2.231100
-13.434700 2.526700
-13.406500 2.883600
-13.378300 3.357400
-13.350100 3.831000
-13.322000 4.221700
-13.293800 5.886300
-13.265600 5.393900
-13.237400 3.209600
-13.209200 2.164900
-13.181000 1.849700
-13.152800 1.570200
-13.124700 1.326400
-13.096500 1.162100
-13.068300 1.057800
-13.040100 0.959000
-13.011900 0.865700
-12.983700 0.752800
-12.955500 0.672300
-12.927400 0.593600
-12.899200 0.516700
-12.871000 0.441600
-12.842800 0.368300
-12.814600 0.326600
-12.786400 0.291600
-12.758200 0.248700
-12.730100 0.197900
-12.701900 0.139200
-12.673700 0.000000
-12.645500 0.000000
-12.617300 0.000000
-12.589100 0.000000
-12.560900 0.000000
-12.532800 0.000000
-12.504600 0.000000
-12.476400 0.000000
-12.448200 0.000000
-12.420000 0.000000
-12.391800 0.000000
-12.363600 0.000000
-12.335500 0.000000
-12.307300 0.000000
-12.279100 0.000000
-12.250900 0.000000
-12.222700 0.000000
-12.194500 0.000000
-12.166300 0.000000
-12.138200 0.000000
-12.110000 0.000000
-12.081800 0.000000
-12.053600 0.000000
-12.025400 0.000000
-11.997200 0.000000
-11.969000 0.000000
-11.940900 0.000000
-11.912700 0.000000
-11.884500 0.000000
-11.856300 0.000000
-11.828100 0.000000
-11.799900 0.000000
-11.771700 0.000000
-11.743600 0.000000
-11.715400 0.000000
-11.687200 0.000000
-11.659000 0.000000
-11.630800 0.000000
-11.602600 0.000000
-11.574400 0.000000
-11.546300 0.000000
-11.518100 0.000000
-11.489900 0.000000
-11.461700 0.000000
-11.433500 0.000000
-11.405300 0.000000
-11.377100 0.000000
-11.349000 0.000000
-11.320800 0.000000
-11.292600 0.000000
-11.264400 0.000000
-11.236200 0.000000
-11.208000 0.000000
-11.179800 0.000000
-11.151700 0.000000
-11.123500 0.000000
-11.095300 0.000000
-11.067100 0.000000
-11.038900 0.000000
-11.010700 0.000000
-10.982500 0.000000
-10.954400 0.000000
-10.926200 0.000000
-10.898000 0.000000
-10.869800 0.000000
-10.841600 0.000000
-10.813400 0.000000
-10.785200 0.000000
-10.757100 0.000000
-10.728900 0.000000
-10.700700 0.000000
-10.672500 0.000000
-10.644300 0.000000
-10.616100 0.000000
-10.587900 0.000000
-10.559800 0.000000
-10.531600 0.000000
-10.503400 0.000000
-10.475200 0.000000
-10.447000 0.000000
-10.418800 0.000000
-10.390600 0.000000
-10.362500 0.000000
-10.334300 0.000000
-10.306100 0.000000
-10.277900 0.000000
-10.249700 0.000000
-10.221500 0.000000
-10.193300 0.000000
-10.165200 0.000000
-10.137000 0.000000
-10.108800 0.000000
-10.080600 0.000000
-10.052400 0.000000
-10.024200 0.000000
-9.996000 0.000000
-9.967900 0.000000
-9.939700 0.000000
-9.911500 0.000000
-9.883300 0.000000
-9.855100 0.000000
-9.826900 0.000000
-9.798700 0.000000
-9.770600 0.000000
-9.742400 0.000000
-9.714200 0.000000
-9.686000 0.000000
-9.657800 0.000000
-9.629600 0.727100
-9.601400 1.002200
-9.573300 1.170800
-9.545100 1.353900
-9.516900 1.625600
-9.488700 2.001000
-9.460500 2.521300
-9.432300 2.949700
-9.404100 3.279900
-9.376000 3.512000
-9.347800 4.032600
-9.319600 3.843300
-9.291400 3.918500
-9.263200 3.614500
-9.235000 3.151500
-9.206800 2.475500
-9.178700 2.137400
-9.150500 2.004500
-9.122300 1.867400
-9.094100 1.586900
-9.065900 1.512600
-9.037700 1.471300
-9.009500 1.442300
-8.981400 1.425100
-8.953200 1.418200
-8.925000 1.434600
-8.896800 1.494200
-8.868600 1.571500
-8.840400 2.184100
-8.812200 2.451600
-8.784100 2.241400
-8.755900 2.050700
-8.727700 2.038200
-8.699500 2.025300
-8.671300 2.009600
-8.643100 2.073100
-8.614900 2.020700
-8.586800 1.979300
-8.558600 1.941300
-8.530400 1.906400
-8.502200 1.887700
-8.474000 1.882200
-8.445800 1.883200
-8.417600 1.937200
-8.389500 2.000800
-8.361300 2.050600
-8.333100 2.086600
-8.304900 1.872000
-8.276700 1.883100
-8.248500 1.932800
-8.220300 2.131500
-8.192200 2.114500
-8.164000 2.092000
-8.135800 2.063800
-8.107600 2.030000
-8.079400 1.990600
-8.051200 1.945700
-8.023000 1.895100
-7.994900 1.892600
-7.966700 1.887800
-7.938500 1.809700
-7.910300 1.721700
-7.882100 1.634800
-7.853900 1.561300
-7.825700 1.504500
-7.797600 1.488300
-7.769400 1.477100
-7.741200 1.466400
-7.713000 1.456100
-7.684800 1.446200
-7.656600 1.436800
-7.628400 1.392700
-7.600300 1.393900
-7.572100 1.392000
-7.543900 1.387100
-7.515700 1.379200
-7.487500 1.387400
-7.459300 1.417400
-7.431100 1.440800
-7.403000 1.511000
-7.374800 1.607600
-7.346600 1.797800
-7.318400 1.565600
-7.290200 1.573000
-7.262000 1.632100
-7.233800 1.714900
-7.205700 1.821400
-7.177500 1.716800
-7.149300 1.742200
-7.121100 1.760400
-7.092900 1.771300
-7.064700 1.779400
-7.036500 1.785100
-7.008400 1.788600
-6.980200 1.789900
-6.952000 1.788800
-6.923800 1.785500
-6.895600 1.717100
-6.867400 1.671400
-6.839200 1.623900
-6.811100 1.543800
-6.782900 1.497000
-6.754700 1.448400
-6.726500 1.397900
-6.698300 1.345500
-6.670100 1.169400
-6.641900 1.180600
-6.613800 1.121000
-6.585600 1.069300
-6.557400 1.025400
-6.529200 0.960400
-6.501000 0.913900
-6.472800 0.867600
-6.444600 0.821600
-6.416500 0.775900
-6.388300 0.730400
-6.360100 0.685300
-6.331900 0.640400
-6.303700 0.595800
-6.275500 0.551500
-6.247300 0.507500
-6.219200 0.463800
-6.191000 0.420300
-6.162800 0.377100
-6.134600 0.350300
-6.106400 0.621400
-6.078200 0.130100
-6.050000 0.086100
-6.021900 0.053200
-5.993700 0.031400
-5.965500 0.016400
-5.937300 0.005700
-5.909100 0.000000
-5.880900 0.000000
-5.852700 0.000000
-5.824600 0.000000
-5.796400 0.000000
-5.768200 0.000000
-5.740000 0.011600
-5.711800 0.053200
-5.683600 0.111700
-5.655400 0.187000
-5.627300 0.279200
-5.599100 0.388200
-5.570900 0.522000
-5.542700 0.708400
-5.514500 0.949700
-5.486300 1.246000
-5.458100 1.715100
-5.430000 2.193500
-5.401800 2.420400
-5.373600 2.574700
-5.345400 2.606600
-5.317200 2.463400
-5.289000 2.346600
-5.260800 2.257000
-5.232700 2.195600
-5.204500 2.152900
-5.176300 2.129000
-5.148100 2.128400
-5.119900 2.151900
-5.091700 2.008400
-5.063500 1.959900
-5.035400 1.907600
-5.007200 1.851500
-4.979000 1.791700
-4.950800 1.728300
-4.922600 1.681700
-4.894400 1.584600
-4.866200 1.395000
-4.838100 1.233200
-4.809900 1.227400
-4.781700 1.222800
-4.753500 1.219300
-4.725300 1.216900
-4.697100 1.215700
-4.668900 1.215600
-4.640800 1.216600
-4.612600 1.218800
-4.584400 1.222100
-4.556200 1.226600
-4.528000 1.232200
-4.499800 1.238900
-4.471600 1.246800
-4.443500 1.255800
-4.415300 1.266000
-4.387100 1.277200
-4.358900 1.289200
-4.330700 1.300200
-4.302500 1.409200
-4.274300 1.418200
-4.246200 1.563900
-4.218000 1.589400
-4.189800 1.840000
-4.161600 2.083900
-4.133400 2.431500
-4.105200 2.220700
-4.077000 2.151000
-4.048900 2.075200
-4.020700 1.936000
-3.992500 1.719100
-3.964300 1.629900
-3.936100 1.542400
-3.907900 1.459400
-3.879700 1.375900
-3.851600 1.218600
-3.823400 1.174100
-3.795200 1.176100
-3.767000 1.179200
-3.738800 1.183100
-3.710600 1.185600
-3.682400 1.186400
-3.654300 1.185500
-3.626100 1.225800
-3.597900 1.213800
-3.569700 1.201000
-3.541500 1.187500
-3.513300 1.173200
-3.485100 1.158200
-3.457000 1.149100
-3.428800 1.144300
-3.400600 1.140400
-3.372400 1.137000
-3.344200 1.133700
-3.316000 1.130500
-3.287800 1.127300
-3.259700 1.124200
-3.231500 1.121200
-3.203300 1.118300
-3.175100 1.115400
-3.146900 1.112700
-3.118700 1.110000
-3.090500 1.107400
-3.062400 1.104800
-3.034200 1.102400
-3.006000 1.100000
-2.977800 1.097700
-2.949600 1.095500
-2.921400 1.058500
-2.893200 1.061800
-2.865100 1.065200
-2.836900 1.068700
-2.808700 1.072300
-2.780500 1.075900
-2.752300 1.263800
-2.724100 1.349400
-2.695900 1.428600
-2.667800 1.639700
-2.639600 1.744200
-2.611400 2.283400
-2.583200 2.602400
-2.555000 2.912100
-2.526800 3.820200
-2.498600 3.289400
-2.470500 2.322700
-2.442300 1.368800
-2.414100 1.497200
-2.385900 1.587300
-2.357700 1.682600
-2.329500 1.780200
-2.301300 1.880200
-2.273200 2.069100
-2.245000 2.156600
-2.216800 2.227200
-2.188600 2.280800
-2.160400 2.134200
-2.132200 2.134300
-2.104000 2.147700
-2.075900 2.174300
-2.047700 2.214100
-2.019500 2.267200
-1.991300 2.363500
-1.963100 2.389400
-1.934900 2.396200
-1.906700 2.334200
-1.878600 2.241000
-1.850400 2.132700
-1.822200 1.971300
-1.794000 1.899000
-1.765800 1.883500
-1.737600 1.868700
-1.709400 1.854700
-1.681300 1.843100
-1.653100 1.837600
-1.624900 1.838300
-1.596700 1.845300
-1.568500 1.864100
-1.540300 1.878600
-1.512100 1.884700
-1.484000 1.897000
-1.455800 1.915500
-1.427600 1.940000
-1.399400 1.970700
-1.371200 2.055700
-1.343000 2.094500
-1.314800 2.136100
-1.286700 2.180300
-1.258500 2.227300
-1.230300 2.282300
-1.202100 2.858300
-1.173900 2.914400
-1.145700 3.167800
-1.117500 3.395300
-1.089400 3.547500
-1.061200 3.534500
-1.033000 3.539900
-1.004800 3.549200
-0.976600 3.640200
-0.948400 4.138300
-0.920200 3.857900
-0.892100 3.544300
-0.863900 3.149300
-0.835700 3.043800
-0.807500 2.945300
-0.779300 2.854100
-0.751100 2.772400
-0.722900 2.825800
-0.694800 2.855900
-0.666600 3.225000
-0.638400 3.396400
-0.610200 3.848100
-0.582000 4.181400
-0.553800 4.680700
-0.525600 4.625400
-0.497500 4.726500
-0.469300 4.933000
-0.441100 4.870300
-0.412900 4.728000
-0.384700 4.620800
-0.356500 4.548500
-0.328300 5.602200
-0.300200 5.945500
-0.272000 5.681900
-0.243800 5.152400
-0.215600 4.198100
-0.187400 3.180800
-0.159200 2.348500
-0.131000 1.887400
-0.102900 1.459800
-0.074700 1.124200
-0.046500 1.050200
-0.018300 0.980100
0.009900 0.913900
0.038100 0.851700
0.066300 0.773500
0.094400 0.722200
0.122600 0.674200
0.150800 0.629600
0.179000 0.588400
0.207200 0.550500
0.235400 0.592700
0.263600 0.573700
0.291700 0.551900
0.319900 0.527200
0.348100 0.499800
0.376300 0.469500
0.404500 0.381700
0.432700 0.335700
0.460900 0.292600
0.489000 0.252400
0.517200 0.214900
0.545400 0.180400
0.573600 0.148600
0.601800 0.119800
0.630000 0.093700
0.658200 0.070500
0.686300 0.050200
0.714500 0.032700
0.742700 0.018000
0.770900 0.006700
0.799100 0.000800
0.827300 0.000200
0.855500 0.001600
0.883600 0.073100
0.911800 0.093300
0.940000 0.116000
0.968200 0.141400
0.996400 0.169200
1.024600 0.199700
1.052800 0.232700
1.080900 0.268300
1.109100 0.306400
1.137300 0.347100
1.165500 0.390400
1.193700 0.683800
1.221900 0.760100
1.250100 1.303000
1.278200 0.826100
1.306400 0.883600
1.334600 0.941400
1.362800 0.999400
1.391000 1.057700
1.419200 1.116400
1.447400 1.179500
1.475500 1.178500
1.503700 1.231700
1.531900 1.308700
1.560100 1.393000
1.588300 1.479200
1.616500 1.602700
1.644700 1.734400
1.672800 1.874200
1.701000 2.023000
1.729200 2.184900
1.757400 2.248600
1.785600 2.472300
1.813800 2.769600
1.842000 3.133600
1.870100 3.564300
1.898300 3.952400
1.926500 4.293200
1.954700 4.690600
1.982900 5.055700
2.011100 4.946600
2.039300 4.329200
2.067400 3.879900
2.095600 3.550900
2.123800 4.806100
2.152000 4.445100
2.180200 4.520800
2.208400 4.696400
2.236600 4.668300
2.264700 4.757500
2.292900 4.353100
2.321100 4.246400
2.349300 4.117300
2.377500 4.189100
2.405700 4.062000
2.433900 3.878200
2.462000 3.580800
2.490200 2.280300
2.518400 1.953300
2.546600 1.673500
2.574800 1.440800
2.603000 1.255300
2.631200 1.078700
2.659300 0.987700
2.687500 0.942500
2.715700 0.872700
2.743900 0.813100
2.772100 0.763800
2.800300 0.724800
2.828500 0.696000
2.856600 0.677400
2.884800 0.669200
2.913000 0.668000
2.941200 0.670800
2.969400 0.677400
2.997600 0.688200
3.025800 0.641000
3.053900 0.677900
3.082100 1.765700
3.110300 2.495000
3.138500 3.539500
3.166700 4.108100
3.194900 4.419800
3.223100 4.285300
3.251200 4.269900
3.279400 4.198600
3.307600 4.127600
3.335800 4.285900
3.364000 5.470500
3.392200 3.710200
3.420400 3.306800
3.448500 2.976100
3.476700 2.708800
3.504900 2.689800
3.533100 2.677100
3.561300 2.683000
3.589500 2.707700
3.617700 2.751000
3.645800 2.706300
3.674000 2.415700
3.702200 2.237800
3.730400 2.068600
3.758600 1.908000
3.786800 1.835300
3.815000 1.811900
3.843100 1.734800
3.871300 1.745600
3.899500 1.829400
3.927700 1.853700
3.955900 1.879400
3.984100 1.908400
4.012300 1.941800
4.040400 2.117200
4.068600 2.200400
4.096800 2.388600
4.125000 2.488500
4.153200 2.473200
4.181400 2.471300
4.209600 2.507500
4.237700 2.673800
4.265900 2.724000
4.294100 2.792400
4.322300 2.856700
4.350500 2.901600
4.378700 2.919000
4.406900 2.966800
4.435000 3.013300
4.463200 3.082600
4.491400 3.143300
4.519600 3.206400
4.547800 3.264600
4.576000 3.456500
4.604200 3.527300
4.632300 3.565800
4.660500 3.299100
4.688700 3.300700
4.716900 3.349900
4.745100 3.376500
4.773300 3.386700
4.801500 3.392800
4.829600 3.395000
4.857800 3.387900
4.886000 3.356800
4.914200 3.343500
4.942400 3.307400
4.970600 3.477700
4.998800 3.244600
5.026900 3.193100
5.055100 3.171200
5.083300 3.142000
5.111500 3.105400
5.139700 3.420600
5.167900 2.742700
5.196100 2.636700
5.224200 2.534600
5.252400 2.436600
5.280600 2.311300
5.308800 2.217300
5.337000 2.126300
5.365200 2.050500
5.393400 1.973100
5.421500 1.900200
5.449700 1.828100
5.477900 1.778700
5.506100 1.715900
5.534300 1.662500
5.562500 1.693000
5.590700 1.544100
5.618800 1.416300
5.647000 1.340900
5.675200 1.266500
5.703400 1.194900
5.731600 1.134500
5.759800 1.075800
5.788000 1.029700
5.816100 0.977100
5.844300 0.925200
5.872500 0.874100
5.900700 0.788600
5.928900 0.730900
5.957100 0.675400
5.985300 0.622000
6.013400 0.570800
6.041600 0.521800
6.069800 0.490800
6.098000 0.410400
6.126200 0.343500
6.154400 0.295700
6.182600 0.257200
6.210700 0.228200
6.238900 0.207400
6.267100 0.122100
6.295300 0.108500
6.323500 0.092900
6.351700 0.075400
6.379900 0.000000
6.408000 0.000000
6.436200 0.000000
6.464400 0.000000
6.492600 0.000000
6.520800 0.000000
6.549000 0.000000
6.577200 0.000000
6.605300 0.000000
6.633500 0.000000
6.661700 0.000000
6.689900 0.000000
6.718100 0.000000
6.746300 0.000000
6.774500 0.000000
6.802600 0.000000
6.830800 0.000000
6.859000 0.000000
6.887200 0.000000
6.915400 0.000000
6.943600 0.000000
6.971800 0.000000
6.999900 0.000000
7.028100 0.000000
7.056300 0.000000
7.084500 0.000000
7.112700 0.000000
7.140900 0.000000
7.169100 0.000000
7.197200 0.000000
7.225400 0.000000
7.253600 0.000000
7.281800 0.000000
7.310000 0.000000
7.338200 0.000000
7.366400 0.000000
7.394500 0.000000
7.422700 0.000000
7.450900 0.000000
7.479100 0.000000
7.507300 0.000000
7.535500 0.000000
7.563700 0.000000
7.591800 0.000000
7.620000 0.000000
7.648200 0.000000
7.676400 0.000000
7.704600 0.000000
7.732800 0.000000
7.761000 0.000000
7.789100 0.000000
7.817300 0.000000
7.845500 0.000000
7.873700 0.000000
7.901900 0.000000
7.930100 0.000000
7.958300 0.000000
7.986400 0.000000
8.014600 0.000000
8.042800 0.000000
8.071000 0.000000
8.099200 0.000000
8.127400 0.000000
8.155600 0.000000
8.183700 0.000000
8.211900 0.000000
8.240100 0.000000
8.268300 0.000000
8.296500 0.000000
8.324700 0.000000
8.352900 0.000000
8.381000 0.000000
8.409200 0.000000
8.437400 0.000000
8.465600 0.000000
8.493800 0.000000
8.522000 0.000000
8.550200 0.000000
8.578300 0.000000
8.606500 0.000000
8.634700 0.000000
8.662900 0.000000
8.691100 0.000000
8.719300 0.000000
8.747500 0.000000
8.775600 0.000000
8.803800 0.000000
8.832000 0.000000
8.860200 0.000000
8.888400 0.000000
8.916600 0.000000
8.944800 0.000000
8.972900 0.000000
9.001100 0.000000
9.029300 0.000000
9.057500 0.000000
9.085700 0.000000
9.113900 0.000000
9.142100 0.000000
9.170200 0.000000
9.198400 0.000000
9.226600 0.000000
9.254800 0.000000
9.283000 0.000000
9.311200 0.000000
9.339400 0.000000
9.367500 0.000000
9.395700 0.000000
9.423900 0.000000
9.452100 0.000000
9.480300 0.000000
9.508500 0.000000
9.536700 0.000000
9.564800 0.000000
9.593000 0.004900
9.621200 0.026100
9.649400 0.064100
9.677600 0.119000
9.705800 0.190800
9.734000 0.279400
9.762100 0.384800
9.790300 0.507100
9.818500 0.798600
9.846700 0.969900
9.874900 1.147000
9.903100 2.325600
9.931300 2.689200
9.959400 2.872300
9.987600 2.999400
10.015800 2.554800
10.044000 2.488800
10.072200 2.409100
10.100400 2.315700
10.128600 2.208500
10.156700 2.087500
10.184900 1.850500
10.213100 1.718700
10.241300 1.647600
10.269500 1.618800
10.297700 1.531300
10.325900 1.455900
10.354000 1.392700
10.382200 1.341700
10.410400 1.264700
10.438600 1.214700
10.466800 1.168200
10.495000 1.495600
10.523200 1.406100
10.551300 1.354100
10.579500 1.339500
10.607700 1.352300
10.635900 1.384800
10.664100 1.437100
10.692300 1.509100
10.720500 1.636600
10.748600 1.804300
10.776800 1.945700
10.805000 2.047900
10.833200 2.110100
10.861400 2.162300
10.889600 2.231800
10.917800 2.291600
10.945900 2.341400
10.974100 2.459700
11.002300 2.575500
11.030500 2.688600
11.058700 2.799000
11.086900 2.906500
11.115100 2.953200
11.143200 3.047500
11.171400 3.145000
11.199600 3.249100
11.227800 3.387800
11.256000 3.525400
11.284200 3.649600
11.312400 3.777000
11.340500 3.896400
11.368700 4.069200
11.396900 4.057300
11.425100 4.094200
11.453300 3.989700
11.481500 3.691000
11.509700 3.511800
11.537800 3.381100
11.566000 3.272600
11.594200 3.213400
11.622400 3.151600
11.650600 3.087200
11.678800 3.020300
11.707000 3.182700
11.735100 3.263500
11.763300 3.427600
11.791500 3.442900
11.819700 3.271400
11.847900 3.066100
11.876100 2.758400
11.904300 2.143300
11.932400 2.113900
11.960600 2.095000
11.988800 2.086500
12.017000 2.088500
12.045200 2.110300
12.073400 2.290200
12.101600 2.431200
12.129700 4.029200
12.157900 2.151800
12.186100 1.240600
12.214300 0.546300
12.242500 0.446400
12.270700 0.354700
12.298900 0.271300
12.327000 0.196200
12.355200 0.000000
12.383400 0.000000
12.411600 0.000000
12.439800 0.000000
12.468000 0.089800
12.496200 0.121100
12.524300 0.156400
12.552500 0.195700
12.580700 0.239000
12.608900 0.286300
12.637100 0.337600
