set title 'mp-1207019 - Density of States'
set xlabel 'Energy (eV)'
set ylabel 'DOS (states/eV)'
set grid
set xrange [-10:10]
set yrange [0:3.883]
set xzeroaxis lt -1
set terminal png size 800,600
set output 'mp-1207019_dos_gnuplot.png'
plot '-' using 1:2 with lines title 'DOS'
-21.423100 0.000000
-21.357500 0.000000
-21.291900 0.000000
-21.226200 0.000000
-21.160600 0.000000
-21.095000 0.000000
-21.029300 0.000000
-20.963700 0.000000
-20.898100 0.000000
-20.832400 0.000000
-20.766800 0.000000
-20.701200 0.000000
-20.635500 0.000000
-20.569900 0.000000
-20.504300 0.000000
-20.438600 0.000000
-20.373000 0.000000
-20.307400 0.000000
-20.241700 0.000000
-20.176100 0.000000
-20.110500 0.000000
-20.044900 0.000000
-19.979200 0.000000
-19.913600 0.000000
-19.848000 0.000000
-19.782300 0.000000
-19.716700 0.000000
-19.651100 0.000000
-19.585400 0.000000
-19.519800 0.000000
-19.454200 0.000000
-19.388500 0.000000
-19.322900 0.000000
-19.257300 0.000000
-19.191600 0.000000
-19.126000 0.000000
-19.060400 0.000000
-18.994800 0.000000
-18.929100 0.000000
-18.863500 0.000000
-18.797900 0.000000
-18.732200 0.000000
-18.666600 0.000000
-18.601000 0.000000
-18.535300 0.000000
-18.469700 0.000000
-18.404100 0.000000
-18.338400 0.000000
-18.272800 0.000000
-18.207200 0.000000
-18.141500 0.000000
-18.075900 0.000000
-18.010300 0.000000
-17.944600 0.000000
-17.879000 0.000000
-17.813400 0.000000
-17.747800 0.000000
-17.682100 0.000000
-17.616500 0.000000
-17.550900 0.000000
-17.485200 0.000000
-17.419600 0.000000
-17.354000 0.000000
-17.288300 0.000000
-17.222700 0.000000
-17.157100 0.000000
-17.091400 0.000000
-17.025800 0.000000
-16.960200 0.000000
-16.894500 0.000000
-16.828900 0.000000
-16.763300 0.000000
-16.697700 0.000000
-16.632000 0.000000
-16.566400 0.000000
-16.500800 0.000000
-16.435100 0.000000
-16.369500 0.000000
-16.303900 0.000000
-16.238200 0.000000
-16.172600 0.000000
-16.107000 0.000000
-16.041300 0.000000
-15.975700 0.000000
-15.910100 0.000000
-15.844400 0.000000
-15.778800 0.000000
-15.713200 0.000000
-15.647500 0.000000
-15.581900 0.000000
-15.516300 0.000000
-15.450700 0.031600
-15.385000 0.134400
-15.319400 0.182400
-15.253800 0.231500
-15.188100 0.267800
-15.122500 0.309500
-15.056900 0.345500
-14.991200 0.380900
-14.925600 0.419300
-14.860000 0.458200
-14.794300 0.497200
-14.728700 0.539100
-14.663100 0.583000
-14.597400 0.633400
-14.531800 0.688300
-14.466200 0.746700
-14.400500 0.809400
-14.334900 0.896300
-14.269300 0.994400
-14.203700 1.104100
-14.138000 1.242300
-14.072400 1.468300
-14.006800 1.768300
-13.941100 2.400500
-13.875500 2.951800
-13.809900 3.815400
-13.744200 4.169800
-13.678600 2.814000
-13.613000 0.000000
-13.547300 0.000000
-13.481700 0.000000
-13.416100 0.000000
-13.350400 0.000000
-13.284800 0.000000
-13.219200 0.000000
-13.153600 0.000000
-13.087900 0.000000
-13.022300 0.000000
-12.956700 0.000000
-12.891000 0.000000
-12.825400 0.000000
-12.759800 0.000000
-12.694100 0.000000
-12.628500 0.000000
-12.562900 0.000000
-12.497200 0.000000
-12.431600 0.000000
-12.366000 0.000000
-12.300300 0.000000
-12.234700 0.000000
-12.169100 0.000000
-12.103400 0.000000
-12.037800 0.000000
-11.972200 0.000000
-11.906600 0.000000
-11.840900 0.026400
-11.775300 0.294900
-11.709700 0.493900
-11.644000 0.672000
-11.578400 0.902700
-11.512800 1.255500
-11.447100 1.638000
-11.381500 1.671300
-11.315900 1.705500
-11.250200 1.775700
-11.184600 1.907100
-11.119000 2.196000
-11.053300 2.940100
-10.987700 2.196600
-10.922100 2.001600
-10.856500 1.794700
-10.790800 1.750900
-10.725200 0.898700
-10.659600 0.730600
-10.593900 0.621500
-10.528300 0.534500
-10.462700 0.466200
-10.397000 0.405300
-10.331400 0.352700
-10.265800 0.305400
-10.200100 0.259400
-10.134500 0.212600
-10.068900 0.173500
-10.003200 0.114000
-9.937600 0.033400
-9.872000 0.000000
-9.806300 0.000000
-9.740700 0.000000
-9.675100 0.000000
-9.609500 0.000000
-9.543800 0.000000
-9.478200 0.000000
-9.412600 0.000000
-9.346900 0.000000
-9.281300 0.000000
-9.215700 0.000000
-9.150000 0.000000
-9.084400 0.000000
-9.018800 0.000000
-8.953100 0.000000
-8.887500 0.000000
-8.821900 0.000000
-8.756200 0.000000
-8.690600 0.000000
-8.625000 0.000000
-8.559300 0.000000
-8.493700 0.000000
-8.428100 0.000000
-8.362500 0.000000
-8.296800 0.000000
-8.231200 0.000000
-8.165600 0.000000
-8.099900 0.000000
-8.034300 0.000000
-7.968700 0.000000
-7.903000 0.000000
-7.837400 0.000000
-7.771800 0.000000
-7.706100 0.000000
-7.640500 0.000000
-7.574900 0.000000
-7.509200 0.000000
-7.443600 0.000000
-7.378000 0.000000
-7.312400 0.000000
-7.246700 0.000000
-7.181100 0.000000
-7.115500 0.000000
-7.049800 0.000000
-6.984200 0.000000
-6.918600 0.000000
-6.852900 0.000000
-6.787300 0.000000
-6.721700 0.000000
-6.656000 0.000000
-6.590400 0.000000
-6.524800 0.000000
-6.459100 0.000000
-6.393500 0.000000
-6.327900 0.000000
-6.262200 0.000000
-6.196600 0.000000
-6.131000 0.000000
-6.065400 0.000000
-5.999700 0.000000
-5.934100 0.000000
-5.868500 0.000000
-5.802800 0.000000
-5.737200 0.000000
-5.671600 0.000000
-5.605900 0.000000
-5.540300 0.000000
-5.474700 0.000000
-5.409000 0.000000
-5.343400 0.000000
-5.277800 0.000000
-5.212100 0.000000
-5.146500 0.000000
-5.080900 0.000000
-5.015300 0.000000
-4.949600 0.000000
-4.884000 0.000000
-4.818400 0.000000
-4.752700 0.000000
-4.687100 0.000000
-4.621500 0.000000
-4.555800 0.000000
-4.490200 0.000000
-4.424600 0.000000
-4.358900 0.000000
-4.293300 0.000000
-4.227700 0.000000
-4.162000 0.000000
-4.096400 0.000000
-4.030800 0.000000
-3.965100 0.000000
-3.899500 0.000000
-3.833900 0.000000
-3.768300 0.000000
-3.702600 0.000000
-3.637000 0.000000
-3.571400 0.000000
-3.505700 0.000000
-3.440100 0.000000
-3.374500 0.000000
-3.308800 0.000000
-3.243200 0.124300
-3.177600 0.203600
-3.111900 0.261400
-3.046300 0.286900
-2.980700 0.345600
-2.915000 0.395400
-2.849400 0.413700
-2.783800 0.456100
-2.718200 0.500700
-2.652500 0.551900
-2.586900 0.624200
-2.521300 0.667500
-2.455600 0.673100
-2.390000 0.682900
-2.324400 0.665300
-2.258700 0.662800
-2.193100 0.688100
-2.127500 0.811100
-2.061800 0.837900
-1.996200 0.885500
-1.930600 0.964800
-1.864900 1.190300
-1.799300 1.492900
-1.733700 1.775200
-1.668000 1.726200
-1.602400 1.681000
-1.536800 1.662300
-1.471200 1.589300
-1.405500 1.523500
-1.339900 1.506200
-1.274300 1.500200
-1.208600 1.481500
-1.143000 1.454200
-1.077400 1.427300
-1.011700 1.400100
-0.946100 1.367500
-0.880500 1.346900
-0.814800 1.322800
-0.749200 1.314900
-0.683600 1.320100
-0.617900 1.331800
-0.552300 1.408200
-0.486700 1.538000
-0.421000 1.864200
-0.355400 1.836500
-0.289800 1.820400
-0.224200 1.813500
-0.158500 1.610000
-0.092900 1.577500
-0.027300 1.608500
0.038400 1.632800
0.104000 1.687500
0.169600 1.811300
0.235300 1.970100
0.300900 1.879800
0.366500 1.684700
0.432200 1.586800
0.497800 1.541600
0.563400 1.524200
0.629100 1.495100
0.694700 1.540800
0.760300 1.438000
0.825900 1.439400
0.891600 1.440400
0.957200 1.506100
1.022800 1.443000
1.088500 1.344800
1.154100 1.346500
1.219700 1.968200
1.285400 1.720700
1.351000 1.488900
1.416600 1.385800
1.482300 1.312200
1.547900 1.114800
1.613500 0.889900
1.679200 0.939800
1.744800 1.022100
1.810400 1.058700
1.876100 1.106500
1.941700 1.123600
2.007300 1.116100
2.072900 1.146400
2.138600 1.184200
2.204200 1.191800
2.269800 1.244700
2.335500 1.297400
2.401100 1.230400
2.466700 1.178500
2.532400 1.137000
2.598000 1.106000
2.663600 1.081700
2.729300 1.065600
2.794900 1.196300
2.860500 1.361100
2.926200 1.356100
2.991800 1.372800
3.057400 1.390700
3.123000 1.401500
3.188700 1.404100
3.254300 1.412800
3.319900 1.425800
3.385600 1.440000
3.451200 1.453100
3.516800 1.469100
3.582500 1.487000
3.648100 1.507400
3.713700 1.535200
3.779400 1.569100
3.845000 1.612000
3.910600 1.660700
3.976300 1.707300
4.041900 1.750100
4.107500 1.807300
4.173200 1.887500
4.238800 1.966600
4.304400 2.054700
4.370000 2.193800
4.435700 2.349200
4.501300 2.376500
4.566900 2.571400
4.632600 2.970500
4.698200 3.529700
4.763800 3.079800
4.829500 2.598800
4.895100 2.286800
4.960700 1.861600
5.026400 1.418700
5.092000 1.153600
5.157600 1.170100
5.223300 0.993100
5.288900 0.652000
5.354500 0.273100
5.420200 0.076500
5.485800 0.000000
5.551400 0.000000
5.617000 0.000000
5.682700 0.000000
5.748300 0.000000
5.813900 0.000000
5.879600 0.000000
5.945200 0.000000
6.010800 0.000000
6.076500 0.000000
6.142100 0.000000
6.207700 0.000000
6.273400 0.000000
6.339000 0.000000
6.404600 0.000000
6.470300 0.000000
6.535900 0.000000
6.601500 0.000000
6.667100 0.000000
6.732800 0.000000
6.798400 0.000000
6.864000 0.000000
6.929700 0.000000
6.995300 0.000000
7.060900 0.000000
7.126600 0.000000
7.192200 0.000000
7.257800 0.000000
7.323500 0.000000
7.389100 0.000000
7.454700 0.000000
7.520400 0.000000
7.586000 0.000000
7.651600 0.000000
7.717300 0.000000
7.782900 0.000000
7.848500 0.000000
7.914100 0.000000
7.979800 0.000000
8.045400 0.000000
8.111000 0.000000
8.176700 0.000000
8.242300 0.000000
8.307900 0.000000
8.373600 0.000000
8.439200 0.000000
8.504800 0.000000
8.570500 0.000000
8.636100 0.000000
8.701700 0.000000
8.767400 0.000000
8.833000 0.000000
8.898600 0.000000
8.964200 0.000000
9.029900 0.000000
9.095500 0.000000
9.161100 0.000000
9.226800 0.000000
9.292400 0.000000
9.358000 0.000000
9.423700 0.000000
9.489300 0.000000
9.554900 0.000000
9.620600 0.000000
9.686200 0.000000
9.751800 0.000000
9.817500 0.000000
9.883100 0.000000
9.948700 0.000000
10.014400 0.000000
10.080000 0.000000
10.145600 0.000000
10.211200 0.000000
10.276900 0.043300
10.342500 0.067700
10.408100 0.087800
10.473800 0.099400
10.539400 0.118700
10.605000 0.138900
10.670700 0.152400
10.736300 0.164000
10.801900 0.173200
10.867600 0.183800
10.933200 0.195900
10.998800 0.208200
11.064500 0.220900
11.130100 0.233400
11.195700 0.244400
11.261300 0.256200
11.327000 0.266900
11.392600 0.277500
11.458200 0.288500
11.523900 0.300200
11.589500 0.312200
11.655100 0.324500
11.720800 0.336700
11.786400 0.349400
11.852000 0.362500
11.917700 0.376200
11.983300 0.390200
12.048900 0.404800
12.114600 0.420300
12.180200 0.436300
12.245800 0.453900
12.311500 0.473600
12.377100 0.496000
12.442700 0.519800
12.508300 0.545600
12.574000 0.573600
12.639600 0.604100
12.705200 0.638800
12.770900 0.686600
12.836500 0.795000
12.902100 1.052100
12.967800 1.160000
13.033400 1.181800
13.099000 1.268000
13.164700 1.262300
13.230300 1.184100
13.295900 1.162100
13.361600 1.159700
13.427200 1.073100
13.492800 1.038400
13.558500 0.948300
13.624100 0.879100
13.689700 0.783400
13.755300 0.705600
13.821000 0.677800
13.886600 0.616700
13.952200 0.583400
14.017900 0.551800
14.083500 0.529900
14.149100 0.483000
14.214800 0.399200
14.280400 0.347400
14.346000 0.276400
14.411700 0.273800
14.477300 0.281700
14.542900 0.309500
14.608600 0.353900
14.674200 0.428400
14.739800 0.562000
14.805400 0.661100
14.871100 0.709200
14.936700 0.757000
15.002300 0.765100
15.068000 0.788900
15.133600 0.829000
15.199200 0.869300
15.264900 0.872000
15.330500 0.892700
15.396100 0.910800
15.461800 0.927400
15.527400 0.953100
15.593000 0.974800
15.658700 0.972400
15.724300 0.971300
15.789900 0.985000
15.855600 1.010600
15.921200 1.055400
15.986800 1.131400
16.052400 1.134100
16.118100 1.145900
16.183700 1.227000
16.249300 1.321500
16.315000 1.391400
16.380600 1.369200
16.446200 1.309800
16.511900 1.320800
16.577500 1.304200
16.643100 1.307600
16.708800 1.272200
16.774400 1.220800
16.840000 0.969800
16.905700 0.815500
16.971300 0.737500
17.036900 0.723900
17.102500 0.828900
17.168200 0.979200
17.233800 1.174100
17.299400 1.339800
17.365100 1.504200
17.430700 1.761600
17.496300 1.788200
17.562000 1.755400
17.627600 1.771500
17.693200 1.864500
17.758900 1.773200
17.824500 1.536900
17.890100 1.463000
17.955800 1.477600
18.021400 1.524000
18.087000 1.467400
18.152700 1.448600
18.218300 1.327700
18.283900 1.253500
18.349500 1.227500
18.415200 1.226200
18.480800 1.211900
18.546400 1.258400
18.612100 1.330600
18.677700 1.313300
18.743300 1.334200
18.809000 1.351700
18.874600 1.359100
18.940200 1.368300
19.005900 1.400700
19.071500 1.448100
19.137100 1.495000
19.202800 1.495900
19.268400 1.560600
19.334000 1.587300
19.399700 1.563400
19.465300 1.526600
19.530900 1.525000
19.596500 1.532100
19.662200 1.529700
19.727800 1.505300
19.793400 1.405300
19.859100 1.422800
19.924700 1.434400
19.990300 1.415600
20.056000 1.335700
20.121600 1.291300
20.187200 1.325000
20.252900 1.302100
20.318500 1.239600
20.384100 1.291200
20.449800 1.328800
20.515400 1.355400
20.581000 1.271700
20.646600 1.282000
20.712300 1.322500
20.777900 1.313600
20.843500 1.432700
20.909200 1.291400
20.974800 1.177400
21.040400 0.939500
21.106100 0.812500
21.171700 0.712800
21.237300 0.652000
21.303000 0.635400
21.368600 0.612400
21.434200 0.594800
21.499900 0.598900
21.565500 0.626000
21.631100 0.671000
21.696800 0.681000
21.762400 0.716400
21.828000 0.811300
21.893600 0.910700
21.959300 0.911900
22.024900 0.845600
22.090500 0.810800
22.156200 0.787500
22.221800 0.725600
22.287400 0.719800
22.353100 0.718000
22.418700 0.683900
22.484300 0.653300
22.550000 0.669800
22.615600 0.691200
22.681200 0.719600
22.746900 0.752700
22.812500 0.779100
22.878100 0.830200
22.943700 0.946100
23.009400 0.882400
23.075000 0.863800
23.140600 0.891400
23.206300 0.891100
23.271900 0.896600
23.337500 0.923700
23.403200 0.959900
23.468800 0.988600
23.534400 1.002000
23.600100 1.003100
23.665700 0.988800
23.731300 0.949300
23.797000 0.868900
23.862600 0.840800
23.928200 0.810400
23.993900 0.777100
24.059500 0.764900
24.125100 0.777700
24.190700 0.776700
24.256400 0.776600
24.322000 0.753400
24.387600 0.762400
24.453300 0.765500
24.518900 0.798700
24.584500 0.876100
24.650200 0.900300
24.715800 0.932500
24.781400 0.978700
24.847100 1.025700
24.912700 1.086400
24.978300 1.136100
25.044000 1.182200
25.109600 1.199200
25.175200 1.209500
25.240800 1.194900
25.306500 1.243000
25.372100 1.244900
25.437700 1.040600
25.503400 1.011100
25.569000 0.981400
25.634600 0.959300
25.700300 0.952800
25.765900 0.933500
25.831500 0.963600
25.897200 0.949600
25.962800 0.983300
26.028400 0.940100
26.094100 0.935100
26.159700 0.916400
26.225300 0.947000
26.291000 0.978900
26.356600 0.958100
26.422200 0.928800
26.487800 0.899700
26.553500 0.888300
26.619100 0.926600
26.684700 0.966800
26.750400 0.976100
26.816000 0.943400
26.881600 0.864700
26.947300 0.823600
27.012900 0.800700
27.078500 0.831500
27.144200 0.874200
27.209800 0.989600
27.275400 1.014000
27.341100 1.111100
27.406700 1.310400
27.472300 1.517300
27.538000 1.173400
27.603600 1.133100
27.669200 1.148600
27.734800 1.141400
27.800500 1.170300
27.866100 1.144600
27.931700 1.127800
27.997400 1.129000
28.063000 1.174400
28.128600 1.164500
28.194300 1.160800
28.259900 1.147700
28.325500 1.176300
28.391200 1.230700
28.456800 1.302000
28.522400 1.426400
28.588100 1.368700
28.653700 1.324300
28.719300 1.304500
28.784900 1.302500
28.850600 1.319100
28.916200 1.340200
28.981800 1.386100
29.047500 1.486100
29.113100 1.577000
29.178700 1.690600
29.244400 1.556200
29.310000 1.430600
29.375600 1.438500
29.441300 1.434400
29.506900 1.427500
29.572500 1.413800
29.638200 1.392000
29.703800 1.400100
29.769400 1.412600
29.835100 1.428400
29.900700 1.290300
29.966300 1.262800
30.031900 1.273600
30.097600 1.301200
30.163200 1.397400
30.228800 1.477900
30.294500 1.546000
30.360100 1.477300
30.425700 1.528800
30.491400 1.530500
30.557000 1.667500
30.622600 1.749200
30.688300 1.815200
30.753900 1.676100
30.819500 1.602700
30.885200 1.655900
30.950800 1.736500
31.016400 1.874800
31.082000 2.142400
31.147700 1.991900
31.213300 1.813400
31.278900 1.699800
31.344600 1.624800
31.410200 1.601500
31.475800 1.547000
31.541500 1.513500
31.607100 1.592900
31.672700 1.563700
31.738400 1.535800
31.804000 1.514000
31.869600 1.541300
31.935300 1.611700
32.000900 1.697100
32.066500 1.752100
32.132200 1.736200
32.197800 1.695900
32.263400 1.609100
32.329000 1.620900
32.394700 1.624500
32.460300 1.731800
32.525900 1.705200
32.591600 1.722800
32.657200 1.716300
32.722800 1.511800
32.788500 1.453000
32.854100 1.422600
32.919700 1.373200
32.985400 1.354600
33.051000 1.304500
33.116600 1.235300
33.182300 1.200500
33.247900 1.170200
33.313500 1.213100
33.379200 1.211100
33.444800 1.209200
33.510400 1.209100
33.576000 1.259600
33.641700 1.279500
33.707300 1.309300
33.772900 1.327400
33.838600 1.370000
33.904200 1.421100
33.969800 1.472000
34.035500 1.512200
34.101100 1.528900
34.166700 1.577300
34.232400 1.611600
34.298000 1.652400
34.363600 1.741300
34.429300 1.656100
34.494900 1.606600
34.560500 1.658500
34.626100 1.538600
34.691800 1.662900
34.757400 1.532900
34.823000 1.386300
34.888700 1.216900
34.954300 1.119800
35.019900 1.107100
35.085600 1.054100
35.151200 1.025600
35.216800 1.010600
35.282500 1.006100
35.348100 1.024900
35.413700 1.021000
35.479400 1.027800
35.545000 1.045700
35.610600 1.098400
35.676300 1.181200
35.741900 1.195500
35.807500 1.189900
35.873100 1.206500
35.938800 1.187800
36.004400 1.210100
36.070000 1.193500
36.135700 1.195800
36.201300 1.169100
36.266900 1.136300
36.332600 1.119100
36.398200 1.095300
36.463800 1.110400
36.529500 1.159200
36.595100 1.173300
36.660700 1.229300
36.726400 1.224700
36.792000 1.170100
36.857600 1.127200
36.923200 1.085200
36.988900 1.043500
37.054500 1.023600
37.120100 1.014900
37.185800 0.993800
37.251400 1.100600
37.317000 1.095800
37.382700 1.143700
37.448300 1.213900
37.513900 1.308600
37.579600 1.377300
37.645200 1.393900
37.710800 1.394100
37.776500 1.313000
37.842100 1.279700
37.907700 1.330400
37.973400 1.324900
38.039000 1.356100
38.104600 1.346900
38.170200 1.354800
38.235900 1.309100
38.301500 1.315700
38.367100 1.452300
38.432800 1.466200
38.498400 1.461400
38.564000 1.452700
38.629700 1.440700
38.695300 1.440200
38.760900 1.447300
38.826600 1.610700
38.892200 1.573000
38.957800 1.522100
39.023500 1.488800
39.089100 1.468000
39.154700 1.453600
39.220300 1.468600
39.286000 1.474200
39.351600 1.516500
39.417200 1.568400
39.482900 1.567700
39.548500 1.512300
39.614100 1.477500
39.679800 1.461900
39.745400 1.446800
39.811000 1.428800
39.876700 1.420400
39.942300 1.400800
40.007900 1.424700
40.073600 1.440100
40.139200 1.372500
40.204800 1.299200
40.270500 1.275300
40.336100 1.271100
40.401700 1.291100
40.467300 1.301300
40.533000 1.326900
40.598600 1.312500
40.664200 1.334600
40.729900 1.346400
40.795500 1.343200
40.861100 1.292500
40.926800 1.300400
40.992400 1.300600
41.058000 1.356800
41.123700 1.311800
41.189300 1.303400
41.254900 1.302100
41.320600 1.307400
41.386200 1.320100
41.451800 1.349500
41.517500 1.411700
41.583100 1.447500
41.648700 1.476900
41.714300 1.475800
41.780000 1.479400
41.845600 1.569500
41.911200 1.681100
41.976900 1.429400
42.042500 1.362000
42.108100 1.353900
42.173800 1.303900
42.239400 1.298100
42.305000 1.312200
42.370700 1.375300
42.436300 1.505900
42.501900 1.626700
42.567600 1.626300
42.633200 1.647100
42.698800 1.656300
42.764400 1.700900
42.830100 1.700800
42.895700 1.674400
42.961300 1.558400
43.027000 1.505300
43.092600 1.433500
43.158200 1.370600
43.223900 1.370500
43.289500 1.419200
43.355100 1.459000
43.420800 1.470300
43.486400 1.474700
43.552000 1.447000
43.617700 1.404800
43.683300 1.471900
43.748900 1.461200
43.814600 1.462100
43.880200 1.476300
43.945800 1.443700
44.011400 1.365500
44.077100 1.318600
44.142700 1.353900
44.208300 1.414800
44.274000 1.426600
44.339600 1.494600
44.405200 1.606700
44.470900 1.669300
44.536500 1.713600
44.602100 1.701500
44.667800 1.711400
44.733400 1.710600
44.799000 1.649200
44.864700 1.605500
44.930300 1.587300
44.995900 1.558900
45.061500 1.568500
45.127200 1.514400
45.192800 1.469200
45.258400 1.429700
45.324100 1.362900
45.389700 1.329800
45.455300 1.314100
45.521000 1.306500
45.586600 1.308000
45.652200 1.330300
45.717900 1.370500
45.783500 1.393300
45.849100 1.421200
45.914800 1.463100
45.980400 1.462800
46.046000 1.565700
46.111700 1.635000
46.177300 1.621500
46.242900 1.569900
46.308500 1.550800
46.374200 1.552800
46.439800 1.585700
46.505400 1.665100
