set title 'mp-1007857 - Density of States'
set xlabel 'Energy (eV)'
set ylabel 'DOS (states/eV)'
set grid
set xrange [-10:10]
set yrange [0:2.660]
set xzeroaxis lt -1
set terminal png size 800,600
set output 'mp-1007857_dos_gnuplot.png'
plot '-' using 1:2 with lines title 'DOS'
-13.676900 0.000000
-13.654500 0.000000
-13.632200 0.000000
-13.609800 0.000000
-13.587500 0.000000
-13.565100 0.000000
-13.542800 0.000000
-13.520400 0.000000
-13.498100 0.000000
-13.475700 0.000000
-13.453400 0.000000
-13.431000 0.000000
-13.408700 0.000000
-13.386300 0.000000
-13.364000 0.000000
-13.341600 0.000000
-13.319300 0.000000
-13.296900 0.000000
-13.274600 0.000000
-13.252200 0.000000
-13.229900 0.000000
-13.207500 0.000000
-13.185200 0.000000
-13.162800 0.000000
-13.140500 0.000000
-13.118100 0.000000
-13.095800 0.000000
-13.073400 0.000000
-13.051100 0.000000
-13.028700 0.000000
-13.006400 0.000000
-12.984000 0.000000
-12.961700 0.000000
-12.939300 0.000000
-12.917000 0.000000
-12.894600 0.000000
-12.872300 0.000000
-12.849900 0.000000
-12.827600 0.000000
-12.805200 0.000000
-12.782900 0.000000
-12.760500 0.000000
-12.738200 0.000000
-12.715800 0.000000
-12.693400 0.000000
-12.671100 0.000000
-12.648700 0.000000
-12.626400 0.000000
-12.604000 0.000000
-12.581700 0.000000
-12.559300 0.000000
-12.537000 0.000000
-12.514600 0.000000
-12.492300 0.000000
-12.469900 0.000000
-12.447600 0.000000
-12.425200 0.000000
-12.402900 0.000000
-12.380500 0.000000
-12.358200 0.000000
-12.335800 0.000000
-12.313500 0.000000
-12.291100 0.000000
-12.268800 0.000000
-12.246400 0.000000
-12.224100 0.000000
-12.201700 0.000000
-12.179400 0.000000
-12.157000 0.000000
-12.134700 0.000000
-12.112300 0.000000
-12.090000 0.000000
-12.067600 0.000000
-12.045300 0.000000
-12.022900 0.000000
-12.000600 0.000000
-11.978200 0.000000
-11.955900 0.000000
-11.933500 0.000000
-11.911200 0.000000
-11.888800 0.000000
-11.866500 0.000000
-11.844100 0.000000
-11.821800 0.000000
-11.799400 0.000000
-11.777000 0.000000
-11.754700 0.000000
-11.732300 0.000000
-11.710000 0.000000
-11.687600 0.000000
-11.665300 0.000000
-11.642900 1.286200
-11.620600 4.639200
-11.598200 12.398900
-11.575900 32.347900
-11.553500 57.113500
-11.531200 116.048000
-11.508800 140.590600
-11.486500 122.641400
-11.464100 103.286500
-11.441800 93.439600
-11.419400 55.463300
-11.397100 83.040500
-11.374700 144.949500
-11.352400 90.973400
-11.330000 137.654100
-11.307700 190.261200
-11.285300 108.525300
-11.263000 135.364800
-11.240600 74.818700
-11.218300 64.128000
-11.195900 16.961400
-11.173600 12.408600
-11.151200 4.343300
-11.128900 0.000000
-11.106500 0.000000
-11.084200 0.000000
-11.061800 0.000000
-11.039500 0.000000
-11.017100 0.000000
-10.994800 0.000000
-10.972400 0.000000
-10.950100 0.000000
-10.927700 0.000000
-10.905400 0.000000
-10.883000 0.000000
-10.860600 0.000000
-10.838300 0.000000
-10.815900 0.000000
-10.793600 0.000000
-10.771200 0.000000
-10.748900 0.000000
-10.726500 0.000000
-10.704200 0.000000
-10.681800 0.000000
-10.659500 0.000000
-10.637100 0.000000
-10.614800 0.000000
-10.592400 0.000000
-10.570100 0.000000
-10.547700 0.000000
-10.525400 0.000000
-10.503000 0.000000
-10.480700 0.000000
-10.458300 0.000000
-10.436000 0.000000
-10.413600 0.000000
-10.391300 0.000000
-10.368900 0.000000
-10.346600 0.000000
-10.324200 0.000000
-10.301900 0.000000
-10.279500 0.000000
-10.257200 0.000000
-10.234800 0.000000
-10.212500 0.000000
-10.190100 0.000000
-10.167800 0.000000
-10.145400 0.000000
-10.123100 0.000000
-10.100700 0.000000
-10.078400 0.000000
-10.056000 0.000000
-10.033700 0.000000
-10.011300 0.000000
-9.989000 0.000000
-9.966600 0.000000
-9.944200 0.000000
-9.921900 0.000000
-9.899500 0.000000
-9.877200 0.000000
-9.854800 0.000000
-9.832500 0.000000
-9.810100 0.000000
-9.787800 0.000000
-9.765400 0.000000
-9.743100 0.000000
-9.720700 0.000000
-9.698400 0.000000
-9.676000 0.000000
-9.653700 0.000000
-9.631300 0.000000
-9.609000 0.000000
-9.586600 0.000000
-9.564300 0.000000
-9.541900 0.000000
-9.519600 0.000000
-9.497200 0.000000
-9.474900 0.000000
-9.452500 0.000000
-9.430200 0.000000
-9.407800 0.000000
-9.385500 0.000000
-9.363100 0.000000
-9.340800 0.000000
-9.318400 0.000000
-9.296100 0.000000
-9.273700 0.000000
-9.251400 0.000000
-9.229000 0.000000
-9.206700 0.000000
-9.184300 0.000000
-9.162000 0.000000
-9.139600 0.000000
-9.117300 0.000000
-9.094900 0.000000
-9.072600 0.000000
-9.050200 0.000000
-9.027800 0.000000
-9.005500 0.000000
-8.983100 0.000000
-8.960800 0.000000
-8.938400 0.000000
-8.916100 0.000000
-8.893700 0.000000
-8.871400 0.000000
-8.849000 0.000000
-8.826700 0.000000
-8.804300 0.000000
-8.782000 0.000000
-8.759600 0.000000
-8.737300 0.000000
-8.714900 0.000000
-8.692600 0.000000
-8.670200 0.000000
-8.647900 0.000000
-8.625500 0.000000
-8.603200 0.000000
-8.580800 0.000000
-8.558500 0.000000
-8.536100 0.000000
-8.513800 0.000000
-8.491400 0.000000
-8.469100 0.000000
-8.446700 0.000000
-8.424400 0.000000
-8.402000 0.000000
-8.379700 0.000000
-8.357300 0.000000
-8.335000 0.000000
-8.312600 0.000000
-8.290300 0.000000
-8.267900 0.000000
-8.245600 0.000000
-8.223200 0.000000
-8.200900 0.000000
-8.178500 0.000000
-8.156200 0.000000
-8.133800 0.000000
-8.111400 0.000000
-8.089100 0.000000
-8.066700 0.000000
-8.044400 0.000000
-8.022000 0.000000
-7.999700 0.000000
-7.977300 0.000000
-7.955000 0.000000
-7.932600 0.000000
-7.910300 0.000000
-7.887900 0.000000
-7.865600 0.000000
-7.843200 0.000000
-7.820900 0.000000
-7.798500 0.000000
-7.776200 0.000000
-7.753800 0.000000
-7.731500 0.000000
-7.709100 0.000000
-7.686800 0.000000
-7.664400 0.000000
-7.642100 0.000000
-7.619700 0.000000
-7.597400 0.000000
-7.575000 0.000000
-7.552700 0.000000
-7.530300 0.000000
-7.508000 0.000000
-7.485600 0.000000
-7.463300 0.206200
-7.440900 0.086700
-7.418600 0.111600
-7.396200 0.138700
-7.373900 0.168100
-7.351500 0.199700
-7.329200 0.204800
-7.306800 0.210800
-7.284500 0.222300
-7.262100 0.232700
-7.239800 0.242400
-7.217400 0.252200
-7.195000 0.262700
-7.172700 0.275300
-7.150300 0.288700
-7.128000 0.302500
-7.105600 0.316700
-7.083300 0.325300
-7.060900 0.631700
-7.038600 0.376500
-7.016200 0.383500
-6.993900 0.390000
-6.971500 0.395300
-6.949200 0.399700
-6.926800 0.389700
-6.904500 0.383700
-6.882100 0.384200
-6.859800 0.385400
-6.837400 0.386900
-6.815100 0.389600
-6.792700 0.392200
-6.770400 0.394900
-6.748000 0.397700
-6.725700 0.399500
-6.703300 0.399300
-6.681000 0.394700
-6.658600 0.390000
-6.636300 0.444100
-6.613900 0.453700
-6.591600 0.464500
-6.569200 0.476200
-6.546900 0.488500
-6.524500 0.492000
-6.502200 0.487400
-6.479800 0.492400
-6.457500 0.498100
-6.435100 0.503900
-6.412800 0.510800
-6.390400 0.518100
-6.368100 0.525700
-6.345700 0.533400
-6.323400 0.541200
-6.301000 0.547100
-6.278700 0.551400
-6.256300 0.553500
-6.233900 0.557900
-6.211600 0.562000
-6.189200 0.565900
-6.166900 0.570400
-6.144500 0.575400
-6.122200 0.580400
-6.099800 0.584200
-6.077500 0.588100
-6.055100 0.592800
-6.032800 0.597700
-6.010400 0.602500
-5.988100 0.607300
-5.965700 0.612400
-5.943400 0.617800
-5.921000 0.623300
-5.898700 0.627400
-5.876300 0.630600
-5.854000 0.633800
-5.831600 0.637900
-5.809300 0.641600
-5.786900 0.644900
-5.764600 0.648200
-5.742200 0.652400
-5.719900 0.656900
-5.697500 0.661400
-5.675200 0.666000
-5.652800 0.670900
-5.630500 0.676000
-5.608100 0.681200
-5.585800 0.685400
-5.563400 0.689600
-5.541100 0.694100
-5.518700 0.698500
-5.496400 0.703100
-5.474000 0.707600
-5.451700 0.712100
-5.429300 0.972700
-5.407000 0.763800
-5.384600 0.770000
-5.362300 0.775600
-5.339900 0.781200
-5.317500 0.786900
-5.295200 0.779600
-5.272800 0.772300
-5.250500 0.772500
-5.228100 0.772700
-5.205800 0.773100
-5.183400 0.773900
-5.161100 0.774600
-5.138700 0.775600
-5.116400 0.777000
-5.094000 0.778600
-5.071700 0.780100
-5.049300 0.779100
-5.027000 0.776200
-5.004600 0.775400
-4.982300 0.775400
-4.959900 0.776200
-4.937600 0.777400
-4.915200 0.778600
-4.892900 0.779800
-4.870500 0.781000
-4.848200 0.781400
-4.825800 0.781900
-4.803500 0.782800
-4.781100 0.783500
-4.758800 0.783100
-4.736400 0.783000
-4.714100 0.783200
-4.691700 0.783400
-4.669400 0.782400
-4.647000 0.780900
-4.624700 0.779500
-4.602300 0.779300
-4.580000 0.830700
-4.557600 0.839500
-4.535300 0.848600
-4.512900 0.858000
-4.490600 0.867700
-4.468200 0.870700
-4.445900 0.862700
-4.423500 0.865200
-4.401100 0.868300
-4.378800 0.871600
-4.356400 0.875800
-4.334100 0.880500
-4.311700 0.885400
-4.289400 0.890400
-4.267000 0.895700
-4.244700 0.901000
-4.222300 0.905300
-4.200000 0.905900
-4.177600 0.907200
-4.155300 0.909100
-4.132900 0.911500
-4.110600 0.914800
-4.088200 0.918800
-4.065900 0.923000
-4.043500 0.927200
-4.021200 0.931100
-3.998800 0.934500
-3.976500 0.951500
-3.954100 0.973100
-3.931800 0.997100
-3.909400 1.024600
-3.887100 1.055700
-3.864700 1.037600
-3.842400 1.044000
-3.820000 1.045600
-3.797700 1.044500
-3.775300 1.041800
-3.753000 1.037100
-3.730600 1.031400
-3.708300 1.030500
-3.685900 1.029000
-3.663600 1.027200
-3.641200 1.024700
-3.618900 1.022600
-3.596500 1.021600
-3.574200 1.029000
-3.551800 1.039900
-3.529500 1.044600
-3.507100 1.047900
-3.484700 1.049800
-3.462400 1.002700
-3.440000 0.997800
-3.417700 0.993100
-3.395300 0.988800
-3.373000 0.984900
-3.350600 0.981400
-3.328300 0.977600
-3.305900 0.974200
-3.283600 0.971500
-3.261200 0.970100
-3.238900 0.969800
-3.216500 0.971300
-3.194200 0.973600
-3.171800 1.006000
-3.149500 1.031900
-3.127100 1.062400
-3.104800 1.097800
-3.082400 1.060900
-3.060100 1.068400
-3.037700 1.076000
-3.015400 1.140400
-2.993000 1.217300
-2.970700 1.251400
-2.948300 1.281300
-2.926000 1.306400
-2.903600 1.296100
-2.881300 1.234500
-2.858900 1.224000
-2.836600 1.233200
-2.814200 1.206900
-2.791900 1.173300
-2.769500 1.135100
-2.747200 1.100100
-2.724800 1.071800
-2.702500 1.049300
-2.680100 1.029100
-2.657800 1.011200
-2.635400 0.998500
-2.613100 0.987500
-2.590700 0.977000
-2.568300 0.966900
-2.546000 1.001300
-2.523600 0.996300
-2.501300 0.991600
-2.478900 1.097200
-2.456600 1.200800
-2.434200 1.189000
-2.411900 1.122100
-2.389500 1.075200
-2.367200 1.073400
-2.344800 1.072800
-2.322500 1.073300
-2.300100 1.075800
-2.277800 1.080000
-2.255400 1.084100
-2.233100 1.087000
-2.210700 1.089700
-2.188400 1.091600
-2.166000 1.091900
-2.143700 1.094800
-2.121300 1.189700
-2.099000 1.201100
-2.076600 1.233600
-2.054300 1.250900
-2.031900 1.261100
-2.009600 1.270400
-1.987200 1.286600
-1.964900 1.300800
-1.942500 1.312300
-1.920200 1.320900
-1.897800 1.326300
-1.875500 1.332600
-1.853100 1.333700
-1.830800 1.332600
-1.808400 1.268900
-1.786100 1.253200
-1.763700 1.236500
-1.741400 1.229600
-1.719000 1.225400
-1.696700 1.221100
-1.674300 1.215900
-1.651900 1.209500
-1.629600 1.225000
-1.607200 1.251400
-1.584900 1.279200
-1.562500 1.303400
-1.540200 1.318100
-1.517800 1.324700
-1.495500 1.329100
-1.473100 1.336900
-1.450800 1.345600
-1.428400 1.355200
-1.406100 1.365600
-1.383700 1.377200
-1.361400 1.389100
-1.339000 1.450300
-1.316700 1.485000
-1.294300 1.482500
-1.272000 1.481700
-1.249600 1.471900
-1.227300 1.451000
-1.204900 1.432600
-1.182600 1.425000
-1.160200 1.412500
-1.137900 1.400600
-1.115500 1.384300
-1.093200 1.373200
-1.070800 1.358100
-1.048500 1.350800
-1.026100 1.349600
-1.003800 1.349800
-0.981400 1.347000
-0.959100 1.341400
-0.936700 1.336500
-0.914400 1.335800
-0.892000 1.330400
-0.869700 1.313000
-0.847300 1.279100
-0.825000 1.254200
-0.802600 1.230500
-0.780300 1.220900
-0.757900 1.216700
-0.735500 1.213200
-0.713200 1.205800
-0.690800 1.195300
-0.668500 1.185600
-0.646100 1.177100
-0.623800 1.169600
-0.601400 1.165600
-0.579100 1.163600
-0.556700 1.192500
-0.534400 1.206300
-0.512000 1.214700
-0.489700 1.226100
-0.467300 1.237300
-0.445000 1.235400
-0.422600 1.215200
-0.400300 1.198800
-0.377900 1.201000
-0.355600 1.297500
-0.333200 1.252200
-0.310900 1.260600
-0.288500 1.280200
-0.266200 1.314600
-0.243800 1.329400
-0.221500 1.277400
-0.199100 1.256500
-0.176800 1.259700
-0.154400 1.250300
-0.132100 1.236600
-0.109700 1.221700
-0.087400 1.226300
-0.065000 1.249800
-0.042700 1.265800
-0.020300 1.262600
0.002000 1.258300
0.024400 1.258600
0.046700 1.257400
0.069100 1.261500
0.091400 1.269200
0.113800 1.270200
0.136100 1.303200
0.158500 1.329200
0.180800 1.317800
0.203200 1.312500
0.225600 1.294600
0.247900 1.273900
0.270300 1.273300
0.292600 1.254900
0.315000 1.237900
0.337300 1.224100
0.359700 1.212500
0.382000 1.203200
0.404400 1.350400
0.426700 1.337200
0.449100 1.248800
0.471400 1.262900
0.493800 1.278600
0.516100 1.287800
0.538500 1.297700
0.560800 1.313300
0.583200 1.324700
0.605500 1.316800
0.627900 1.318900
0.650200 1.295600
0.672600 1.255000
0.694900 1.226300
0.717300 1.221900
0.739600 1.260400
0.762000 1.189900
0.784300 1.180000
0.806700 1.171600
0.829000 1.166400
0.851400 1.162000
0.873700 1.158200
0.896100 1.157400
0.918400 1.161000
0.940800 1.165600
0.963100 1.171900
0.985500 1.180300
1.007800 1.189600
1.030200 1.200100
1.052500 1.225400
1.074900 1.240200
1.097200 1.269800
1.119600 1.305500
1.142000 1.368000
1.164300 1.436400
1.186700 1.483800
1.209000 1.507500
1.231400 1.498900
1.253700 1.437700
1.276100 1.386200
1.298400 1.364000
1.320800 1.368900
1.343100 1.374400
1.365500 1.439200
1.387800 1.453700
1.410200 1.524500
1.432500 1.548700
1.454900 1.568300
1.477200 1.583000
1.499600 1.590400
1.521900 1.564000
1.544300 1.548400
1.566600 1.534600
1.589000 1.538500
1.611300 1.544700
1.633700 1.546100
1.656000 1.564700
1.678400 1.594700
1.700700 1.618600
1.723100 1.756100
1.745400 1.565400
1.767800 1.550200
1.790100 1.553800
1.812500 1.566600
1.834800 1.597000
1.857200 1.575700
1.879500 1.606500
1.901900 1.671600
1.924200 1.527900
1.946600 1.522600
1.968900 1.533700
1.991300 1.544600
2.013600 1.561100
2.036000 1.605800
2.058400 1.603000
2.080700 1.694800
2.103100 1.673500
2.125400 1.661600
2.147800 1.629600
2.170100 1.598700
2.192500 1.587800
2.214800 1.573200
2.237200 1.555300
2.259500 1.535000
2.281900 1.515000
2.304200 1.500700
2.326600 1.506200
2.348900 1.502300
2.371300 1.506800
2.393600 1.491600
2.416000 1.481100
2.438300 1.558100
2.460700 1.580300
2.483000 1.517500
2.505400 1.414900
2.527700 1.424600
2.550100 1.429200
2.572400 1.429700
2.594800 1.451400
2.617100 1.477800
2.639500 1.555400
2.661800 1.630900
2.684200 1.688600
2.706500 1.657800
2.728900 1.675700
2.751200 1.698700
2.773600 1.629500
2.795900 1.524600
2.818300 1.511800
2.840600 1.495300
2.863000 1.485700
2.885300 1.464200
2.907700 1.449400
2.930000 1.438700
2.952400 1.455900
2.974800 1.454700
2.997100 1.436900
3.019500 1.569800
3.041800 1.630900
3.064200 1.443300
3.086500 1.472100
3.108900 1.756300
3.131200 1.595800
3.153600 1.553200
3.175900 1.681500
3.198300 1.652100
3.220600 1.674200
3.243000 1.687800
3.265300 1.613900
3.287700 1.593800
3.310000 1.640200
3.332400 1.606800
3.354700 1.590200
3.377100 1.580300
3.399400 1.578500
3.421800 1.585400
3.444100 1.586500
3.466500 1.573500
3.488800 1.530300
3.511200 1.513300
3.533500 1.540400
3.555900 1.561000
3.578200 1.579300
3.600600 1.577700
3.622900 1.585700
3.645300 1.602300
3.667600 1.620600
3.690000 1.641900
3.712300 1.669200
3.734700 1.811300
3.757000 1.752500
3.779400 1.743500
3.801700 1.762300
3.824100 1.779400
3.846400 1.797100
3.868800 1.756100
3.891200 1.792400
3.913500 1.756600
3.935900 1.761600
3.958200 1.764900
3.980600 1.775900
4.002900 1.789300
4.025300 1.782100
4.047600 1.761100
4.070000 1.771700
4.092300 1.703500
4.114700 1.649000
4.137000 1.639200
4.159400 1.616600
4.181700 1.610200
4.204100 1.602400
4.226400 1.611300
4.248800 1.668400
4.271100 1.662400
4.293500 1.659300
4.315800 1.637300
4.338200 1.639000
4.360500 1.637800
4.382900 1.656100
4.405200 1.679500
4.427600 1.694900
4.449900 1.696500
4.472300 1.682600
4.494600 1.673000
4.517000 1.666100
4.539300 1.664900
4.561700 1.664700
4.584000 1.659700
4.606400 1.670500
4.628700 1.683400
4.651100 1.690900
4.673400 1.705300
4.695800 1.716500
4.718100 1.729200
4.740500 1.769000
4.762800 1.820300
4.785200 2.100800
4.807600 1.828200
4.829900 1.811600
4.852300 1.796300
4.874600 1.788300
4.897000 1.802600
4.919300 1.790500
4.941700 1.781700
4.964000 1.766500
4.986400 1.778100
5.008700 1.760600
5.031100 1.787900
5.053400 1.826800
5.075800 1.818300
5.098100 1.865900
5.120500 1.926500
5.142800 1.867200
5.165200 1.823000
5.187500 1.769100
5.209900 1.745400
5.232200 1.718900
5.254600 1.695500
5.276900 1.678900
5.299300 1.671300
5.321600 1.681400
5.344000 1.683600
5.366300 1.694800
5.388700 1.712200
5.411000 1.733900
5.433400 1.735600
5.455700 1.745900
5.478100 1.766000
5.500400 1.788500
5.522800 1.816300
5.545100 1.827100
5.567500 1.850100
5.589800 1.871500
5.612200 1.887900
5.634500 1.897600
5.656900 1.846200
5.679200 1.837200
5.701600 1.841500
5.724000 1.858000
5.746300 1.875900
5.768700 1.883500
5.791000 1.903100
5.813400 1.924900
5.835700 1.931700
5.858100 1.918400
5.880400 1.912200
5.902800 1.926000
5.925100 1.957500
5.947500 1.933100
5.969800 1.917600
5.992200 1.909200
6.014500 1.924900
6.036900 1.926400
6.059200 1.946800
6.081600 1.914000
6.103900 1.937300
6.126300 1.945600
6.148600 1.866100
6.171000 1.836500
6.193300 1.840800
6.215700 1.808700
6.238000 1.775500
6.260400 1.763900
6.282700 1.754100
6.305100 1.743700
6.327400 1.719700
6.349800 1.712900
6.372100 1.708900
6.394500 1.696100
6.416800 1.700100
6.439200 1.707000
6.461500 1.739400
6.483900 1.732700
6.506200 1.731100
6.528600 1.739300
6.550900 1.742900
6.573300 1.753100
6.595600 1.763600
6.618000 1.777800
6.640300 1.791800
6.662700 1.805100
6.685100 1.813200
6.707400 1.918500
6.729800 1.967500
6.752100 1.972400
6.774500 1.882100
6.796800 1.904000
6.819200 1.931700
6.841500 1.974100
6.863900 2.028500
6.886200 2.009700
6.908600 2.027400
6.930900 2.031700
6.953300 2.055900
6.975600 2.073300
6.998000 2.085900
7.020300 2.091700
7.042700 2.104800
7.065000 2.132300
7.087400 2.172000
7.109700 2.196800
7.132100 2.198600
7.154400 2.115100
7.176800 2.101900
7.199100 2.116700
7.221500 2.150800
7.243800 2.081700
7.266200 2.024200
7.288500 2.049200
7.310900 2.088900
7.333200 2.037300
7.355600 2.035600
7.377900 2.034200
7.400300 2.032500
7.422600 2.027700
7.445000 2.018000
7.467300 2.011900
7.489700 2.010000
7.512000 2.016900
7.534400 2.047900
7.556700 2.033100
7.579100 2.030400
7.601500 2.103700
7.623800 2.235600
7.646200 2.234100
7.668500 2.179400
7.690900 2.106000
7.713200 2.092900
7.735600 2.099000
7.757900 2.111300
7.780300 2.177600
7.802600 2.174900
7.825000 2.206100
7.847300 2.218700
7.869700 2.219700
7.892000 2.218300
7.914400 2.232400
7.936700 2.252400
7.959100 2.310600
7.981400 2.284200
8.003800 2.190700
8.026100 2.086600
8.048500 2.041900
8.070800 2.035900
8.093200 2.043400
8.115500 2.054100
8.137900 2.067100
8.160200 2.083100
8.182600 2.105000
8.204900 2.133800
8.227300 2.175000
8.249600 2.234000
8.272000 2.311900
8.294300 2.299200
8.316700 2.349000
8.339000 2.388200
8.361400 2.404700
8.383700 2.398700
8.406100 2.399800
8.428400 2.406500
8.450800 2.418400
8.473100 2.298900
8.495500 2.266800
8.517900 2.243500
8.540200 2.223500
8.562600 2.205900
8.584900 2.185900
8.607300 2.172300
8.629600 2.187000
8.652000 2.169400
8.674300 2.160400
8.696700 2.150600
8.719000 2.144300
8.741400 2.110300
8.763700 2.130400
8.786100 2.165000
8.808400 2.198300
8.830800 2.212100
8.853100 2.229400
8.875500 2.245800
8.897800 2.263800
8.920200 2.278700
8.942500 2.322200
8.964900 2.297000
8.987200 2.280800
9.009600 2.243700
9.031900 2.235400
9.054300 2.227900
9.076600 2.222600
9.099000 2.217700
9.121300 2.212600
9.143700 2.202100
9.166000 2.192400
9.188400 2.172800
9.210700 2.162700
9.233100 2.153300
9.255400 2.151700
9.277800 2.162600
9.300100 2.162600
9.322500 2.161000
9.344800 2.159500
9.367200 2.151600
9.389500 2.160600
9.411900 2.170600
9.434300 2.180000
9.456600 2.185900
9.479000 2.189700
9.501300 2.228500
9.523700 2.217600
9.546000 2.199800
9.568400 2.176500
9.590700 2.162600
9.613100 2.157400
9.635400 2.170900
9.657800 2.198500
9.680100 2.216300
9.702500 2.252500
9.724800 2.277600
9.747200 2.279900
9.769500 2.283100
