set title 'mp-1079269 - Density of States'
set xlabel 'Energy (eV)'
set ylabel 'DOS (states/eV)'
set grid
set xrange [-10:10]
set yrange [0:19.231]
set xzeroaxis lt -1
set terminal png size 800,600
set output 'mp-1079269_dos_gnuplot.png'
plot '-' using 1:2 with lines title 'DOS'
-4.657400 0.000000
-4.645300 0.000000
-4.633100 0.000000
-4.621000 0.000000
-4.608900 0.000000
-4.596700 0.000000
-4.584600 0.000000
-4.572500 0.000000
-4.560300 0.000000
-4.548200 0.000000
-4.536100 0.000000
-4.524000 0.000000
-4.511800 0.000000
-4.499700 0.000000
-4.487600 0.000000
-4.475400 0.000000
-4.463300 0.000000
-4.451200 0.000000
-4.439000 0.000000
-4.426900 0.000000
-4.414800 0.000000
-4.402600 0.000000
-4.390500 0.000000
-4.378400 0.000000
-4.366200 0.000000
-4.354100 0.000000
-4.342000 0.000000
-4.329800 0.000000
-4.317700 0.000000
-4.305600 0.000000
-4.293400 0.000000
-4.281300 0.000000
-4.269200 0.000000
-4.257000 0.000000
-4.244900 0.000000
-4.232800 0.000000
-4.220600 0.000000
-4.208500 0.000000
-4.196400 0.000000
-4.184200 0.000000
-4.172100 0.000000
-4.160000 0.000000
-4.147800 0.000000
-4.135700 0.000000
-4.123600 0.000000
-4.111400 0.000000
-4.099300 0.000000
-4.087200 0.000000
-4.075000 0.000000
-4.062900 0.000000
-4.050800 0.000000
-4.038600 0.000000
-4.026500 0.000000
-4.014400 0.000000
-4.002200 0.000000
-3.990100 0.000000
-3.978000 0.000000
-3.965800 0.000000
-3.953700 0.000000
-3.941600 0.000000
-3.929400 0.000000
-3.917300 0.000000
-3.905200 0.000000
-3.893000 0.000000
-3.880900 0.000000
-3.868800 0.000000
-3.856600 0.000000
-3.844500 0.000000
-3.832400 0.000000
-3.820200 0.000000
-3.808100 0.000000
-3.796000 0.000000
-3.783800 0.000000
-3.771700 0.000000
-3.759600 0.000000
-3.747400 0.000000
-3.735300 0.000000
-3.723200 0.000000
-3.711000 0.000000
-3.698900 0.000000
-3.686800 0.000000
-3.674600 0.000000
-3.662500 0.000000
-3.650400 0.000000
-3.638200 0.000000
-3.626100 0.000000
-3.614000 0.000000
-3.601800 0.000000
-3.589700 0.000000
-3.577600 0.000000
-3.565400 0.000000
-3.553300 0.000100
-3.541200 0.007900
-3.529000 0.029100
-3.516900 0.063500
-3.504800 0.109900
-3.492600 0.150500
-3.480500 0.177700
-3.468400 0.191600
-3.456300 0.194600
-3.444100 0.199600
-3.432000 0.209200
-3.419900 0.223400
-3.407700 0.241000
-3.395600 0.259300
-3.383500 0.278200
-3.371300 0.297200
-3.359200 0.313600
-3.347100 0.325800
-3.334900 0.333000
-3.322800 0.336700
-3.310700 0.340600
-3.298500 0.346500
-3.286400 0.354900
-3.274300 0.364700
-3.262100 0.374800
-3.250000 0.384800
-3.237900 0.394700
-3.225700 0.404500
-3.213600 0.414200
-3.201500 0.423800
-3.189300 0.433600
-3.177200 0.443800
-3.165100 0.454700
-3.152900 0.466100
-3.140800 0.476600
-3.128700 0.485800
-3.116500 0.493400
-3.104400 0.500100
-3.092300 0.506600
-3.080100 0.513000
-3.068000 0.519700
-3.055900 0.526800
-3.043700 0.534200
-3.031600 0.541600
-3.019500 0.549000
-3.007300 0.556300
-2.995200 0.563400
-2.983100 0.570600
-2.970900 0.578000
-2.958800 0.586000
-2.946700 0.594600
-2.934500 0.603500
-2.922400 0.612600
-2.910300 0.621800
-2.898100 0.631000
-2.886000 0.640400
-2.873900 0.649900
-2.861700 0.659100
-2.849600 0.667600
-2.837500 0.675300
-2.825300 0.682400
-2.813200 0.689700
-2.801100 0.697300
-2.788900 0.704700
-2.776800 0.712000
-2.764700 0.718800
-2.752500 0.725700
-2.740400 0.732900
-2.728300 0.740500
-2.716100 0.748500
-2.704000 0.756600
-2.691900 0.764800
-2.679700 0.773000
-2.667600 0.781400
-2.655500 0.789900
-2.643300 0.798400
-2.631200 0.807000
-2.619100 0.815800
-2.606900 0.824700
-2.594800 0.833600
-2.582700 0.842600
-2.570500 0.851600
-2.558400 0.860600
-2.546300 0.869600
-2.534100 0.878700
-2.522000 0.928300
-2.509900 1.005200
-2.497700 1.077100
-2.485600 1.107000
-2.473500 1.078900
-2.461300 1.052800
-2.449200 1.036900
-2.437100 1.044900
-2.424900 1.052200
-2.412800 1.058900
-2.400700 1.065000
-2.388600 1.070400
-2.376400 1.069100
-2.364300 1.059200
-2.352200 1.046000
-2.340000 1.036800
-2.327900 1.034900
-2.315800 1.034700
-2.303600 1.034200
-2.291500 1.033600
-2.279400 1.032800
-2.267200 1.032100
-2.255100 1.031700
-2.243000 1.031500
-2.230800 1.031500
-2.218700 1.032900
-2.206600 1.031400
-2.194400 1.030200
-2.182300 1.028900
-2.170200 1.025900
-2.158000 1.022800
-2.145900 1.078400
-2.133800 1.185100
-2.121600 1.298300
-2.109500 1.301700
-2.097400 1.285300
-2.085200 1.275700
-2.073100 1.300800
-2.061000 1.327700
-2.048800 1.355500
-2.036700 1.383900
-2.024600 1.404600
-2.012400 1.418900
-2.000300 1.428400
-1.988200 1.446700
-1.976000 1.470900
-1.963900 1.494400
-1.951800 1.518100
-1.939600 1.541900
-1.927500 1.564800
-1.915400 1.588700
-1.903200 1.614500
-1.891100 1.646500
-1.879000 1.680600
-1.866800 1.713600
-1.854700 1.744300
-1.842600 1.773700
-1.830400 1.861500
-1.818300 1.878400
-1.806200 1.897500
-1.794000 1.884700
-1.781900 1.991600
-1.769800 2.132500
-1.757600 2.257600
-1.745500 2.364000
-1.733400 2.333500
-1.721200 2.302200
-1.709100 2.262300
-1.697000 2.289300
-1.684800 2.348700
-1.672700 2.441200
-1.660600 2.503000
-1.648400 2.553200
-1.636300 2.533600
-1.624200 2.485300
-1.612000 2.504900
-1.599900 2.524300
-1.587800 2.543300
-1.575600 2.549600
-1.563500 2.552500
-1.551400 2.550500
-1.539200 2.567000
-1.527100 2.579600
-1.515000 2.586000
-1.502800 2.592400
-1.490700 2.609300
-1.478600 2.638300
-1.466400 2.681600
-1.454300 2.734700
-1.442200 2.768800
-1.430000 2.826100
-1.417900 2.874400
-1.405800 2.913100
-1.393600 2.952800
-1.381500 3.001900
-1.369400 3.052100
-1.357200 3.101400
-1.345100 3.186900
-1.333000 3.523300
-1.320900 3.875300
-1.308700 4.104400
-1.296600 4.398600
-1.284500 4.894000
-1.272300 5.456600
-1.260200 6.387900
-1.248100 7.891400
-1.235900 9.108600
-1.223800 6.388300
-1.211700 5.699200
-1.199500 4.967900
-1.187400 4.406300
-1.175300 4.050900
-1.163100 3.992000
-1.151000 3.820100
-1.138900 3.054100
-1.126700 2.440700
-1.114600 2.122700
-1.102500 1.950200
-1.090300 1.807100
-1.078200 1.675200
-1.066100 1.504300
-1.053900 1.412800
-1.041800 1.328900
-1.029700 1.248800
-1.017500 1.171700
-1.005400 1.096500
-0.993300 1.026200
-0.981100 0.950500
-0.969000 0.893100
-0.956900 0.833900
-0.944700 0.779800
-0.932600 0.719000
-0.920500 0.662600
-0.908300 0.598900
-0.896200 0.563500
-0.884100 0.507300
-0.871900 0.453100
-0.859800 0.397800
-0.847700 0.331800
-0.835500 0.270700
-0.823400 0.214400
-0.811300 0.103300
-0.799100 0.000000
-0.787000 0.000000
-0.774900 0.000000
-0.762700 0.000000
-0.750600 0.000000
-0.738500 0.000000
-0.726300 0.000000
-0.714200 0.000000
-0.702100 0.000000
-0.689900 0.000000
-0.677800 0.000000
-0.665700 0.000000
-0.653500 0.000000
-0.641400 0.000000
-0.629300 0.000000
-0.617100 0.000000
-0.605000 0.000000
-0.592900 0.000000
-0.580700 0.000000
-0.568600 0.000000
-0.556500 0.000000
-0.544300 0.000000
-0.532200 0.000000
-0.520100 0.000000
-0.507900 0.000000
-0.495800 0.000000
-0.483700 0.000000
-0.471500 0.000000
-0.459400 0.000000
-0.447300 0.000000
-0.435100 0.000000
-0.423000 0.000000
-0.410900 0.000000
-0.398700 0.000000
-0.386600 0.000000
-0.374500 0.000000
-0.362300 0.000000
-0.350200 0.000000
-0.338100 0.000000
-0.325900 0.000000
-0.313800 0.000000
-0.301700 0.000000
-0.289500 0.000000
-0.277400 0.000000
-0.265300 0.000000
-0.253200 0.000000
-0.241000 0.000000
-0.228900 0.000000
-0.216800 0.000000
-0.204600 0.000000
-0.192500 0.000000
-0.180400 0.000000
-0.168200 0.000000
-0.156100 0.000000
-0.144000 0.000000
-0.131800 0.000000
-0.119700 0.000000
-0.107600 0.000000
-0.095400 0.000000
-0.083300 0.003300
-0.071200 0.038400
-0.059000 0.075900
-0.046900 0.115700
-0.034800 0.121700
-0.022600 0.117300
-0.010500 0.112300
0.001600 0.115500
0.013800 0.125500
0.025900 0.135700
0.038000 0.146300
0.050200 0.157100
0.062300 0.168300
0.074400 0.178300
0.086600 0.180300
0.098700 0.182000
0.110800 0.185400
0.123000 0.193200
0.135100 0.201100
0.147200 0.209100
0.159400 0.274200
0.171500 0.300300
0.183600 0.328300
0.195800 0.358200
0.207900 0.349700
0.220000 0.371800
0.232200 0.456100
0.244300 0.491600
0.256400 0.528500
0.268600 0.528200
0.280700 0.556300
0.292800 0.584900
0.305000 0.625000
0.317100 0.673000
0.329200 0.695900
0.341400 0.707400
0.353500 0.709900
0.365600 0.723500
0.377800 0.748100
0.389900 0.775100
0.402000 0.794300
0.414200 0.819600
0.426300 0.845200
0.438400 0.870900
0.450600 0.896900
0.462700 0.922800
0.474800 0.944200
0.487000 0.967700
0.499100 0.994100
0.511200 1.021000
0.523400 1.049000
0.535500 1.077000
0.547600 1.113200
0.559800 1.148600
0.571900 1.181900
0.584000 1.210200
0.596200 1.235500
0.608300 1.261800
0.620400 1.288000
0.632600 1.314200
0.644700 1.341100
0.656800 1.368400
0.669000 1.397600
0.681100 1.430000
0.693200 1.463700
0.705400 1.497500
0.717500 1.531700
0.729600 1.571400
0.741800 1.610400
0.753900 1.653900
0.766000 1.700700
0.778200 1.749700
0.790300 2.061200
0.802400 2.139600
0.814500 2.034000
0.826700 2.087000
0.838800 2.136600
0.850900 2.184400
0.863100 2.202000
0.875200 2.252100
0.887300 2.315200
0.899500 2.375100
0.911600 2.423300
0.923700 2.477500
0.935900 2.528500
0.948000 2.588900
0.960100 2.654700
0.972300 2.724600
0.984400 2.801000
0.996500 2.882700
1.008700 2.995400
1.020800 3.091200
1.032900 3.215400
1.045100 3.445900
1.057200 4.191600
1.069300 5.121300
1.081500 5.606300
1.093600 6.866800
1.105700 6.872300
1.117900 7.347700
1.130000 7.379000
1.142100 6.048800
1.154300 6.215400
1.166400 6.218600
1.178500 6.039500
1.190700 5.970700
1.202800 5.421200
1.214900 5.316200
1.227100 5.350000
1.239200 5.073100
1.251300 4.728200
1.263500 4.397900
1.275600 4.308100
1.287700 4.175400
1.299900 4.368900
1.312000 4.237300
1.324100 4.274500
1.336300 4.163300
1.348400 4.309700
1.360500 4.345100
1.372700 4.863700
1.384800 4.761500
1.396900 4.772900
1.409100 4.917300
1.421200 4.960600
1.433300 5.074600
1.445500 5.607600
1.457600 5.780700
1.469700 5.576800
1.481900 5.070600
1.494000 4.788200
1.506100 5.096200
1.518300 5.439000
1.530400 5.554300
1.542500 5.373100
1.554700 4.656800
1.566800 3.600000
1.578900 3.089200
1.591100 3.149400
1.603200 3.287500
1.615300 3.500500
1.627500 3.717500
1.639600 3.741500
1.651700 4.078000
1.663900 4.502500
1.676000 4.805500
1.688100 5.429700
1.700300 5.886800
1.712400 6.010600
1.724500 5.633600
1.736700 5.506300
1.748800 5.566000
1.760900 5.843900
1.773100 5.913800
1.785200 5.888200
1.797300 5.683000
1.809500 5.647900
1.821600 5.642400
1.833700 5.633500
1.845900 5.625700
1.858000 5.611200
1.870100 5.635500
1.882300 5.730900
1.894400 5.859300
1.906500 5.906800
1.918600 5.898700
1.930800 6.086300
1.942900 5.922900
1.955000 5.913800
1.967200 5.986200
1.979300 5.985000
1.991400 6.492300
2.003600 6.164100
2.015700 6.790400
2.027800 6.740900
2.040000 6.937700
2.052100 8.469200
2.064200 10.144500
2.076400 8.900500
2.088500 8.034200
2.100600 6.910700
2.112800 6.291900
2.124900 5.711100
2.137000 5.607200
2.149200 4.699500
2.161300 4.335400
2.173400 3.453200
2.185600 3.204500
2.197700 3.203200
2.209800 3.189500
2.222000 3.478900
2.234100 3.307900
2.246200 3.016500
2.258400 2.709300
2.270500 2.360300
2.282600 2.022000
2.294800 1.763200
2.306900 1.601800
2.319000 1.448100
2.331200 1.450800
2.343300 1.588600
2.355400 1.880800
2.367600 2.284200
2.379700 2.923200
2.391800 4.116800
2.404000 4.920700
2.416100 5.199200
2.428200 4.891300
2.440400 4.876300
2.452500 4.933300
2.464600 5.495000
2.476800 6.423700
2.488900 7.185900
2.501000 7.290500
2.513200 6.977700
2.525300 7.076800
2.537400 7.263600
2.549600 7.515900
2.561700 7.864600
2.573800 8.178800
2.586000 8.436500
2.598100 8.571900
2.610200 8.487400
2.622400 8.372200
2.634500 8.501400
2.646600 8.971300
2.658800 10.086000
2.670900 9.902300
2.683000 10.073300
2.695200 9.674600
2.707300 8.852300
2.719400 8.985900
2.731600 9.436200
2.743700 9.650400
2.755800 9.827100
2.768000 10.905000
2.780100 10.464000
2.792200 11.645300
2.804400 10.473800
2.816500 10.304300
2.828600 10.465300
2.840800 11.237000
2.852900 12.057800
2.865000 13.990500
2.877200 14.973800
2.889300 14.355200
2.901400 13.346700
2.913600 12.072200
2.925700 11.236900
2.937800 11.072100
2.950000 11.252800
2.962100 10.198100
2.974200 9.925300
2.986300 9.612800
2.998500 9.885900
3.010600 9.761000
3.022700 9.566800
3.034900 9.493800
3.047000 9.759200
3.059100 10.082000
3.071300 10.401200
3.083400 10.692100
3.095500 10.998500
3.107700 10.492900
3.119800 10.065700
3.131900 9.738700
3.144100 9.276200
3.156200 9.012300
3.168300 8.986300
3.180500 9.361200
3.192600 9.834800
3.204700 10.358800
3.216900 11.154400
3.229000 11.270200
3.241100 10.184500
3.253300 10.008300
3.265400 9.871300
3.277500 10.116900
3.289700 10.290100
3.301800 9.833800
3.313900 8.963700
3.326100 8.261200
3.338200 7.824300
3.350300 7.579500
3.362500 7.883500
3.374600 8.736800
3.386700 8.657900
3.398900 8.781100
3.411000 8.904500
3.423100 9.660700
3.435300 10.784400
3.447400 11.899600
3.459500 11.854400
3.471700 11.818700
3.483800 11.735900
3.495900 11.295400
3.508100 10.755400
3.520200 10.629400
3.532300 10.792700
3.544500 10.719800
3.556600 10.336300
3.568700 10.271400
3.580900 11.437400
3.593000 11.620700
3.605100 12.050100
3.617300 11.653000
3.629400 11.311300
3.641500 11.488000
3.653700 11.270600
3.665800 10.718300
3.677900 10.097000
3.690100 9.570600
3.702200 8.821000
3.714300 8.504700
3.726500 8.303600
3.738600 7.793700
3.750700 7.734300
3.762900 7.924000
3.775000 8.078300
3.787100 8.354200
3.799300 8.619100
3.811400 8.857700
3.823500 9.680600
3.835700 10.337000
3.847800 9.984600
3.859900 9.924300
3.872100 9.943500
3.884200 10.414600
3.896300 11.013600
3.908500 11.770100
3.920600 11.382600
3.932700 10.244900
3.944900 9.860500
3.957000 11.442800
3.969100 12.417400
3.981300 12.639800
3.993400 13.958100
4.005500 15.233600
4.017700 15.746600
4.029800 15.477200
4.041900 14.748900
4.054000 13.332800
4.066200 12.261800
4.078300 10.733700
4.090400 10.395300
4.102600 10.477300
4.114700 10.720300
4.126800 12.186500
4.139000 11.723300
4.151100 11.970500
4.163200 12.850800
4.175400 14.196900
4.187500 13.539400
4.199600 13.378600
4.211800 12.945900
4.223900 12.519100
4.236000 12.366900
4.248200 12.342100
4.260300 13.868100
4.272400 13.399800
4.284600 10.031000
4.296700 8.001200
4.308800 7.910000
4.321000 7.134800
4.333100 7.351300
4.345200 7.160100
4.357400 7.781800
4.369500 9.105000
4.381600 10.196100
4.393800 10.359700
4.405900 10.409900
4.418000 9.647200
4.430200 9.253700
4.442300 9.686700
4.454400 10.067800
4.466600 9.908300
4.478700 9.841600
4.490800 9.501200
4.503000 8.525600
4.515100 8.455800
4.527200 9.264400
4.539400 9.881600
4.551500 10.637200
4.563600 10.667100
4.575800 10.818300
4.587900 11.070000
4.600000 11.487700
4.612200 12.069500
4.624300 13.880700
4.636400 12.826600
4.648600 12.585900
4.660700 11.078300
4.672800 8.116300
4.685000 6.852800
4.697100 6.514200
4.709200 6.702500
4.721400 6.796100
4.733500 7.194800
4.745600 7.768300
4.757800 8.305600
4.769900 8.214800
4.782000 8.231300
4.794200 8.004300
4.806300 7.725100
4.818400 7.570900
4.830600 7.649500
4.842700 8.777000
4.854800 8.389400
4.867000 8.463800
4.879100 9.678100
4.891200 8.376400
4.903400 8.034300
4.915500 7.676700
4.927600 7.482100
4.939800 7.566100
4.951900 7.568900
4.964000 7.659100
4.976200 8.120500
4.988300 7.908900
5.000400 7.709700
5.012600 8.150000
5.024700 8.431500
5.036800 8.454900
5.049000 8.408700
5.061100 8.205100
5.073200 8.160800
5.085400 8.060200
5.097500 8.379600
5.109600 8.943700
5.121700 9.909800
5.133900 10.519800
5.146000 10.440100
5.158100 12.174800
5.170300 9.992000
5.182400 9.705000
5.194500 9.909000
5.206700 10.248500
5.218800 11.270700
5.230900 11.454900
5.243100 12.416100
5.255200 12.683600
5.267300 13.432900
5.279500 10.567000
5.291600 10.673400
5.303700 11.115500
5.315900 11.814600
5.328000 12.643000
5.340100 13.908900
5.352300 14.142700
5.364400 13.945800
5.376500 14.310700
5.388700 13.271200
5.400800 12.006400
5.412900 11.326700
5.425100 10.972200
5.437200 11.036000
5.449300 11.983700
5.461500 11.363000
5.473600 12.038400
5.485700 13.978000
5.497900 15.001700
5.510000 15.172200
5.522100 14.630200
5.534300 13.946400
5.546400 13.916700
5.558500 13.216100
5.570700 12.726600
5.582800 11.999000
5.594900 11.484300
5.607100 10.084400
5.619200 9.986700
5.631300 9.627600
5.643500 9.618900
5.655600 9.741700
5.667700 9.806000
5.679900 10.011800
5.692000 10.540700
5.704100 11.121900
5.716300 11.849300
5.728400 12.634400
5.740500 11.983800
5.752700 11.835500
5.764800 11.888100
5.776900 12.127100
5.789100 12.574900
5.801200 13.131700
5.813300 12.985400
5.825500 13.722800
5.837600 15.097800
5.849700 14.698600
5.861900 14.650100
5.874000 14.241100
5.886100 13.139100
5.898300 12.826900
5.910400 12.657700
5.922500 12.998600
5.934700 13.130200
5.946800 13.936900
5.958900 13.806800
5.971100 14.332900
5.983200 15.086700
5.995300 14.727600
6.007500 15.158300
6.019600 14.796500
6.031700 14.580000
6.043900 14.752900
6.056000 14.890900
6.068100 14.704200
6.080300 14.239200
6.092400 14.107100
6.104500 13.205900
6.116700 13.217700
6.128800 12.740300
6.140900 12.244200
6.153100 12.046600
6.165200 11.502000
6.177300 10.933200
6.189400 10.774000
6.201600 10.526900
6.213700 10.617300
6.225800 10.596700
6.238000 10.637500
6.250100 10.698900
6.262200 10.514300
6.274400 10.291800
6.286500 10.169000
6.298600 10.084700
6.310800 10.108800
6.322900 9.594900
6.335000 9.500000
6.347200 9.079600
6.359300 8.899200
6.371400 8.713600
6.383600 8.513300
6.395700 8.979400
6.407800 9.829200
6.420000 10.048000
6.432100 10.364800
6.444200 9.906700
6.456400 9.622000
6.468500 9.537100
6.480600 8.990700
6.492800 8.529300
6.504900 8.067100
6.517000 7.645800
6.529200 7.232500
6.541300 7.051200
6.553400 7.107900
6.565600 7.417600
6.577700 7.525700
6.589800 7.725100
6.602000 7.941000
6.614100 8.900300
6.626200 8.825500
6.638400 9.627000
6.650500 9.910400
6.662600 17.482500
6.674800 10.051600
6.686900 10.056000
6.699000 10.059900
6.711200 10.867300
6.723300 11.726000
6.735400 10.743800
6.747600 10.837500
6.759700 11.159600
6.771800 11.736800
6.784000 12.020800
6.796100 12.421600
6.808200 12.389800
6.820400 12.491600
6.832500 11.864900
6.844600 10.425000
6.856800 10.128900
6.868900 10.698900
6.881000 10.101400
6.893200 10.439200
6.905300 10.321900
6.917400 9.078200
6.929600 9.054000
6.941700 9.300600
6.953800 8.956200
6.966000 8.362800
6.978100 7.306200
6.990200 6.948200
7.002400 6.580600
7.014500 6.312900
7.026600 6.062100
7.038800 5.866600
7.050900 5.712700
7.063000 6.518500
7.075200 6.093700
7.087300 6.325300
7.099400 6.320000
7.111600 6.402700
7.123700 6.025500
7.135800 4.387800
7.148000 4.161700
7.160100 4.174000
7.172200 4.190800
7.184400 4.226700
7.196500 4.341600
7.208600 4.441400
7.220800 4.505300
7.232900 4.532900
7.245000 4.519800
7.257100 4.517300
7.269300 4.532900
7.281400 4.280700
7.293500 4.154100
7.305700 4.036600
7.317800 3.933400
7.329900 3.874900
7.342100 3.823900
7.354200 3.777100
7.366300 3.751600
7.378500 3.737900
7.390600 3.731200
7.402700 3.718400
7.414900 3.706500
7.427000 3.698100
7.439100 3.691300
7.451300 3.691300
7.463400 3.697700
7.475500 3.718300
7.487700 3.787300
7.499800 3.850200
7.511900 3.916300
7.524100 3.989900
7.536200 4.090300
7.548300 4.202800
7.560500 4.305000
7.572600 4.318000
7.584700 4.734500
7.596900 4.963500
7.609000 5.843600
7.621100 5.014900
7.633300 5.051200
7.645400 5.120500
7.657500 5.171000
7.669700 5.954400
7.681800 5.626700
7.693900 5.790400
7.706100 6.055400
7.718200 7.981700
7.730300 9.282500
7.742500 9.518700
7.754600 8.776800
7.766700 7.935000
7.778900 6.987400
7.791000 6.551600
7.803100 6.364900
7.815300 6.208500
7.827400 6.146100
7.839500 6.128800
7.851700 6.133500
7.863800 6.069800
7.875900 6.192200
7.888100 6.403100
7.900200 6.700200
7.912300 7.045000
7.924500 7.499800
7.936600 8.032000
7.948700 8.840400
7.960900 10.505700
7.973000 13.936200
7.985100 15.335200
7.997300 14.931400
8.009400 13.611800
8.021500 10.955800
8.033700 7.569500
8.045800 6.194400
8.057900 6.122600
8.070100 6.518800
8.082200 6.996500
8.094300 7.986100
8.106500 8.858200
8.118600 10.429700
8.130700 10.789800
8.142900 9.760600
8.155000 7.332700
8.167100 6.015800
8.179300 4.940800
8.191400 4.288600
8.203500 3.908200
