set title 'mp-949 - Density of States'
set xlabel 'Energy (eV)'
set ylabel 'DOS (states/eV)'
set grid
set xrange [-10:10]
set yrange [0:3.250]
set xzeroaxis lt -1
set terminal png size 800,600
set output 'mp-949_dos_gnuplot.png'
plot '-' using 1:2 with lines title 'DOS'
-4.807000 0.000000
-4.787600 0.000000
-4.768300 0.000000
-4.748900 0.000000
-4.729600 0.000000
-4.710300 0.000000
-4.690900 0.000000
-4.671600 0.000000
-4.652200 0.000000
-4.632900 0.000000
-4.613500 0.000000
-4.594200 0.000000
-4.574800 0.000000
-4.555500 0.000000
-4.536200 0.000000
-4.516800 0.000000
-4.497500 0.000000
-4.478100 0.000000
-4.458800 0.000000
-4.439400 0.000000
-4.420100 0.000000
-4.400800 0.000000
-4.381400 0.000000
-4.362100 0.000000
-4.342700 0.000000
-4.323400 0.000000
-4.304000 0.000000
-4.284700 0.000000
-4.265400 0.000000
-4.246000 0.000000
-4.226700 0.000000
-4.207300 0.000000
-4.188000 0.000000
-4.168600 0.000000
-4.149300 0.000000
-4.130000 0.000000
-4.110600 0.000000
-4.091300 0.000000
-4.071900 0.000000
-4.052600 0.000000
-4.033200 0.000000
-4.013900 0.000000
-3.994600 0.000000
-3.975200 0.000000
-3.955900 0.000000
-3.936500 0.000000
-3.917200 0.000000
-3.897800 0.000000
-3.878500 0.000000
-3.859100 0.000000
-3.839800 0.000000
-3.820500 0.000000
-3.801100 0.000000
-3.781800 0.000000
-3.762400 0.000000
-3.743100 0.000000
-3.723700 0.000000
-3.704400 0.000000
-3.685100 0.000000
-3.665700 0.000000
-3.646400 0.000000
-3.627000 0.000000
-3.607700 0.000000
-3.588300 0.000000
-3.569000 0.000000
-3.549700 0.000000
-3.530300 0.000000
-3.511000 0.000000
-3.491600 0.000000
-3.472300 0.000000
-3.452900 0.000000
-3.433600 0.000000
-3.414300 0.000000
-3.394900 0.000000
-3.375600 0.000000
-3.356200 0.000000
-3.336900 0.000000
-3.317500 0.000000
-3.298200 0.000000
-3.278900 0.000000
-3.259500 0.000000
-3.240200 0.000000
-3.220800 0.000000
-3.201500 0.000000
-3.182100 0.000000
-3.162800 0.000000
-3.143400 0.000000
-3.124100 0.000000
-3.104800 0.000000
-3.085400 0.000000
-3.066100 0.000000
-3.046700 0.000000
-3.027400 0.001700
-3.008000 0.006300
-2.988700 0.013000
-2.969400 0.017500
-2.950000 0.019200
-2.930700 0.019700
-2.911300 0.021200
-2.892000 0.023600
-2.872600 0.026200
-2.853300 0.029000
-2.834000 0.031400
-2.814600 0.032800
-2.795300 0.033300
-2.775900 0.034000
-2.756600 0.035200
-2.737200 0.036600
-2.717900 0.038100
-2.698600 0.039500
-2.679200 0.040900
-2.659900 0.042300
-2.640500 0.043800
-2.621200 0.045300
-2.601800 0.046900
-2.582500 0.048200
-2.563200 0.049100
-2.543800 0.049900
-2.524500 0.050800
-2.505100 0.051800
-2.485800 0.052900
-2.466400 0.054000
-2.447100 0.055000
-2.427700 0.056100
-2.408400 0.057100
-2.389100 0.058300
-2.369700 0.059500
-2.350400 0.060800
-2.331000 0.062100
-2.311700 0.063300
-2.292300 0.064600
-2.273000 0.065700
-2.253700 0.066800
-2.234300 0.067700
-2.215000 0.068600
-2.195600 0.069500
-2.176300 0.070500
-2.156900 0.071500
-2.137600 0.072500
-2.118300 0.073600
-2.098900 0.074700
-2.079600 0.075700
-2.060200 0.076800
-2.040900 0.078000
-2.021500 0.079100
-2.002200 0.080300
-1.982900 0.081500
-1.963500 0.082600
-1.944200 0.083800
-1.924800 0.085000
-1.905500 0.086200
-1.886100 0.087400
-1.866800 0.088600
-1.847400 0.089800
-1.828100 0.090900
-1.808800 0.092000
-1.789400 0.093200
-1.770100 0.094400
-1.750700 0.095600
-1.731400 0.096800
-1.712000 0.098000
-1.692700 0.099200
-1.673400 0.100400
-1.654000 0.101700
-1.634700 0.102900
-1.615300 0.104200
-1.596000 0.105600
-1.576600 0.107200
-1.557300 0.108800
-1.538000 0.110400
-1.518600 0.112000
-1.499300 0.113700
-1.479900 0.115300
-1.460600 0.117000
-1.441200 0.118700
-1.421900 0.120300
-1.402600 0.121900
-1.383200 0.123500
-1.363900 0.125100
-1.344500 0.126800
-1.325200 0.129100
-1.305800 0.132200
-1.286500 0.135800
-1.267200 0.139200
-1.247800 0.142600
-1.228500 0.145600
-1.209100 0.147500
-1.189800 0.148300
-1.170400 0.148800
-1.151100 0.149800
-1.131700 0.151100
-1.112400 0.152300
-1.093100 0.153300
-1.073700 0.154200
-1.054400 0.155000
-1.035000 0.155800
-1.015700 0.156600
-0.996300 0.157600
-0.977000 0.158900
-0.957700 0.160300
-0.938300 0.161900
-0.919000 0.163300
-0.899600 0.164700
-0.880300 0.166000
-0.860900 0.167300
-0.841600 0.168600
-0.822300 0.169900
-0.802900 0.171200
-0.783600 0.172700
-0.764200 0.174200
-0.744900 0.175700
-0.725500 0.177200
-0.706200 0.178700
-0.686900 0.180600
-0.667500 0.182700
-0.648200 0.184800
-0.628800 0.186800
-0.609500 0.188800
-0.590100 0.190800
-0.570800 0.192800
-0.551500 0.194900
-0.532100 0.196900
-0.512800 0.199100
-0.493400 0.201400
-0.474100 0.203800
-0.454700 0.206400
-0.435400 0.209600
-0.416000 0.213200
-0.396700 0.216700
-0.377400 0.220000
-0.358000 0.223400
-0.338700 0.226900
-0.319300 0.230400
-0.300000 0.251300
-0.280600 0.260000
-0.261300 0.273000
-0.242000 0.287900
-0.222600 0.296300
-0.203300 0.305600
-0.183900 0.314800
-0.164600 0.323700
-0.145200 0.333400
-0.125900 0.344400
-0.106600 0.357000
-0.087200 0.369900
-0.067900 0.383900
-0.048500 0.397600
-0.029200 0.412000
-0.009800 0.429700
0.009500 0.467700
0.028800 0.534100
0.048200 0.621700
0.067500 0.633400
0.086900 0.602100
0.106200 0.597600
0.125600 0.598300
0.144900 0.642900
0.164200 0.678000
0.183600 0.707700
0.202900 0.707200
0.222300 0.711000
0.241600 0.719100
0.261000 0.732200
0.280300 0.747600
0.299700 0.765400
0.319000 0.790500
0.338300 0.820300
0.357700 0.887200
0.377000 0.937800
0.396400 0.957000
0.415700 0.945000
0.435100 0.954200
0.454400 0.965000
0.473700 0.976500
0.493100 0.993000
0.512400 1.012700
0.531800 1.029500
0.551100 1.050000
0.570500 1.074000
0.589800 1.095800
0.609100 1.115600
0.628500 1.137500
0.647800 1.160300
0.667200 1.193600
0.686500 1.254500
0.705900 1.351300
0.725200 1.412000
0.744500 1.316300
0.763900 1.258300
0.783200 1.229400
0.802600 1.209700
0.821900 1.210800
0.841300 1.225200
0.860600 1.278700
0.879900 1.373800
0.899300 1.436300
0.918600 1.331300
0.938000 1.220500
0.957300 1.256300
0.976700 1.229800
0.996000 1.216900
1.015400 1.204700
1.034700 1.192200
1.054000 1.199500
1.073400 1.232400
1.092700 1.240500
1.112100 1.238500
1.131400 1.281100
1.150800 1.322300
1.170100 1.352000
1.189400 1.389500
1.208800 1.428500
1.228100 1.480500
1.247500 1.544900
1.266800 1.713000
1.286200 1.712900
1.305500 1.736600
1.324800 1.748900
1.344200 1.770500
1.363500 1.774500
1.382900 1.767500
1.402200 1.770900
1.421600 1.780900
1.440900 1.827100
1.460200 1.893600
1.479600 2.015200
1.498900 1.775700
1.518300 1.607300
1.537600 1.518900
1.557000 1.488300
1.576300 1.434700
1.595700 1.372600
1.615000 1.347500
1.634300 1.314100
1.653700 1.207000
1.673000 1.107700
1.692400 1.035300
1.711700 1.005600
1.731100 0.993500
1.750400 1.007000
1.769700 1.009200
1.789100 1.035200
1.808400 1.049100
1.827800 1.068100
1.847100 1.110300
1.866500 1.157100
1.885800 1.216700
1.905100 1.302300
1.924500 1.319800
1.943800 1.315300
1.963200 1.305600
1.982500 1.320100
2.001900 1.262200
2.021200 1.143600
2.040500 1.127400
2.059900 1.112500
2.079200 1.086000
2.098600 1.058600
2.117900 1.100800
2.137300 1.191700
2.156600 1.523200
2.175900 1.526400
2.195300 1.399400
2.214600 1.271600
2.234000 1.209600
2.253300 1.175600
2.272700 1.152400
2.292000 1.131900
2.311400 1.139000
2.330700 1.062700
2.350000 1.058600
2.369400 1.061000
2.388700 1.071000
2.408100 1.144400
2.427400 1.192600
2.446800 1.210800
2.466100 1.215700
2.485400 1.241300
2.504800 1.302500
2.524100 1.366300
2.543500 1.383200
2.562800 1.394600
2.582200 1.415400
2.601500 1.436200
2.620800 1.458600
2.640200 1.489900
2.659500 1.531700
2.678900 1.562900
2.698200 1.658700
2.717600 1.625200
2.736900 1.617500
2.756200 1.579400
2.775600 1.573500
2.794900 1.547600
2.814300 1.527600
2.833600 1.551000
2.853000 1.563100
2.872300 1.576500
2.891600 1.593700
2.911000 1.671200
2.930300 1.811400
2.949700 1.783300
2.969000 1.846000
2.988400 1.788600
3.007700 1.729500
3.027100 1.632100
3.046400 1.514800
3.065700 1.419300
3.085100 1.336900
3.104400 1.336400
3.123800 1.330300
3.143100 1.359700
3.162500 1.385300
3.181800 1.424900
3.201100 1.474800
3.220500 1.550000
3.239800 1.671600
3.259200 1.874600
3.278500 1.989400
3.297900 2.045800
3.317200 2.091200
3.336500 2.193500
3.355900 2.328700
3.375200 2.465600
3.394600 2.519400
3.413900 2.640900
3.433300 2.899200
3.452600 2.876800
3.471900 2.796500
3.491300 2.555900
3.510600 2.301300
3.530000 2.182200
3.549300 2.102500
3.568700 2.065600
3.588000 2.065200
3.607300 2.178000
3.626700 2.292000
3.646000 2.408000
3.665400 2.490300
3.684700 2.542800
3.704100 2.738600
3.723400 2.935600
3.742800 2.889800
3.762100 2.954500
3.781400 2.828300
3.800800 2.263800
3.820100 2.122600
3.839500 2.098100
3.858800 2.197100
3.878200 2.452800
3.897500 2.083500
3.916800 2.091600
3.936200 2.085800
3.955500 2.072300
3.974900 2.135700
3.994200 2.135300
4.013600 2.137100
4.032900 2.122800
4.052200 2.041300
4.071600 1.968800
4.090900 1.909400
4.110300 1.860200
4.129600 1.833100
4.149000 1.802500
4.168300 1.808900
4.187600 1.824000
4.207000 1.854300
4.226300 1.899700
4.245700 1.991100
4.265000 2.065900
4.284400 2.103800
4.303700 2.167500
4.323100 2.223800
4.342400 2.271800
4.361700 2.365700
4.381100 2.420900
4.400400 2.450800
4.419800 2.475500
4.439100 2.434000
4.458500 2.394300
4.477800 2.365200
4.497100 2.327000
4.516500 2.265500
4.535800 2.413900
4.555200 2.301700
4.574500 2.068600
4.593900 2.032800
4.613200 2.029100
4.632500 2.165100
4.651900 2.055900
4.671200 2.015300
4.690600 2.031100
4.709900 2.110500
4.729300 2.129300
4.748600 2.047700
4.767900 2.002900
4.787300 2.102200
4.806600 2.027000
4.826000 1.967100
4.845300 2.198700
4.864700 2.176500
4.884000 1.751100
4.903300 1.511200
4.922700 1.394600
4.942000 1.397300
4.961400 1.407400
4.980700 1.442400
5.000100 1.476300
5.019400 1.531700
5.038800 1.626800
5.058100 1.975100
5.077400 2.102600
5.096800 2.081400
5.116100 2.074300
5.135500 2.096500
5.154800 2.146600
5.174200 2.245000
5.193500 2.442300
5.212800 2.509500
5.232200 2.529200
5.251500 2.534700
5.270900 2.559400
5.290200 2.382700
5.309600 2.324200
5.328900 2.294800
5.348200 2.264400
5.367600 2.267500
5.386900 2.484800
5.406300 2.553300
5.425600 1.930700
5.445000 1.817200
5.464300 1.712700
5.483600 1.655900
5.503000 1.600400
5.522300 1.537200
5.541700 1.533700
5.561000 1.438100
5.580400 1.459600
5.599700 1.489400
5.619000 1.464800
5.638400 1.448200
5.657700 1.473800
5.677100 1.539000
5.696400 1.625700
5.715800 1.745800
5.735100 1.940400
5.754500 2.086600
5.773800 2.045400
5.793100 2.064700
5.812500 2.092100
5.831800 2.081600
5.851200 2.136600
5.870500 2.090200
5.889900 2.010900
5.909200 1.917600
5.928500 1.850800
5.947900 1.834000
5.967200 1.831600
5.986600 1.768200
6.005900 1.616900
6.025300 1.397400
6.044600 1.320200
6.063900 1.240200
6.083300 1.136600
6.102600 1.101500
6.122000 0.741900
6.141300 0.656200
6.160700 0.599800
6.180000 0.565000
6.199300 0.530900
6.218700 0.503100
6.238000 0.491100
6.257400 0.479900
6.276700 0.470000
6.296100 0.460700
6.315400 0.450900
6.334700 0.436500
6.354100 0.433900
6.373400 0.430900
6.392800 0.428300
6.412100 0.426200
6.431500 0.424000
6.450800 0.421800
6.470200 0.420200
6.489500 0.420300
6.508800 0.420100
6.528200 0.422900
6.547500 0.430900
6.566900 0.465600
6.586200 0.426100
6.605600 0.387600
6.624900 0.381200
6.644200 0.374900
6.663600 0.369200
6.682900 0.359400
6.702300 0.352700
6.721600 0.347400
6.741000 0.342600
6.760300 0.338000
6.779600 0.334000
6.799000 0.330200
6.818300 0.325800
6.837700 0.321900
6.857000 0.318700
6.876400 0.315500
6.895700 0.312400
6.915000 0.309600
6.934400 0.306800
6.953700 0.304400
6.973100 0.302400
6.992400 0.302100
7.011800 0.297800
7.031100 0.293600
7.050500 0.289600
7.069800 0.285800
7.089100 0.289300
7.108500 0.284300
7.127800 0.277900
7.147200 0.273200
7.166500 0.272300
7.185900 0.290000
7.205200 0.234800
7.224500 0.233800
7.243900 0.232900
7.263200 0.232000
7.282600 0.231100
7.301900 0.230100
7.321300 0.229200
7.340600 0.228200
7.359900 0.227200
7.379300 0.226200
7.398600 0.225300
7.418000 0.224400
7.437300 0.223600
7.456700 0.222700
7.476000 0.221600
7.495300 0.220600
7.514700 0.219800
7.534000 0.219100
7.553400 0.218400
7.572700 0.217800
7.592100 0.217600
7.611400 0.217400
7.630700 0.217100
7.650100 0.216800
7.669400 0.216500
7.688800 0.216200
7.708100 0.215700
7.727500 0.215000
7.746800 0.214300
7.766200 0.213900
7.785500 0.213400
7.804800 0.213100
7.824200 0.212900
7.843500 0.212600
7.862900 0.212300
7.882200 0.212000
7.901600 0.211300
7.920900 0.210900
7.940200 0.210500
7.959600 0.210200
7.978900 0.209800
7.998300 0.209500
8.017600 0.209100
8.037000 0.208800
8.056300 0.208600
8.075600 0.208300
8.095000 0.208200
8.114300 0.207900
8.133700 0.207600
8.153000 0.207200
8.172400 0.207000
8.191700 0.206900
8.211000 0.206700
8.230400 0.207000
8.249700 0.206300
8.269100 0.205700
8.288400 0.205100
8.307800 0.204700
8.327100 0.204300
8.346400 0.204000
8.365800 0.203800
8.385100 0.203500
8.404500 0.203800
8.423800 0.204400
8.443200 0.204700
8.462500 0.204400
8.481900 0.204700
8.501200 0.205100
8.520500 0.205500
8.539900 0.207300
8.559200 0.208200
8.578600 0.209700
8.597900 0.211300
8.617300 0.213000
8.636600 0.217100
8.655900 0.220300
8.675300 0.223100
8.694600 0.226000
8.714000 0.229000
8.733300 0.233100
8.752700 0.241600
8.772000 0.252900
8.791300 0.261800
8.810700 0.277800
8.830000 0.336900
8.849400 0.301300
8.868700 0.296500
8.888100 0.289200
8.907400 0.290800
8.926700 0.293600
8.946100 0.293600
8.965400 0.294500
8.984800 0.295700
9.004100 0.298500
9.023500 0.300000
9.042800 0.306400
9.062100 0.325000
9.081500 0.314700
9.100800 0.311100
9.120200 0.306300
9.139500 0.297200
9.158900 0.290700
9.178200 0.289100
9.197600 0.286000
9.216900 0.284400
9.236200 0.281300
9.255600 0.279500
9.274900 0.277800
9.294300 0.276100
9.313600 0.274600
9.333000 0.273200
9.352300 0.271500
9.371600 0.269800
9.391000 0.268000
9.410300 0.266700
9.429700 0.265300
9.449000 0.263700
9.468400 0.262100
9.487700 0.261200
9.507000 0.260400
9.526400 0.259500
9.545700 0.258700
9.565100 0.257800
9.584400 0.257000
9.603800 0.256200
9.623100 0.255300
9.642400 0.254300
9.661800 0.253300
9.681100 0.252500
9.700500 0.251900
9.719800 0.251200
9.739200 0.250600
9.758500 0.249900
9.777900 0.249200
9.797200 0.248400
9.816500 0.247500
9.835900 0.246400
9.855200 0.245200
9.874600 0.244000
9.893900 0.242700
9.913300 0.241300
9.932600 0.240100
9.951900 0.239000
9.971300 0.237900
9.990600 0.236900
10.010000 0.235500
10.029300 0.234300
10.048700 0.233300
10.068000 0.232300
10.087300 0.231400
10.106700 0.230500
10.126000 0.229700
10.145400 0.228800
10.164700 0.227900
10.184100 0.227100
10.203400 0.226200
10.222700 0.225300
10.242100 0.224400
10.261400 0.223500
10.280800 0.222500
10.300100 0.221600
10.319500 0.220700
10.338800 0.219700
10.358100 0.218800
10.377500 0.217800
10.396800 0.216800
10.416200 0.215900
10.435500 0.214900
10.454900 0.213900
10.474200 0.212900
10.493600 0.212100
10.512900 0.211300
10.532200 0.210400
10.551600 0.209700
10.570900 0.209000
10.590300 0.208300
10.609600 0.207800
10.629000 0.207300
10.648300 0.206900
10.667600 0.206500
10.687000 0.206100
10.706300 0.205700
10.725700 0.204900
10.745000 0.203500
10.764400 0.201700
10.783700 0.199900
10.803000 0.198400
10.822400 0.197300
10.841700 0.196200
10.861100 0.195200
10.880400 0.194200
10.899800 0.193200
10.919100 0.192100
10.938400 0.190700
10.957800 0.189600
10.977100 0.188400
10.996500 0.187300
11.015800 0.186300
11.035200 0.185400
11.054500 0.184400
11.073800 0.183400
11.093200 0.182400
11.112500 0.181500
11.131900 0.180500
11.151200 0.179600
11.170600 0.178600
11.189900 0.177700
11.209300 0.176700
11.228600 0.175600
11.247900 0.174600
11.267300 0.173500
11.286600 0.172400
11.306000 0.171300
11.325300 0.170200
11.344700 0.169100
11.364000 0.168000
11.383300 0.166900
11.402700 0.165900
11.422000 0.165000
11.441400 0.164100
11.460700 0.177900
11.480100 0.189400
11.499400 0.196400
11.518700 0.203700
11.538100 0.198800
11.557400 0.196800
11.576800 0.197900
11.596100 0.198000
11.615500 0.198400
11.634800 0.199100
11.654100 0.199600
11.673500 0.199900
11.692800 0.200600
11.712200 0.201300
11.731500 0.202200
11.750900 0.203100
11.770200 0.203900
11.789500 0.203500
11.808900 0.204600
11.828200 0.206300
11.847600 0.208900
11.866900 0.211700
11.886300 0.214300
11.905600 0.217200
11.925000 0.217800
11.944300 0.217100
11.963600 0.217300
11.983000 0.218200
12.002300 0.219900
12.021700 0.222200
12.041000 0.224900
12.060400 0.227600
12.079700 0.234600
12.099000 0.244600
12.118400 0.250900
12.137700 0.256400
12.157100 0.261300
12.176400 0.266300
12.195800 0.271900
12.215100 0.277600
12.234400 0.280800
12.253800 0.281500
12.273100 0.282500
12.292500 0.283400
12.311800 0.283700
12.331200 0.284300
12.350500 0.285100
12.369800 0.285600
12.389200 0.285800
12.408500 0.285400
12.427900 0.284600
12.447200 0.283800
12.466600 0.282800
12.485900 0.281500
12.505300 0.280100
12.524600 0.278400
12.543900 0.276500
12.563300 0.274600
12.582600 0.272700
12.602000 0.270600
12.621300 0.269100
12.640700 0.267100
12.660000 0.265100
12.679300 0.263200
12.698700 0.261500
12.718000 0.259900
12.737400 0.258400
12.756700 0.257000
12.776100 0.256200
12.795400 0.255500
12.814700 0.255200
12.834100 0.254700
12.853400 0.253700
12.872800 0.252600
12.892100 0.252700
12.911500 0.253000
12.930800 0.253400
12.950100 0.254000
12.969500 0.254600
12.988800 0.254900
13.008200 0.255100
13.027500 0.254800
13.046900 0.254300
13.066200 0.254000
13.085500 0.253200
13.104900 0.252200
13.124200 0.251100
13.143600 0.250700
13.162900 0.249700
13.182300 0.249400
13.201600 0.258000
13.221000 0.271600
13.240300 0.288000
13.259600 0.301400
13.279000 0.306800
13.298300 0.312400
13.317700 0.317200
13.337000 0.313900
13.356400 0.299400
13.375700 0.299800
13.395000 0.300400
13.414400 0.300700
13.433700 0.301300
13.453100 0.302200
13.472400 0.303000
13.491800 0.303800
13.511100 0.304900
13.530400 0.305500
13.549800 0.304700
13.569100 0.304300
13.588500 0.303700
13.607800 0.303800
13.627200 0.304000
13.646500 0.304000
13.665800 0.304600
13.685200 0.300100
13.704500 0.295200
13.723900 0.290800
13.743200 0.286200
13.762600 0.285600
13.781900 0.285200
13.801200 0.285000
13.820600 0.284900
13.839900 0.284800
13.859300 0.284800
13.878600 0.284800
13.898000 0.285000
13.917300 0.285500
13.936700 0.286000
13.956000 0.286600
13.975300 0.287100
13.994700 0.287300
14.014000 0.287400
14.033400 0.288600
14.052700 0.288100
14.072100 0.287500
14.091400 0.286800
14.110700 0.286300
14.130100 0.285900
14.149400 0.284900
14.168800 0.283700
14.188100 0.282900
14.207500 0.282300
14.226800 0.282400
14.246100 0.282600
14.265500 0.282600
14.284800 0.282500
14.304200 0.282500
14.323500 0.282500
14.342900 0.282600
14.362200 0.282700
14.381500 0.282900
14.400900 0.283100
14.420200 0.283500
14.439600 0.284100
14.458900 0.284700
14.478300 0.285300
14.497600 0.301000
14.516900 0.299800
14.536300 0.302600
14.555600 0.303500
14.575000 0.306200
14.594300 0.310700
14.613700 0.313900
14.633000 0.330400
14.652400 0.323100
14.671700 0.318300
14.691000 0.319000
14.710400 0.319100
14.729700 0.318800
14.749100 0.319000
14.768400 0.321300
14.787800 0.325100
14.807100 0.331700
14.826400 0.336900
14.845800 0.349600
14.865100 0.352000
14.884500 0.343100
14.903800 0.333400
14.923200 0.331400
14.942500 0.332200
14.961800 0.332600
14.981200 0.332900
15.000500 0.331800
15.019900 0.330700
15.039200 0.329800
15.058600 0.327400
15.077900 0.322700
15.097200 0.311400
15.116600 0.307600
15.135900 0.303000
15.155300 0.299900
15.174600 0.299500
15.194000 0.298500
15.213300 0.297800
15.232700 0.297500
15.252000 0.297800
15.271300 0.298400
15.290700 0.298800
15.310000 0.299600
15.329400 0.292000
15.348700 0.290000
15.368100 0.291100
15.387400 0.289900
15.406700 0.289100
15.426100 0.288500
15.445400 0.288000
15.464800 0.288200
15.484100 0.288100
15.503500 0.288400
15.522800 0.289000
15.542100 0.289600
15.561500 0.290400
15.580800 0.293000
15.600200 0.294600
15.619500 0.296600
15.638900 0.307100
15.658200 0.315000
15.677500 0.315400
15.696900 0.315500
15.716200 0.318000
15.735600 0.321000
15.754900 0.324600
15.774300 0.326400
