set title 'mp-995184 - Density of States'
set xlabel 'Energy (eV)'
set ylabel 'DOS (states/eV)'
set grid
set xrange [-10:10]
set yrange [0:7.255]
set xzeroaxis lt -1
set terminal png size 800,600
set output 'mp-995184_dos_gnuplot.png'
plot '-' using 1:2 with lines title 'DOS'
-19.576000 0.000000
-19.543700 0.000000
-19.511400 0.000000
-19.479000 0.000000
-19.446700 0.000000
-19.414400 0.000000
-19.382100 0.000000
-19.349700 0.000000
-19.317400 0.000000
-19.285100 0.000000
-19.252800 0.000000
-19.220500 0.000000
-19.188100 0.000000
-19.155800 0.000000
-19.123500 0.000000
-19.091200 0.000000
-19.058800 0.000000
-19.026500 0.000000
-18.994200 0.000000
-18.961900 0.000000
-18.929500 0.000000
-18.897200 0.000000
-18.864900 0.000000
-18.832600 0.000000
-18.800300 0.000000
-18.767900 0.000000
-18.735600 0.000000
-18.703300 0.000000
-18.671000 0.000000
-18.638600 0.000000
-18.606300 0.000000
-18.574000 0.000000
-18.541700 0.000000
-18.509300 0.000000
-18.477000 0.000000
-18.444700 0.000000
-18.412400 0.000000
-18.380100 0.000000
-18.347700 0.000000
-18.315400 0.000000
-18.283100 0.000000
-18.250800 0.000000
-18.218400 0.000000
-18.186100 0.000000
-18.153800 0.000000
-18.121500 0.000000
-18.089100 0.000000
-18.056800 0.000000
-18.024500 0.000000
-17.992200 0.000000
-17.959900 0.000000
-17.927500 0.000000
-17.895200 0.000000
-17.862900 0.000000
-17.830600 0.000000
-17.798200 0.000000
-17.765900 0.000000
-17.733600 0.000000
-17.701300 0.000000
-17.668900 0.000000
-17.636600 0.000000
-17.604300 0.000000
-17.572000 0.000000
-17.539700 0.000000
-17.507300 0.000000
-17.475000 0.000000
-17.442700 0.000000
-17.410400 0.000000
-17.378000 0.000000
-17.345700 0.000000
-17.313400 0.000000
-17.281100 0.000000
-17.248700 0.000000
-17.216400 0.000000
-17.184100 0.000000
-17.151800 0.000000
-17.119500 0.000000
-17.087100 0.000000
-17.054800 0.000000
-17.022500 0.000000
-16.990200 0.000000
-16.957800 0.000000
-16.925500 0.000000
-16.893200 0.000000
-16.860900 0.000000
-16.828500 0.000000
-16.796200 0.000000
-16.763900 0.000000
-16.731600 0.000000
-16.699300 0.000000
-16.666900 0.000000
-16.634600 0.038900
-16.602300 0.573600
-16.570000 1.010600
-16.537600 1.380500
-16.505300 1.838900
-16.473000 2.289300
-16.440700 2.096600
-16.408300 1.725400
-16.376000 1.471200
-16.343700 1.202900
-16.311400 0.766400
-16.279100 0.766400
-16.246700 0.766400
-16.214400 0.766400
-16.182100 0.766400
-16.149800 0.766400
-16.117400 0.766400
-16.085100 0.766400
-16.052800 0.766400
-16.020500 0.766400
-15.988100 0.766400
-15.955800 0.766400
-15.923500 0.742400
-15.891200 0.664600
-15.858900 0.611100
-15.826500 0.557100
-15.794200 0.467200
-15.761900 0.464200
-15.729600 0.464200
-15.697200 0.464200
-15.664900 0.464200
-15.632600 0.464200
-15.600300 0.464200
-15.567900 0.464200
-15.535600 0.464200
-15.503300 0.464200
-15.471000 0.464200
-15.438700 0.464200
-15.406300 0.464200
-15.374000 0.464200
-15.341700 0.464200
-15.309400 0.464200
-15.277000 0.464200
-15.244700 0.464200
-15.212400 0.464200
-15.180100 0.464200
-15.147700 0.464200
-15.115400 0.464200
-15.083100 0.464200
-15.050800 0.447500
-15.018500 0.414500
-14.986100 0.391500
-14.953800 0.364000
-14.921500 0.338100
-14.889200 0.338100
-14.856800 0.338100
-14.824500 0.338100
-14.792200 0.338100
-14.759900 0.338100
-14.727500 0.338100
-14.695200 0.338100
-14.662900 0.338100
-14.630600 0.338100
-14.598300 0.338100
-14.565900 0.338100
-14.533600 0.338100
-14.501300 0.338100
-14.469000 0.338100
-14.436600 0.338100
-14.404300 0.338100
-14.372000 0.338100
-14.339700 0.338100
-14.307300 0.338100
-14.275000 0.338100
-14.242700 0.461300
-14.210400 0.745800
-14.178100 1.118500
-14.145700 1.757500
-14.113400 2.585600
-14.081100 2.695700
-14.048800 2.516700
-14.016400 2.280800
-13.984100 1.893700
-13.951800 1.303800
-13.919500 1.148000
-13.887100 1.148000
-13.854800 1.143500
-13.822500 1.139000
-13.790200 1.135100
-13.757900 1.128700
-13.725500 1.128700
-13.693200 1.128800
-13.660900 1.128800
-13.628600 1.128800
-13.596200 1.128800
-13.563900 1.096500
-13.531600 1.051300
-13.499300 0.983300
-13.466900 0.860500
-13.434600 0.809400
-13.402300 0.809400
-13.370000 0.809400
-13.337700 0.809400
-13.305300 0.809400
-13.273000 0.809400
-13.240700 0.809400
-13.208400 0.809400
-13.176000 0.809400
-13.143700 0.809400
-13.111400 0.809400
-13.079100 0.809400
-13.046700 0.809400
-13.014400 0.809400
-12.982100 0.809400
-12.949800 0.809400
-12.917500 0.809400
-12.885100 0.809400
-12.852800 0.809400
-12.820500 0.809400
-12.788200 0.809400
-12.755800 0.802500
-12.723500 0.783700
-12.691200 0.756300
-12.658900 0.702500
-12.626500 0.675600
-12.594200 0.593200
-12.561900 0.515600
-12.529600 0.438800
-12.497300 0.356800
-12.464900 0.356800
-12.432600 0.356800
-12.400300 0.356800
-12.368000 0.356800
-12.335600 0.356800
-12.303300 0.356800
-12.271000 0.356800
-12.238700 0.356800
-12.206300 0.356800
-12.174000 0.356800
-12.141700 0.356800
-12.109400 0.356800
-12.077100 0.508100
-12.044700 0.739000
-12.012400 0.941300
-11.980100 1.210600
-11.947800 1.210600
-11.915400 1.210500
-11.883100 1.210500
-11.850800 1.210500
-11.818500 1.210500
-11.786100 1.210400
-11.753800 1.210400
-11.721500 1.210400
-11.689200 1.210400
-11.656900 1.210300
-11.624500 1.136800
-11.592200 0.925200
-11.559900 0.579100
-11.527600 0.031300
-11.495200 0.000000
-11.462900 0.000000
-11.430600 0.000000
-11.398300 0.000000
-11.365900 0.000000
-11.333600 0.000000
-11.301300 0.000000
-11.269000 0.000000
-11.236700 0.000000
-11.204300 0.000000
-11.172000 0.000000
-11.139700 0.000000
-11.107400 0.000000
-11.075000 0.000000
-11.042700 0.000000
-11.010400 0.000000
-10.978100 0.000000
-10.945700 0.000000
-10.913400 0.000000
-10.881100 0.000000
-10.848800 0.000000
-10.816500 0.000000
-10.784100 0.000000
-10.751800 0.000000
-10.719500 0.000000
-10.687200 0.000000
-10.654800 0.000000
-10.622500 0.000000
-10.590200 0.000000
-10.557900 0.912200
-10.525500 1.578100
-10.493200 2.445800
-10.460900 2.445800
-10.428600 2.445900
-10.396300 2.445900
-10.363900 1.427800
-10.331600 0.244700
-10.299300 0.244700
-10.267000 0.244700
-10.234600 0.244700
-10.202300 0.244700
-10.170000 0.244700
-10.137700 0.244700
-10.105300 0.244700
-10.073000 0.244700
-10.040700 0.244700
-10.008400 0.244700
-9.976100 0.244700
-9.943700 0.244700
-9.911400 0.327900
-9.879100 0.519200
-9.846800 0.519200
-9.814400 0.519200
-9.782100 0.519200
-9.749800 0.519200
-9.717500 0.519200
-9.685100 0.519200
-9.652800 0.519200
-9.620500 0.616300
-9.588200 0.748800
-9.555900 0.882200
-9.523500 1.029600
-9.491200 1.190900
-9.458900 1.312500
-9.426600 1.476100
-9.394200 1.714800
-9.361900 1.948200
-9.329600 2.083100
-9.297300 2.155400
-9.264900 2.150600
-9.232600 2.113800
-9.200300 2.018900
-9.168000 1.881600
-9.135700 1.759900
-9.103300 1.644900
-9.071000 1.555200
-9.038700 1.793700
-9.006400 2.159200
-8.974000 2.396600
-8.941700 2.635800
-8.909400 2.825100
-8.877100 4.371400
-8.844700 2.790500
-8.812400 1.605200
-8.780100 1.034400
-8.747800 0.666500
-8.715500 0.381700
-8.683100 0.274500
-8.650800 0.274500
-8.618500 0.274500
-8.586200 0.274500
-8.553800 0.274500
-8.521500 0.274500
-8.489200 0.274500
-8.456900 0.306600
-8.424500 0.369300
-8.392200 0.385500
-8.359900 0.385500
-8.327600 0.385500
-8.295300 0.385500
-8.262900 0.385500
-8.230600 0.385500
-8.198300 0.385500
-8.166000 0.385500
-8.133600 0.385500
-8.101300 0.385500
-8.069000 0.385500
-8.036700 0.385400
-8.004300 0.385400
-7.972000 0.385400
-7.939700 0.385400
-7.907400 0.385400
-7.875100 0.385400
-7.842700 0.385400
-7.810400 0.385400
-7.778100 0.385400
-7.745800 0.385400
-7.713400 0.385400
-7.681100 0.385400
-7.648800 0.385400
-7.616500 0.385300
-7.584100 0.385300
-7.551800 0.385300
-7.519500 0.380900
-7.487200 0.371800
-7.454900 0.362700
-7.422500 0.353100
-7.390200 0.341300
-7.357900 0.331700
-7.325600 0.328100
-7.293200 0.327800
-7.260900 0.327800
-7.228600 0.327800
-7.196300 0.327800
-7.163900 0.327900
-7.131600 0.327900
-7.099300 0.327900
-7.067000 0.327900
-7.034700 0.327900
-7.002300 0.327900
-6.970000 0.327900
-6.937700 0.327900
-6.905400 0.327900
-6.873000 0.327900
-6.840700 0.483400
-6.808400 0.685000
-6.776100 0.957100
-6.743700 1.371000
-6.711400 2.112200
-6.679100 3.123000
-6.646800 5.651400
-6.614500 2.294500
-6.582100 1.024700
-6.549800 1.024700
-6.517500 1.024700
-6.485200 1.024700
-6.452800 1.024600
-6.420500 1.024600
-6.388200 1.024600
-6.355900 1.024600
-6.323500 1.024600
-6.291200 1.024600
-6.258900 1.024600
-6.226600 1.024600
-6.194300 1.070900
-6.161900 1.294500
-6.129600 1.334300
-6.097300 1.333400
-6.065000 1.332400
-6.032600 1.331400
-6.000300 1.352600
-5.968000 1.454300
-5.935700 1.555500
-5.903300 1.639500
-5.871000 1.609100
-5.838700 1.594900
-5.806400 1.595500
-5.774100 1.579100
-5.741700 1.574600
-5.709400 1.588900
-5.677100 1.557700
-5.644800 1.501900
-5.612400 1.358200
-5.580100 1.318100
-5.547800 1.199500
-5.515500 1.371800
-5.483100 1.549000
-5.450800 1.518800
-5.418500 1.453200
-5.386200 1.364000
-5.353900 1.322300
-5.321500 1.293200
-5.289200 1.291900
-5.256900 1.296900
-5.224600 1.283800
-5.192200 1.264000
-5.159900 1.270500
-5.127600 1.366800
-5.095300 1.429400
-5.062900 1.502400
-5.030600 1.535800
-4.998300 1.439000
-4.966000 1.482300
-4.933700 1.517000
-4.901300 1.499300
-4.869000 1.501600
-4.836700 1.529100
-4.804400 1.541600
-4.772000 1.605900
-4.739700 1.722900
-4.707400 1.889000
-4.675100 2.152900
-4.642700 2.411700
-4.610400 2.753000
-4.578100 3.081400
-4.545800 3.473600
-4.513500 5.035900
-4.481100 5.082900
-4.448800 5.362500
-4.416500 5.629500
-4.384200 4.323800
-4.351800 3.564300
-4.319500 4.494300
-4.287200 5.423600
-4.254900 6.595400
-4.222500 1.561800
-4.190200 1.504200
-4.157900 1.498800
-4.125600 1.484700
-4.093300 1.466200
-4.060900 1.438500
-4.028600 1.445000
-3.996300 1.494700
-3.964000 1.554500
-3.931600 1.634100
-3.899300 1.794800
-3.867000 2.071100
-3.834700 2.813600
-3.802300 0.898400
-3.770000 0.869700
-3.737700 0.897500
-3.705400 0.927300
-3.673100 0.959100
-3.640700 0.992900
-3.608400 1.030400
-3.576100 1.073800
-3.543800 1.123800
-3.511400 1.180500
-3.479100 1.243800
-3.446800 1.319100
-3.414500 1.617600
-3.382100 1.486600
-3.349800 1.407800
-3.317500 1.416200
-3.285200 1.445900
-3.252900 1.382500
-3.220500 1.027400
-3.188200 0.662300
-3.155900 0.739400
-3.123600 0.803300
-3.091200 0.849200
-3.058900 0.890500
-3.026600 0.928400
-2.994300 0.963900
-2.961900 1.001900
-2.929600 1.116400
-2.897300 1.298200
-2.865000 1.335400
-2.832700 1.379000
-2.800300 1.459200
-2.768000 1.592800
-2.735700 1.895300
-2.703400 1.968900
-2.671000 2.117800
-2.638700 2.159000
-2.606400 2.195100
-2.574100 2.212600
-2.541700 2.240000
-2.509400 2.507800
-2.477100 2.474700
-2.444800 2.413400
-2.412500 2.467800
-2.380100 2.594000
-2.347800 2.679900
-2.315500 2.921500
-2.283200 3.163200
-2.250800 1.704300
-2.218500 1.432900
-2.186200 1.316800
-2.153900 1.294000
-2.121500 1.320300
-2.089200 1.372500
-2.056900 1.465300
-2.024600 1.596700
-1.992300 1.836300
-1.959900 2.289700
-1.927600 2.439000
-1.895300 2.346300
-1.863000 2.106400
-1.830600 1.860000
-1.798300 1.716200
-1.766000 1.545200
-1.733700 1.532000
-1.701300 1.477500
-1.669000 1.421100
-1.636700 1.214900
-1.604400 1.013800
-1.572100 0.991600
-1.539700 0.961900
-1.507400 0.937900
-1.475100 0.919600
-1.442800 0.904200
-1.410400 0.890300
-1.378100 0.877700
-1.345800 0.866000
-1.313500 0.854500
-1.281100 0.843100
-1.248800 0.831700
-1.216500 0.819100
-1.184200 0.802900
-1.151900 0.783200
-1.119500 0.770000
-1.087200 0.759400
-1.054900 0.754300
-1.022600 0.757400
-0.990200 0.762100
-0.957900 0.769200
-0.925600 0.774900
-0.893300 0.774900
-0.860900 0.774900
-0.828600 0.774900
-0.796300 0.774900
-0.764000 0.774900
-0.731700 0.743700
-0.699300 0.713200
-0.667000 0.693000
-0.634700 0.672300
-0.602400 0.654200
-0.570000 0.636500
-0.537700 0.616900
-0.505400 0.600100
-0.473100 0.585200
-0.440700 0.570800
-0.408400 0.556400
-0.376100 0.542200
-0.343800 0.528400
-0.311500 0.514400
-0.279100 0.500200
-0.246800 0.485700
-0.214500 0.469900
-0.182200 0.453400
-0.149800 0.434400
-0.117500 0.415400
-0.085200 0.395200
-0.052900 0.375400
-0.020500 0.353600
0.011800 0.325300
0.044100 0.296100
0.076400 0.296100
0.108700 0.296100
0.141100 0.296100
0.173400 0.296100
0.205700 0.296100
0.238000 0.296100
0.270400 0.296100
0.302700 0.296100
0.335000 0.296100
0.367300 0.296100
0.399700 0.296100
0.432000 0.296100
0.464300 0.296100
0.496600 0.296100
0.528900 0.296100
0.561300 0.296100
0.593600 0.296100
0.625900 0.296100
0.658200 0.296100
0.690600 0.318500
0.722900 0.373400
0.755200 0.440500
0.787500 0.554200
0.819900 0.650400
0.852200 0.714600
0.884500 0.767300
0.916800 0.810900
0.949100 0.849900
0.981500 0.685800
1.013800 0.600600
1.046100 0.564100
1.078400 0.528900
1.110800 0.501700
1.143100 0.486400
1.175400 0.473500
1.207700 0.466800
1.240100 0.457600
1.272400 0.448600
1.304700 0.434200
1.337000 0.408000
1.369300 0.382800
1.401700 0.359800
1.434000 0.338100
1.466300 0.317100
1.498600 0.297000
1.531000 0.277500
1.563300 0.258400
1.595600 0.239500
1.627900 0.221200
1.660300 0.203500
1.692600 0.186500
1.724900 0.167900
1.757200 0.148300
1.789500 0.182300
1.821900 0.262700
1.854200 0.290200
1.886500 0.309700
1.918800 0.290100
1.951200 0.326400
1.983500 0.359500
2.015800 0.390200
2.048100 0.420100
2.080500 0.449900
2.112800 0.479000
2.145100 0.507300
2.177400 0.539900
2.209700 0.571800
2.242100 0.552600
2.274400 0.548000
2.306700 0.606400
2.339000 0.577600
2.371400 0.555100
2.403700 0.535300
2.436000 0.516000
2.468300 0.498400
2.500700 0.483000
2.533000 0.468000
2.565300 0.453500
2.597600 0.439700
2.629900 0.426700
2.662300 0.414100
2.694600 0.401900
2.726900 0.389900
2.759200 0.377700
2.791600 0.366000
2.823900 0.354700
2.856200 0.342600
2.888500 0.329400
2.920900 0.316700
2.953200 0.300900
2.985500 0.276500
3.017800 0.258400
3.050100 0.258400
3.082500 0.258400
3.114800 0.258400
3.147100 0.258400
3.179400 0.258400
3.211800 0.258400
3.244100 0.258400
3.276400 0.258400
3.308700 0.258400
3.341100 0.258400
3.373400 0.258400
3.405700 0.258400
3.438000 0.258400
3.470300 0.258400
3.502700 0.258400
3.535000 0.258400
3.567300 0.258300
3.599600 0.258300
3.632000 0.258300
3.664300 0.258300
3.696600 0.258300
3.728900 0.258300
3.761300 0.258300
3.793600 0.258300
3.825900 0.264800
3.858200 0.275900
3.890500 0.318200
3.922900 0.364600
3.955200 0.402200
3.987500 0.430900
4.019800 0.457800
4.052200 0.482600
4.084500 0.507400
4.116800 0.532500
4.149100 0.558900
4.181500 0.587500
4.213800 0.624200
4.246100 0.692100
4.278400 0.699300
4.310700 0.707200
4.343100 0.715700
4.375400 0.726500
4.407700 0.739300
4.440000 0.747700
4.472400 0.754300
4.504700 0.759800
4.537000 0.761800
4.569300 0.761700
4.601700 0.761700
4.634000 0.804800
4.666300 0.892500
4.698600 1.095500
4.730900 1.202400
4.763300 1.201900
4.795600 1.229100
4.827900 1.269600
4.860200 1.331200
4.892600 1.429600
4.924900 1.620200
4.957200 2.051700
4.989500 1.622600
5.021900 1.494200
5.054200 1.392800
5.086500 1.355400
5.118800 1.328200
5.151100 1.301500
5.183500 1.320600
5.215800 1.318800
5.248100 1.295800
5.280400 1.286600
5.312800 1.272700
5.345100 1.260700
5.377400 1.261500
5.409700 1.217600
5.442100 1.050800
5.474400 0.954200
5.506700 0.870100
5.539000 0.800900
5.571300 0.736500
5.603700 0.678100
5.636000 0.635400
5.668300 0.574200
5.700600 0.524300
5.733000 0.488300
5.765300 0.438500
5.797600 0.398100
5.829900 0.297100
5.862300 0.251700
5.894600 0.251700
5.926900 0.259300
5.959200 0.353800
5.991500 0.432800
6.023900 0.505300
6.056200 0.575200
6.088500 0.646400
6.120800 0.685400
6.153200 0.714900
6.185500 0.750800
6.217800 0.810300
6.250100 0.842600
6.282500 0.862000
6.314800 0.905300
6.347100 0.956000
6.379400 1.001400
6.411700 1.042400
6.444100 1.090000
6.476400 1.137600
6.508700 1.202700
6.541000 1.274200
6.573400 1.350800
6.605700 1.411100
6.638000 1.493600
6.670300 1.676300
6.702700 2.660800
6.735000 1.972100
6.767300 1.899900
6.799600 1.883200
6.831900 1.876600
6.864300 1.703800
6.896600 1.508900
6.928900 1.402200
6.961200 1.324200
6.993600 1.280400
7.025900 1.225400
7.058200 1.185700
7.090500 1.093000
7.122900 1.324900
7.155200 1.026700
7.187500 0.864000
7.219800 0.702400
7.252100 0.643400
7.284500 0.637300
7.316800 0.752400
7.349100 1.102900
7.381400 1.442400
7.413800 1.648400
7.446100 1.825900
7.478400 1.618400
7.510700 1.550500
7.543100 1.521800
7.575400 1.506300
7.607700 1.517300
7.640000 1.558400
7.672300 1.638100
7.704700 1.783100
7.737000 1.807600
7.769300 1.846300
7.801600 1.776100
7.834000 1.723500
7.866300 1.713800
7.898600 1.704300
7.930900 1.697600
7.963300 1.652400
7.995600 1.575500
8.027900 1.532300
8.060200 1.470000
8.092500 1.401500
8.124900 1.331500
8.157200 1.274200
8.189500 1.199000
8.221800 1.125300
8.254200 1.067400
8.286500 1.011900
8.318800 0.945200
8.351100 0.903900
8.383500 0.866700
8.415800 0.827000
8.448100 0.798900
8.480400 0.783700
8.512700 0.786700
8.545100 0.774300
8.577400 0.774400
8.609700 0.777000
8.642000 0.774000
8.674400 0.771700
8.706700 0.793800
8.739000 0.821500
8.771300 0.843100
8.803700 0.914700
8.836000 1.023900
8.868300 1.138500
8.900600 1.221000
8.932900 1.251900
8.965300 1.260400
8.997600 1.281100
9.029900 1.349600
9.062200 1.411500
9.094600 1.484900
9.126900 1.598700
9.159200 1.755600
9.191500 1.808800
9.223900 1.782100
9.256200 1.716900
9.288500 1.679300
9.320800 1.705600
9.353100 1.841300
9.385500 2.150900
9.417800 2.531700
9.450100 2.452000
9.482400 2.453600
9.514800 2.359500
9.547100 2.290200
9.579400 2.239000
9.611700 2.104400
9.644100 1.964300
9.676400 1.840100
9.708700 1.728300
9.741000 1.512500
9.773300 1.319800
9.805700 1.210000
9.838000 1.112300
9.870300 1.045100
9.902600 1.018300
9.935000 1.042000
9.967300 1.083900
9.999600 1.121800
10.031900 1.172400
10.064300 1.230100
10.096600 1.287400
10.128900 1.352300
10.161200 1.423400
10.193500 1.496900
10.225900 1.640800
10.258200 1.826000
10.290500 2.028800
10.322800 2.242200
10.355200 2.412100
10.387500 2.554200
10.419800 2.716300
10.452100 2.755200
10.484500 2.700200
10.516800 2.678200
10.549100 2.603600
10.581400 2.594800
10.613700 2.577800
10.646100 2.640500
10.678400 2.729200
10.710700 2.861900
10.743000 2.864500
10.775400 2.677300
10.807700 2.421700
10.840000 2.275000
10.872300 2.193000
10.904700 2.099700
10.937000 2.060700
10.969300 1.981100
11.001600 2.011700
11.033900 1.935700
11.066300 1.892600
11.098600 1.878100
11.130900 1.916400
11.163200 2.021200
11.195600 2.218000
11.227900 2.450900
11.260200 2.715500
11.292500 2.765000
11.324900 2.753700
11.357200 2.734200
11.389500 2.720400
11.421800 2.588600
11.454100 2.505200
11.486500 2.323900
11.518800 2.205100
11.551100 2.191100
11.583400 2.193300
11.615800 2.236900
11.648100 2.306600
11.680400 2.348800
11.712700 2.367200
11.745100 2.425100
11.777400 2.529700
11.809700 2.520400
11.842000 2.529200
11.874300 2.531900
11.906700 2.491400
11.939000 2.435800
11.971300 2.407800
12.003600 2.380700
12.036000 2.451300
12.068300 2.494400
12.100600 2.558500
12.132900 2.438800
12.165300 2.217200
12.197600 2.047800
12.229900 1.940900
12.262200 1.861800
12.294500 1.767900
12.326900 1.653800
12.359200 1.589200
12.391500 1.646300
12.423800 1.669700
12.456200 1.717100
12.488500 1.778200
12.520800 1.800100
12.553100 1.804900
12.585500 1.817400
12.617800 1.879400
12.650100 1.926000
12.682400 1.954300
12.714700 1.997500
12.747100 2.084400
12.779400 2.234100
12.811700 2.392100
12.844000 2.562100
12.876400 2.787400
12.908700 2.840800
12.941000 2.991600
12.973300 3.080800
13.005700 3.096700
13.038000 3.104100
13.070300 3.397200
13.102600 2.816100
13.134900 2.735700
13.167300 2.679700
13.199600 2.473900
13.231900 2.458200
13.264200 2.413100
13.296600 2.510600
13.328900 2.587100
13.361200 2.698000
13.393500 2.807100
13.425900 2.915000
13.458200 3.080100
13.490500 3.220300
13.522800 3.308100
13.555100 3.318100
13.587500 3.283100
13.619800 3.119300
13.652100 2.964800
13.684400 2.770600
13.716800 2.578300
13.749100 2.456100
13.781400 2.329300
13.813700 2.198700
13.846100 2.016300
13.878400 1.911800
13.910700 1.820500
13.943000 1.729300
