set title 'mp-10597 - Density of States'
set xlabel 'Energy (eV)'
set ylabel 'DOS (states/eV)'
set grid
set xrange [-10:10]
set yrange [0:12.552]
set xzeroaxis lt -1
set terminal png size 800,600
set output 'mp-10597_dos_gnuplot.png'
plot '-' using 1:2 with lines title 'DOS'
-5.932800 0.000000
-5.915300 0.000000
-5.897700 0.000000
-5.880200 0.000000
-5.862600 0.000000
-5.845100 0.000000
-5.827500 0.000000
-5.809900 0.000000
-5.792400 0.000000
-5.774800 0.000000
-5.757300 0.000000
-5.739700 0.000000
-5.722200 0.000000
-5.704600 0.000000
-5.687100 0.000000
-5.669500 0.000000
-5.651900 0.000000
-5.634400 0.000000
-5.616800 0.000000
-5.599300 0.000000
-5.581700 0.000000
-5.564200 0.000000
-5.546600 0.000000
-5.529100 0.000000
-5.511500 0.000000
-5.493900 0.000000
-5.476400 0.000000
-5.458800 0.000000
-5.441300 0.000000
-5.423700 0.000000
-5.406200 0.000000
-5.388600 0.000000
-5.371000 0.000000
-5.353500 0.000000
-5.335900 0.000000
-5.318400 0.000000
-5.300800 0.000000
-5.283300 0.000000
-5.265700 0.000000
-5.248200 0.000000
-5.230600 0.000000
-5.213000 0.000000
-5.195500 0.000000
-5.177900 0.000000
-5.160400 0.000000
-5.142800 0.000000
-5.125300 0.000000
-5.107700 0.000000
-5.090200 0.000000
-5.072600 0.000000
-5.055000 0.000000
-5.037500 0.000000
-5.019900 0.000000
-5.002400 0.000000
-4.984800 0.000000
-4.967300 0.000000
-4.949700 0.000000
-4.932200 0.000000
-4.914600 0.000000
-4.897000 0.000000
-4.879500 0.000000
-4.861900 0.000000
-4.844400 0.000000
-4.826800 0.000000
-4.809300 0.000000
-4.791700 0.000000
-4.774200 0.000000
-4.756600 0.000000
-4.739000 0.000000
-4.721500 0.000000
-4.703900 0.000000
-4.686400 0.000000
-4.668800 0.000000
-4.651300 0.000000
-4.633700 0.000000
-4.616100 0.000000
-4.598600 0.000000
-4.581000 0.000000
-4.563500 0.000000
-4.545900 0.000000
-4.528400 0.000000
-4.510800 0.000000
-4.493300 0.000000
-4.475700 0.000000
-4.458100 0.000000
-4.440600 0.000000
-4.423000 0.000000
-4.405500 0.000000
-4.387900 0.000000
-4.370400 0.000000
-4.352800 0.000000
-4.335300 0.000000
-4.317700 0.005200
-4.300100 0.019200
-4.282600 0.041200
-4.265000 0.049800
-4.247500 0.052900
-4.229900 0.055300
-4.212400 0.062300
-4.194800 0.069600
-4.177300 0.077100
-4.159700 0.084400
-4.142100 0.089700
-4.124600 0.092500
-4.107000 0.094100
-4.089500 0.097600
-4.071900 0.101800
-4.054400 0.106200
-4.036800 0.110700
-4.019300 0.115100
-4.001700 0.119500
-3.984100 0.124100
-3.966600 0.128900
-3.949000 0.132900
-3.931500 0.136400
-3.913900 0.139500
-3.896400 0.142600
-3.878800 0.146000
-3.861200 0.149300
-3.843700 0.152700
-3.826100 0.156200
-3.808600 0.159800
-3.791000 0.163600
-3.773500 0.167600
-3.755900 0.171700
-3.738400 0.176000
-3.720800 0.180300
-3.703200 0.184700
-3.685700 0.188700
-3.668100 0.192300
-3.650600 0.195900
-3.633000 0.199600
-3.615500 0.203400
-3.597900 0.207300
-3.580400 0.211500
-3.562800 0.215900
-3.545200 0.220300
-3.527700 0.224800
-3.510100 0.229400
-3.492600 0.234200
-3.475000 0.239100
-3.457500 0.244000
-3.439900 0.249100
-3.422400 0.254200
-3.404800 0.259400
-3.387200 0.264600
-3.369700 0.269900
-3.352100 0.275700
-3.334600 0.282300
-3.317000 0.289100
-3.299500 0.296000
-3.281900 0.303300
-3.264400 0.310800
-3.246800 0.318700
-3.229200 0.326700
-3.211700 0.335000
-3.194100 0.343500
-3.176600 0.352300
-3.159000 0.361500
-3.141500 0.371100
-3.123900 0.381100
-3.106400 0.394900
-3.088800 0.420000
-3.071200 0.443600
-3.053700 0.677700
-3.036100 1.192700
-3.018600 1.460100
-3.001000 1.710000
-2.983500 2.111900
-2.965900 2.821600
-2.948300 3.110800
-2.930800 3.252800
-2.913200 3.472600
-2.895700 3.781200
-2.878100 4.228400
-2.860600 4.677400
-2.843000 5.174700
-2.825500 5.457900
-2.807900 5.664400
-2.790300 5.388000
-2.772800 5.455500
-2.755200 5.563100
-2.737700 5.614100
-2.720100 5.725200
-2.702600 5.868200
-2.685000 6.092400
-2.667500 6.460500
-2.649900 6.929600
-2.632300 7.935500
-2.614800 7.866800
-2.597200 7.630600
-2.579700 7.873800
-2.562100 7.387100
-2.544600 7.497700
-2.527000 6.580800
-2.509500 6.138500
-2.491900 5.748400
-2.474300 5.514300
-2.456800 5.372900
-2.439200 5.229900
-2.421700 5.065700
-2.404100 5.448100
-2.386600 5.996100
-2.369000 6.757800
-2.351500 5.603600
-2.333900 5.249800
-2.316300 5.043500
-2.298800 4.978600
-2.281200 5.341400
-2.263700 5.518700
-2.246100 5.690400
-2.228600 5.754900
-2.211000 5.939900
-2.193400 6.885200
-2.175900 8.256500
-2.158300 7.724100
-2.140800 6.245500
-2.123200 5.692300
-2.105700 5.262000
-2.088100 5.167700
-2.070600 4.844100
-2.053000 4.856700
-2.035400 4.900900
-2.017900 4.790400
-2.000300 5.091900
-1.982800 5.979900
-1.965200 6.742300
-1.947700 7.249700
-1.930100 7.093700
-1.912600 6.703300
-1.895000 6.597000
-1.877400 6.712200
-1.859900 6.576400
-1.842300 5.949500
-1.824800 5.934600
-1.807200 5.589600
-1.789700 5.270000
-1.772100 4.657100
-1.754600 4.239700
-1.737000 4.447500
-1.719400 4.723200
-1.701900 5.446600
-1.684300 5.573600
-1.666800 5.446100
-1.649200 5.991300
-1.631700 7.019300
-1.614100 6.940700
-1.596600 7.119700
-1.579000 7.617500
-1.561400 8.861200
-1.543900 9.745900
-1.526300 9.605600
-1.508800 9.023000
-1.491200 9.054600
-1.473700 8.596500
-1.456100 7.302200
-1.438600 6.336800
-1.421000 6.029500
-1.403400 6.347000
-1.385900 6.923300
-1.368300 7.266100
-1.350800 7.756900
-1.333200 7.509300
-1.315700 8.039900
-1.298100 7.527200
-1.280500 6.749200
-1.263000 6.827700
-1.245400 7.108600
-1.227900 7.297100
-1.210300 7.320500
-1.192800 7.804600
-1.175200 7.496600
-1.157700 7.448700
-1.140100 7.851300
-1.122500 8.399700
-1.105000 7.935900
-1.087400 8.005000
-1.069900 8.092200
-1.052300 7.950900
-1.034800 7.754900
-1.017200 7.171900
-0.999700 6.971300
-0.982100 6.861600
-0.964500 7.443700
-0.947000 6.921300
-0.929400 6.036600
-0.911900 5.601700
-0.894300 5.493700
-0.876800 5.370900
-0.859200 5.342200
-0.841700 5.251100
-0.824100 5.216400
-0.806500 5.617500
-0.789000 5.751000
-0.771400 5.721900
-0.753900 5.563400
-0.736300 5.441800
-0.718800 5.297200
-0.701200 5.321300
-0.683700 5.320300
-0.666100 5.407600
-0.648500 5.391200
-0.631000 5.458600
-0.613400 5.512700
-0.595900 5.632300
-0.578300 5.710500
-0.560800 5.522700
-0.543200 5.369700
-0.525600 5.294600
-0.508100 5.348500
-0.490500 5.290100
-0.473000 5.224300
-0.455400 6.077900
-0.437900 5.089100
-0.420300 4.986200
-0.402800 4.970000
-0.385200 4.890500
-0.367600 4.941800
-0.350100 7.578700
-0.332500 5.372500
-0.315000 6.233000
-0.297400 6.484600
-0.279900 6.522900
-0.262300 7.093700
-0.244800 6.434300
-0.227200 6.861900
-0.209600 6.879500
-0.192100 6.890000
-0.174500 7.121400
-0.157000 7.490600
-0.139400 8.211800
-0.121900 8.839700
-0.104300 9.548200
-0.086800 10.325900
-0.069200 11.060400
-0.051600 10.916000
-0.034100 11.410500
-0.016500 11.290700
0.001000 10.554000
0.018600 9.909400
0.036100 11.380900
0.053700 10.654700
0.071200 8.675800
0.088800 8.122000
0.106400 7.795200
0.123900 3.400400
0.141500 0.594900
0.159000 0.584600
0.176600 0.576800
0.194100 0.569000
0.211700 0.566000
0.229200 0.564100
0.246800 0.563100
0.264400 0.562300
0.281900 0.561600
0.299500 0.561100
0.317000 0.557900
0.334600 0.541300
0.352100 0.526700
0.369700 0.512600
0.387300 0.500400
0.404800 0.492900
0.422400 0.486600
0.439900 0.481000
0.457500 0.473500
0.475000 0.469000
0.492600 0.465700
0.510100 0.463200
0.527700 0.461300
0.545300 0.460100
0.562800 0.459100
0.580400 0.458100
0.597900 0.457100
0.615500 0.456300
0.633000 0.455400
0.650600 0.455200
0.668100 0.455400
0.685700 0.455600
0.703300 0.455900
0.720800 0.456500
0.738400 0.457000
0.755900 0.457500
0.773500 0.458100
0.791000 0.458600
0.808600 0.459200
0.826100 0.458400
0.843700 0.457800
0.861300 0.457500
0.878800 0.458000
0.896400 0.458100
0.913900 0.456000
0.931500 0.455000
0.949000 0.454000
0.966600 0.453200
0.984100 0.451700
1.001700 0.450900
1.019300 0.450600
1.036800 0.450300
1.054400 0.450000
1.071900 0.449700
1.089500 0.449300
1.107000 0.449500
1.124600 0.449800
1.142200 0.450200
1.159700 0.450700
1.177300 0.451300
1.194800 0.451900
1.212400 0.452500
1.229900 0.453100
1.247500 0.453800
1.265000 0.454400
1.282600 0.455200
1.300200 0.456100
1.317700 0.457100
1.335300 0.458000
1.352800 0.457800
1.370400 0.458200
1.387900 0.458800
1.405500 0.458200
1.423000 0.458600
1.440600 0.459000
1.458200 0.459600
1.475700 0.460300
1.493300 0.461100
1.510800 0.461800
1.528400 0.462700
1.545900 0.463600
1.563500 0.464500
1.581000 0.465500
1.598600 0.465800
1.616200 0.465900
1.633700 0.466200
1.651300 0.466500
1.668800 0.466900
1.686400 0.467300
1.703900 0.467800
1.721500 0.468400
1.739000 0.469000
1.756600 0.469600
1.774200 0.470200
1.791700 0.470900
1.809300 0.471700
1.826800 0.472500
1.844400 0.473500
1.861900 0.474500
1.879500 0.475500
1.897000 0.476500
1.914600 0.477600
1.932200 0.477800
1.949700 0.478200
1.967300 0.478900
1.984800 0.479500
2.002400 0.480200
2.019900 0.480000
2.037500 0.480600
2.055100 0.481400
2.072600 0.482300
2.090200 0.483300
2.107700 0.484400
2.125300 0.485600
2.142800 0.486700
2.160400 0.487900
2.177900 0.489200
2.195500 0.490400
2.213100 0.491700
2.230600 0.493000
2.248200 0.494400
2.265700 0.495700
2.283300 0.497100
2.300800 0.498500
2.318400 0.499900
2.335900 0.501300
2.353500 0.502700
2.371100 0.504100
2.388600 0.505300
2.406200 0.506300
2.423700 0.507300
2.441300 0.508500
2.458800 0.509800
2.476400 0.511200
2.493900 0.512600
2.511500 0.514200
2.529100 0.516000
2.546600 0.517900
2.564200 0.520000
2.581700 0.521600
2.599300 0.523300
2.616800 0.525400
2.634400 0.527300
2.651900 0.529200
2.669500 0.531200
2.687100 0.533300
2.704600 0.535500
2.722200 0.538000
2.739700 0.540500
2.757300 0.543200
2.774800 0.546000
2.792400 0.548200
2.810000 0.550900
2.827500 0.553700
2.845100 0.556500
2.862600 0.559200
2.880200 0.561900
2.897700 0.564600
2.915300 0.567200
2.932800 0.569600
2.950400 0.595800
2.968000 0.616900
2.985500 0.628900
3.003100 0.629300
3.020600 0.628200
3.038200 0.625700
3.055700 0.622000
3.073300 0.614400
3.090800 0.604900
3.108400 0.595700
3.126000 0.590400
3.143500 0.586900
3.161100 0.584200
3.178600 0.582200
3.196200 0.581400
3.213700 0.578300
3.231300 0.575000
3.248800 0.572200
3.266400 0.569600
3.284000 0.567400
3.301500 0.565500
3.319100 0.564000
3.336600 0.561900
3.354200 0.559900
3.371700 0.558200
3.389300 0.557600
3.406800 0.566000
3.424400 0.578300
3.442000 0.593100
3.459500 0.588200
3.477100 0.566800
3.494600 0.564100
3.512200 0.560900
3.529700 0.557400
3.547300 0.553500
3.564800 0.549800
3.582400 0.548300
3.600000 0.546700
3.617500 0.545100
3.635100 0.543300
3.652600 0.541100
3.670200 0.540600
3.687700 0.608100
3.705300 0.540300
3.722900 0.523700
3.740400 0.522900
3.758000 0.522100
3.775500 0.521400
3.793100 0.520800
3.810600 0.520300
3.828200 0.519900
3.845700 0.519600
3.863300 0.519400
3.880900 0.519100
3.898400 0.519100
3.916000 0.519400
3.933500 0.520000
3.951100 0.529900
3.968600 0.542700
3.986200 0.517100
4.003700 0.517400
4.021300 0.518100
4.038900 0.519300
4.056400 0.521200
4.074000 0.522700
4.091500 0.523100
4.109100 0.523200
4.126600 0.522900
4.144200 0.524200
4.161700 0.527400
4.179300 0.530800
4.196900 0.534100
4.214400 0.537100
4.232000 0.539600
4.249500 0.540400
4.267100 0.543800
4.284600 0.538400
4.302200 0.532100
4.319700 0.532600
4.337300 0.533600
4.354900 0.534900
4.372400 0.536700
4.390000 0.535700
4.407500 0.539700
4.425100 0.544800
4.442600 0.553500
4.460200 0.565700
4.477800 0.566800
4.495300 0.567900
4.512900 0.574900
4.530400 0.596900
4.548000 0.615300
4.565500 0.628700
4.583100 0.635900
4.600600 0.638800
4.618200 0.639700
4.635800 0.638400
4.653300 0.620900
4.670900 0.578500
4.688400 0.568400
4.706000 0.567100
4.723500 0.566000
4.741100 0.565000
4.758600 0.564000
4.776200 0.563300
4.793800 0.562400
4.811300 0.561600
4.828900 0.560800
4.846400 0.560000
4.864000 0.559900
4.881500 0.562500
4.899100 0.577200
4.916600 0.599800
4.934200 0.631100
4.951800 0.679400
4.969300 0.666300
4.986900 0.701300
5.004400 0.576000
5.022000 0.565200
5.039500 0.556300
5.057100 0.549400
5.074600 0.544100
5.092200 0.539700
5.109800 0.534900
5.127300 0.529500
5.144900 0.525000
5.162400 0.520900
5.180000 0.518500
5.197500 0.519500
5.215100 0.523600
5.232600 0.530500
5.250200 0.553400
5.267800 0.541900
5.285300 0.527800
5.302900 0.510000
5.320400 0.507500
5.338000 0.505000
5.355500 0.502500
5.373100 0.499700
5.390700 0.495800
5.408200 0.490800
5.425800 0.485000
5.443300 0.483400
5.460900 0.496000
5.478400 0.514100
5.496000 0.535500
5.513500 0.513800
5.531100 0.499800
5.548700 0.498000
5.566200 0.494500
5.583800 0.489300
5.601300 0.482100
5.618900 0.477900
5.636400 0.475900
5.654000 0.474100
5.671500 0.472000
5.689100 0.469400
5.706700 0.465500
5.724200 0.461400
5.741800 0.458900
5.759300 0.456900
5.776900 0.455400
5.794400 0.454100
5.812000 0.452300
5.829500 0.450200
5.847100 0.462400
5.864700 0.461000
5.882200 0.438300
5.899800 0.434900
5.917300 0.431400
5.934900 0.428000
5.952400 0.424500
5.970000 0.421100
5.987500 0.417700
6.005100 0.414600
6.022700 0.411200
6.040200 0.408100
6.057800 0.405100
6.075300 0.402200
6.092900 0.399600
6.110400 0.396600
6.128000 0.393500
6.145600 0.390500
6.163100 0.387500
6.180700 0.384500
6.198200 0.381500
6.215800 0.378600
6.233300 0.375800
6.250900 0.373000
6.268400 0.389100
6.286000 0.384700
6.303600 0.369100
6.321100 0.367700
6.338700 0.366500
6.356200 0.369800
6.373800 0.375400
6.391300 0.379500
6.408900 0.385200
6.426400 0.391000
6.444000 0.406800
6.461600 0.404200
6.479100 0.402100
6.496700 0.404000
6.514200 0.387300
6.531800 0.389000
6.549300 0.389900
6.566900 0.392100
6.584400 0.394600
6.602000 0.397500
6.619600 0.400300
6.637100 0.402900
6.654700 0.405300
6.672200 0.407500
6.689800 0.434200
6.707300 0.383500
6.724900 0.373600
6.742400 0.368600
6.760000 0.363300
6.777600 0.356200
6.795100 0.353900
6.812700 0.346200
6.830200 0.339100
6.847800 0.333000
6.865300 0.315100
6.882900 0.311400
6.900400 0.307800
6.918000 0.304300
6.935600 0.301200
6.953100 0.298300
6.970700 0.295000
6.988200 0.292700
7.005800 0.290700
7.023300 0.288900
7.040900 0.287100
7.058500 0.285400
7.076000 0.283800
7.093600 0.282300
7.111100 0.280800
7.128700 0.279200
7.146200 0.277600
7.163800 0.275900
7.181300 0.274200
7.198900 0.272500
7.216500 0.270800
7.234000 0.268900
7.251600 0.267000
7.269100 0.277200
7.286700 0.309700
7.304200 0.359500
7.321800 0.431000
7.339300 0.393900
7.356900 0.418700
7.374500 0.435300
7.392000 0.455700
7.409600 0.479300
7.427100 0.506200
7.444700 0.553400
7.462200 0.607200
7.479800 0.657200
7.497300 0.651900
7.514900 0.616300
7.532500 0.607500
7.550000 0.605700
7.567600 0.608600
7.585100 0.617700
7.602700 0.629400
7.620200 0.645500
7.637800 0.667900
7.655300 0.698700
7.672900 0.745100
7.690500 0.753600
7.708000 0.768200
7.725600 0.773700
7.743100 0.770600
7.760700 0.771400
7.778200 0.776100
7.795800 0.883600
7.813400 0.780600
7.830900 0.776900
7.848500 0.776100
7.866000 0.777500
7.883600 0.781200
7.901100 0.787200
7.918700 0.794800
7.936200 0.803700
7.953800 0.814000
7.971400 0.828300
7.988900 0.861400
8.006500 0.896100
8.024000 0.931700
8.041600 0.964200
8.059100 0.961600
8.076700 0.961900
8.094200 1.009000
8.111800 0.953100
8.129400 0.941900
8.146900 0.926900
8.164500 0.909200
8.182000 0.881300
8.199600 0.872400
8.217100 0.877400
8.234700 0.873600
8.252200 0.869600
8.269800 0.858600
8.287400 0.856200
8.304900 0.854200
8.322500 0.852700
8.340000 0.851500
8.357600 0.850700
8.375100 0.850300
8.392700 0.850400
8.410200 0.848800
8.427800 0.837500
8.445400 0.837100
8.462900 0.834400
8.480500 0.831900
8.498000 0.829600
8.515600 0.827500
8.533100 0.815900
8.550700 0.819700
8.568200 0.824300
8.585800 0.825400
8.603400 0.827100
8.620900 0.833100
8.638500 0.840200
8.656000 0.842800
8.673600 0.844500
8.691100 0.846000
8.708700 0.847000
8.726300 0.847200
8.743800 0.848200
8.761400 0.848400
8.778900 0.844600
8.796500 0.841000
8.814000 0.843400
8.831600 0.840700
8.849100 0.837600
8.866700 0.834100
8.884300 0.826900
8.901800 0.825700
8.919400 0.824100
8.936900 0.822000
8.954500 0.819900
8.972000 0.821200
8.989600 0.818500
9.007100 0.819600
9.024700 0.821300
9.042300 0.823200
9.059800 0.825200
9.077400 0.827400
9.094900 0.830400
9.112500 0.834300
9.130000 0.839500
9.147600 0.846100
9.165100 0.848900
9.182700 0.847100
9.200300 0.848000
9.217800 0.861500
9.235400 0.874600
9.252900 0.886800
9.270500 0.897700
9.288000 0.891700
9.305600 0.891800
9.323100 0.891700
9.340700 0.889100
9.358300 0.875300
9.375800 0.873600
9.393400 0.872500
9.410900 0.871600
9.428500 0.869200
9.446000 0.866500
9.463600 0.864000
9.481200 0.862200
9.498700 0.862500
9.516300 0.862700
9.533800 0.862800
9.551400 0.863100
9.568900 0.863700
9.586500 0.866000
9.604000 0.868100
9.621600 0.870500
9.639200 0.874200
9.656700 0.878500
9.674300 0.880700
9.691800 0.881600
9.709400 0.883500
9.726900 0.888100
9.744500 0.894500
9.762000 0.901500
9.779600 0.909100
9.797200 0.917400
9.814700 0.925000
9.832300 0.937700
9.849800 0.953500
9.867400 0.970100
9.884900 0.987600
9.902500 1.006100
9.920000 1.013200
9.937600 0.975700
9.955200 0.945400
9.972700 0.937500
9.990300 0.935200
10.007800 0.932700
10.025400 0.930300
10.042900 0.927700
10.060500 0.925500
10.078000 0.923900
10.095600 0.922100
10.113200 0.920500
10.130700 0.919300
10.148300 0.918600
10.165800 0.917900
10.183400 0.916900
10.200900 0.915300
10.218500 0.912700
10.236000 0.909200
10.253600 0.906000
10.271200 0.904400
10.288700 0.905700
10.306300 0.910800
10.323800 0.901400
10.341400 0.880400
10.358900 0.856600
10.376500 0.847500
10.394100 0.842800
10.411600 0.839100
10.429200 0.835200
10.446700 0.832700
10.464300 0.831400
10.481800 0.828300
10.499400 0.823300
10.516900 0.817500
10.534500 0.813700
10.552100 0.811600
10.569600 0.811600
10.587200 0.812400
10.604700 0.812700
10.622300 0.812400
10.639800 0.810900
10.657400 0.807300
10.674900 0.805100
10.692500 0.804400
10.710100 0.805100
10.727600 0.806800
10.745200 0.808400
10.762700 0.810100
10.780300 0.811900
10.797800 0.813900
10.815400 0.816300
10.832900 0.818100
10.850500 0.818700
10.868100 0.818900
10.885600 0.818900
10.903200 0.818600
10.920700 0.818400
10.938300 0.817200
10.955800 0.816200
10.973400 0.814100
10.990900 0.812800
11.008500 0.812100
11.026100 0.811600
11.043600 0.808600
11.061200 0.804900
11.078700 0.801400
11.096300 0.798100
11.113800 0.797100
11.131400 0.797200
11.149000 0.796500
11.166500 0.795200
11.184100 0.793800
11.201600 0.790900
11.219200 0.787600
11.236700 0.783400
11.254300 0.779300
11.271800 0.774500
11.289400 0.768700
11.307000 0.763000
11.324500 0.759700
11.342100 0.757800
11.359600 0.755800
11.377200 0.753500
11.394700 0.751100
11.412300 0.749500
11.429800 0.748200
11.447400 0.748800
11.465000 0.746800
11.482500 0.745600
11.500100 0.745900
11.517600 0.742900
11.535200 0.739700
11.552700 0.736400
11.570300 0.733300
11.587800 0.730300
11.605400 0.725700
11.623000 0.723100
11.640500 0.720200
11.658100 0.716700
11.675600 0.713200
11.693200 0.710100
11.710700 0.707000
11.728300 0.702800
11.745800 0.699900
11.763400 0.695600
11.781000 0.691200
11.798500 0.686900
11.816100 0.682900
11.833600 0.678800
11.851200 0.673700
11.868700 0.667500
11.886300 0.661100
11.903800 0.664500
11.921400 0.638900
11.939000 0.637800
11.956500 0.637100
11.974100 0.637000
11.991600 0.637400
12.009200 0.638400
12.026700 0.640000
12.044300 0.644100
12.061900 0.645500
12.079400 0.646700
12.097000 0.647200
12.114500 0.646800
12.132100 0.649500
12.149600 0.646900
12.167200 0.643100
12.184700 0.641200
12.202300 0.640700
12.219900 0.637200
12.237400 0.638000
12.255000 0.638900
12.272500 0.639900
12.290100 0.641000
12.307600 0.642200
12.325200 0.643600
12.342700 0.645200
12.360300 0.647000
12.377900 0.649000
12.395400 0.652600
12.413000 0.662000
12.430500 0.675900
12.448100 0.682000
12.465600 0.682500
12.483200 0.685400
12.500700 0.690500
12.518300 0.696200
12.535900 0.701800
12.553400 0.706900
12.571000 0.711500
12.588500 0.715500
12.606100 0.719200
12.623600 0.722700
12.641200 0.726500
12.658700 0.730400
12.676300 0.734500
12.693900 0.749400
12.711400 0.754000
12.729000 0.757800
12.746500 0.763300
12.764100 0.770400
12.781600 0.779000
