set title 'mp-570896 - Density of States'
set xlabel 'Energy (eV)'
set ylabel 'DOS (states/eV)'
set grid
set xrange [-10:10]
set yrange [0:81.612]
set xzeroaxis lt -1
set terminal png size 800,600
set output 'mp-570896_dos_gnuplot.png'
plot '-' using 1:2 with lines title 'DOS'
-6.591400 0.000000
-6.576900 0.000000
-6.562400 0.000000
-6.547900 0.000000
-6.533400 0.000000
-6.518900 0.000000
-6.504400 0.000000
-6.489900 0.000000
-6.475400 0.000000
-6.460900 0.000000
-6.446400 0.000000
-6.431900 0.000000
-6.417300 0.000000
-6.402800 0.000000
-6.388300 0.000000
-6.373800 0.000000
-6.359300 0.000000
-6.344800 0.000000
-6.330300 0.000000
-6.315800 0.000000
-6.301300 0.000000
-6.286800 0.000000
-6.272300 0.000000
-6.257800 0.000000
-6.243300 0.000000
-6.228800 0.000000
-6.214300 0.000000
-6.199800 0.000000
-6.185300 0.000000
-6.170800 0.000000
-6.156300 0.000000
-6.141800 0.000000
-6.127300 0.000000
-6.112800 0.000000
-6.098300 0.000000
-6.083800 0.000000
-6.069300 0.000000
-6.054800 0.000000
-6.040200 0.000000
-6.025700 0.000000
-6.011200 0.000000
-5.996700 0.000000
-5.982200 0.000000
-5.967700 0.000000
-5.953200 0.000000
-5.938700 0.000000
-5.924200 0.000000
-5.909700 0.000000
-5.895200 0.000000
-5.880700 0.000000
-5.866200 0.000000
-5.851700 0.000000
-5.837200 0.000000
-5.822700 0.000000
-5.808200 0.000000
-5.793700 0.000000
-5.779200 0.000000
-5.764700 0.000000
-5.750200 0.000000
-5.735700 0.000000
-5.721200 0.000000
-5.706700 0.000000
-5.692200 0.000000
-5.677700 0.000000
-5.663100 0.000000
-5.648600 0.000000
-5.634100 0.000000
-5.619600 0.000000
-5.605100 0.000000
-5.590600 0.000000
-5.576100 0.000000
-5.561600 0.000000
-5.547100 0.000000
-5.532600 0.000000
-5.518100 0.000000
-5.503600 0.000000
-5.489100 0.000000
-5.474600 0.000000
-5.460100 0.000000
-5.445600 0.000000
-5.431100 0.000000
-5.416600 0.000200
-5.402100 0.001100
-5.387600 0.005700
-5.373100 0.025900
-5.358600 0.101400
-5.344100 0.342600
-5.329600 1.000400
-5.315100 2.530100
-5.300600 5.559100
-5.286100 10.652100
-5.271500 17.894100
-5.257000 26.546100
-5.242500 35.143500
-5.228000 42.130800
-5.213500 46.623100
-5.199000 48.694600
-5.184500 49.023600
-5.170000 48.331000
-5.155500 47.134600
-5.141000 45.871800
-5.126500 45.057600
-5.112000 45.243300
-5.097500 46.844200
-5.083000 49.998500
-5.068500 54.506800
-5.054000 59.831100
-5.039500 65.157400
-5.025000 69.550000
-5.010500 72.180300
-4.996000 72.551400
-4.981500 70.630300
-4.967000 66.839300
-4.952500 61.923900
-4.938000 56.767400
-4.923500 52.234900
-4.909000 49.063400
-4.894400 47.735500
-4.879900 48.319400
-4.865400 50.393500
-4.850900 53.196800
-4.836400 55.965500
-4.821900 58.240000
-4.807400 59.960000
-4.792900 61.329300
-4.778400 62.562100
-4.763900 63.668700
-4.749400 64.438300
-4.734900 64.671100
-4.720400 64.517400
-4.705900 64.620900
-4.691400 65.828000
-4.676900 68.517700
-4.662400 71.953700
-4.647900 74.192900
-4.633400 72.834500
-4.618900 66.314400
-4.604400 54.934700
-4.589900 40.861400
-4.575400 27.044400
-4.560900 15.826200
-4.546400 8.150100
-4.531900 3.679700
-4.517300 1.451900
-4.502800 0.499100
-4.488300 0.149100
-4.473800 0.038600
-4.459300 0.008600
-4.444800 0.001700
-4.430300 0.000300
-4.415800 0.000000
-4.401300 0.000000
-4.386800 0.000000
-4.372300 0.000000
-4.357800 0.000000
-4.343300 0.000000
-4.328800 0.000000
-4.314300 0.000000
-4.299800 0.000000
-4.285300 0.000000
-4.270800 0.000000
-4.256300 0.000000
-4.241800 0.000000
-4.227300 0.000000
-4.212800 0.000000
-4.198300 0.000000
-4.183800 0.000000
-4.169300 0.000000
-4.154800 0.000000
-4.140200 0.000000
-4.125700 0.000000
-4.111200 0.000000
-4.096700 0.000000
-4.082200 0.000000
-4.067700 0.000000
-4.053200 0.000000
-4.038700 0.000000
-4.024200 0.000000
-4.009700 0.000000
-3.995200 0.000000
-3.980700 0.000000
-3.966200 0.000000
-3.951700 0.000000
-3.937200 0.000000
-3.922700 0.000000
-3.908200 0.000000
-3.893700 0.000000
-3.879200 0.000000
-3.864700 0.000000
-3.850200 0.000000
-3.835700 0.000000
-3.821200 0.000000
-3.806700 0.000000
-3.792200 0.000000
-3.777700 0.000000
-3.763200 0.000000
-3.748600 0.000000
-3.734100 0.000000
-3.719600 0.000000
-3.705100 0.000000
-3.690600 0.000000
-3.676100 0.000000
-3.661600 0.000000
-3.647100 0.000000
-3.632600 0.000000
-3.618100 0.000000
-3.603600 0.000000
-3.589100 0.000000
-3.574600 0.000000
-3.560100 0.000000
-3.545600 0.000000
-3.531100 0.000000
-3.516600 0.000000
-3.502100 0.000000
-3.487600 0.000000
-3.473100 0.000000
-3.458600 0.000000
-3.444100 0.000000
-3.429600 0.000000
-3.415100 0.000000
-3.400600 0.000000
-3.386100 0.000000
-3.371500 0.000000
-3.357000 0.000000
-3.342500 0.000100
-3.328000 0.000300
-3.313500 0.001200
-3.299000 0.003500
-3.284500 0.009000
-3.270000 0.019500
-3.255500 0.036300
-3.241000 0.058700
-3.226500 0.083900
-3.212000 0.109000
-3.197500 0.133500
-3.183000 0.160400
-3.168500 0.193300
-3.154000 0.232900
-3.139500 0.275000
-3.125000 0.310200
-3.110500 0.327200
-3.096000 0.319400
-3.081500 0.291100
-3.067000 0.258500
-3.052500 0.243400
-3.038000 0.262100
-3.023500 0.317100
-3.009000 0.394500
-2.994400 0.470900
-2.979900 0.522900
-2.965400 0.537400
-2.950900 0.517200
-2.936400 0.478100
-2.921900 0.438700
-2.907400 0.410200
-2.892900 0.393600
-2.878400 0.386200
-2.863900 0.389400
-2.849400 0.407800
-2.834900 0.442200
-2.820400 0.484700
-2.805900 0.522100
-2.791400 0.544600
-2.776900 0.552500
-2.762400 0.558100
-2.747900 0.578900
-2.733400 0.626300
-2.718900 0.693700
-2.704400 0.753800
-2.689900 0.771400
-2.675400 0.726900
-2.660900 0.632500
-2.646400 0.526100
-2.631900 0.449100
-2.617400 0.425200
-2.602800 0.454200
-2.588300 0.516600
-2.573800 0.584700
-2.559300 0.635700
-2.544800 0.664400
-2.530300 0.682900
-2.515800 0.706800
-2.501300 0.736600
-2.486800 0.756500
-2.472300 0.750300
-2.457800 0.719800
-2.443300 0.687100
-2.428800 0.679900
-2.414300 0.712200
-2.399800 0.774300
-2.385300 0.837500
-2.370800 0.874000
-2.356300 0.875800
-2.341800 0.857900
-2.327300 0.841600
-2.312800 0.833100
-2.298300 0.818300
-2.283800 0.780600
-2.269300 0.721800
-2.254800 0.666300
-2.240300 0.641300
-2.225700 0.654100
-2.211200 0.687200
-2.196700 0.717000
-2.182200 0.734600
-2.167700 0.751200
-2.153200 0.784500
-2.138700 0.842200
-2.124200 0.912800
-2.109700 0.968000
-2.095200 0.976500
-2.080700 0.925200
-2.066200 0.836000
-2.051700 0.761500
-2.037200 0.757300
-2.022700 0.848600
-2.008200 1.012500
-1.993700 1.189800
-1.979200 1.317800
-1.964700 1.362300
-1.950200 1.327200
-1.935700 1.238300
-1.921200 1.119400
-1.906700 0.980100
-1.892200 0.824200
-1.877700 0.667900
-1.863200 0.547900
-1.848600 0.508200
-1.834100 0.570300
-1.819600 0.712800
-1.805100 0.876800
-1.790600 0.999400
-1.776100 1.052200
-1.761600 1.055100
-1.747100 1.053800
-1.732600 1.081300
-1.718100 1.134900
-1.703600 1.185800
-1.689100 1.209500
-1.674600 1.205600
-1.660100 1.192800
-1.645600 1.190100
-1.631100 1.203700
-1.616600 1.231700
-1.602100 1.273000
-1.587600 1.327800
-1.573100 1.387400
-1.558600 1.427500
-1.544100 1.416400
-1.529600 1.335200
-1.515100 1.194600
-1.500600 1.037400
-1.486100 0.920500
-1.471500 0.886700
-1.457000 0.938400
-1.442500 1.035100
-1.428000 1.118900
-1.413500 1.151500
-1.399000 1.134000
-1.384500 1.095400
-1.370000 1.065200
-1.355500 1.052600
-1.341000 1.044100
-1.326500 1.016200
-1.312000 0.955500
-1.297500 0.874900
-1.283000 0.816500
-1.268500 0.832300
-1.254000 0.952000
-1.239500 1.156000
-1.225000 1.378200
-1.210500 1.542800
-1.196000 1.607600
-1.181500 1.578500
-1.167000 1.489600
-1.152500 1.375400
-1.138000 1.259600
-1.123500 1.158800
-1.109000 1.084000
-1.094500 1.038300
-1.079900 1.019100
-1.065400 1.025000
-1.050900 1.060300
-1.036400 1.130500
-1.021900 1.229700
-1.007400 1.332700
-0.992900 1.400800
-0.978400 1.403400
-0.963900 1.338800
-0.949400 1.237000
-0.934900 1.143100
-0.920400 1.094200
-0.905900 1.105200
-0.891400 1.168300
-0.876900 1.264100
-0.862400 1.372700
-0.847900 1.479200
-0.833400 1.573800
-0.818900 1.651300
-0.804400 1.708900
-0.789900 1.743800
-0.775400 1.749500
-0.760900 1.717900
-0.746400 1.645800
-0.731900 1.538900
-0.717400 1.409400
-0.702800 1.269400
-0.688300 1.127800
-0.673800 0.993400
-0.659300 0.878900
-0.644800 0.799800
-0.630300 0.771900
-0.615800 0.810300
-0.601300 0.928500
-0.586800 1.130100
-0.572300 1.394600
-0.557800 1.675300
-0.543300 1.918700
-0.528800 2.091900
-0.514300 2.188600
-0.499800 2.211500
-0.485300 2.158300
-0.470800 2.033300
-0.456300 1.866900
-0.441800 1.710200
-0.427300 1.605400
-0.412800 1.561200
-0.398300 1.556100
-0.383800 1.562200
-0.369300 1.566400
-0.354800 1.574000
-0.340300 1.594700
-0.325700 1.626800
-0.311200 1.654100
-0.296700 1.661000
-0.282200 1.648500
-0.267700 1.636100
-0.253200 1.649300
-0.238700 1.706200
-0.224200 1.808400
-0.209700 1.935900
-0.195200 2.047900
-0.180700 2.093500
-0.166200 2.034700
-0.151700 1.871800
-0.137200 1.655600
-0.122700 1.470700
-0.108200 1.396200
-0.093700 1.466200
-0.079200 1.652700
-0.064700 1.878100
-0.050200 2.052000
-0.035700 2.117400
-0.021200 2.080900
-0.006700 2.009200
0.007800 1.991000
0.022300 2.089800
0.036800 2.311700
0.051300 2.599700
0.065900 2.855500
0.080400 2.985300
0.094900 2.951400
0.109400 2.792600
0.123900 2.587300
0.138400 2.391300
0.152900 2.209800
0.167400 2.026300
0.181900 1.851200
0.196400 1.733100
0.210900 1.722300
0.225400 1.824500
0.239900 1.990500
0.254400 2.147400
0.268900 2.241700
0.283400 2.259700
0.297900 2.220400
0.312400 2.158400
0.326900 2.110400
0.341400 2.107200
0.355900 2.162100
0.370400 2.259900
0.384900 2.356800
0.399400 2.402200
0.413900 2.373800
0.428400 2.298400
0.443000 2.232800
0.457500 2.218200
0.472000 2.248800
0.486500 2.285500
0.501000 2.297800
0.515500 2.292100
0.530000 2.303900
0.544500 2.369500
0.559000 2.507900
0.573500 2.719100
0.588000 2.986700
0.602500 3.274100
0.617000 3.522100
0.631500 3.660400
0.646000 3.639900
0.660500 3.463900
0.675000 3.193400
0.689500 2.914900
0.704000 2.693600
0.718500 2.544500
0.733000 2.441900
0.747500 2.357400
0.762000 2.294700
0.776500 2.287900
0.791000 2.365100
0.805500 2.516900
0.820100 2.703700
0.834600 2.892200
0.849100 3.083700
0.863600 3.306600
0.878100 3.579800
0.892600 3.877300
0.907100 4.125800
0.921600 4.241400
0.936100 4.179800
0.950600 3.961200
0.965100 3.656800
0.979600 3.353500
0.994100 3.121500
1.008600 2.990300
1.023100 2.942700
1.037600 2.928900
1.052100 2.895700
1.066600 2.815300
1.081100 2.698700
1.095600 2.592500
1.110100 2.556100
1.124600 2.627100
1.139100 2.794000
1.153600 2.997400
1.168100 3.162200
1.182600 3.241600
1.197200 3.243700
1.211700 3.219700
1.226200 3.222400
1.240700 3.267900
1.255200 3.331100
1.269700 3.372800
1.284200 3.367400
1.298700 3.310600
1.313200 3.206300
1.327700 3.053900
1.342200 2.852900
1.356700 2.621300
1.371200 2.403200
1.385700 2.248900
1.400200 2.183300
1.414700 2.190500
1.429200 2.223900
1.443700 2.232700
1.458200 2.186000
1.472700 2.086700
1.487200 1.967300
1.501700 1.868800
1.516200 1.819000
1.530700 1.821400
1.545200 1.856400
1.559700 1.888500
1.574200 1.881500
1.588800 1.820000
1.603300 1.721600
1.617800 1.624800
1.632300 1.560500
1.646800 1.529200
1.661300 1.502100
1.675800 1.441600
1.690300 1.326900
1.704800 1.166900
1.719300 0.991900
1.733800 0.833900
1.748300 0.710900
1.762800 0.626500
1.777300 0.576100
1.791800 0.550400
1.806300 0.536800
1.820800 0.522700
1.835300 0.500300
1.849800 0.470100
1.864300 0.438900
1.878800 0.416600
1.893300 0.410800
1.907800 0.423300
1.922300 0.450100
1.936800 0.481200
1.951300 0.501500
1.965900 0.495300
1.980400 0.454400
1.994900 0.384500
2.009400 0.303600
2.023900 0.233100
2.038400 0.187300
2.052900 0.168600
2.067400 0.168100
2.081900 0.170900
2.096400 0.164400
2.110900 0.145200
2.125400 0.120600
2.139900 0.102800
2.154400 0.099800
2.168900 0.110400
2.183400 0.126900
2.197900 0.141300
2.212400 0.150800
2.226900 0.157100
2.241400 0.163600
2.255900 0.173100
2.270400 0.187900
2.284900 0.206900
2.299400 0.222800
2.313900 0.224600
2.328400 0.204700
2.343000 0.166700
2.357500 0.123500
2.372000 0.089800
2.386500 0.075500
2.401000 0.085900
2.415500 0.124500
2.430000 0.192000
2.444500 0.282300
2.459000 0.380300
2.473500 0.468700
2.488000 0.536600
2.502500 0.586000
2.517000 0.630200
2.531500 0.688000
2.546000 0.775200
2.560500 0.893100
2.575000 1.021100
2.589500 1.122700
2.604000 1.168600
2.618500 1.161900
2.633000 1.144200
2.647500 1.176200
2.662000 1.304400
2.676500 1.531700
2.691000 1.810300
2.705500 2.062300
2.720100 2.217700
2.734600 2.248100
2.749100 2.172500
2.763600 2.037900
2.778100 1.896100
2.792600 1.793000
2.807100 1.770900
2.821600 1.871700
2.836100 2.131300
2.850600 2.562600
2.865100 3.130300
2.879600 3.739600
2.894100 4.259600
2.908600 4.580100
2.923100 4.664400
2.937600 4.563400
2.952100 4.387000
2.966600 4.259700
2.981100 4.277700
2.995600 4.475100
3.010100 4.810600
3.024600 5.188400
3.039100 5.511300
3.053600 5.736300
3.068100 5.891500
3.082600 6.039000
3.097100 6.213800
3.111700 6.394500
3.126200 6.527300
3.140700 6.574400
3.155200 6.541700
3.169700 6.478800
3.184200 6.463100
3.198700 6.569400
3.213200 6.825700
3.227700 7.182800
3.242200 7.529200
3.256700 7.742500
3.271200 7.743300
3.285700 7.530500
3.300200 7.190600
3.314700 6.865500
3.329200 6.677400
3.343700 6.660900
3.358200 6.765500
3.372700 6.924300
3.387200 7.115800
3.401700 7.358300
3.416200 7.662300
3.430700 8.003600
3.445200 8.336500
3.459700 8.614700
3.474200 8.796100
3.488800 8.847400
3.503300 8.758500
3.517800 8.558600
3.532300 8.316100
3.546800 8.119500
3.561300 8.040900
3.575800 8.092500
3.590300 8.211200
3.604800 8.298000
3.619300 8.295800
3.633800 8.240900
3.648300 8.242300
3.662800 8.406500
3.677300 8.764800
3.691800 9.251600
3.706300 9.747500
3.720800 10.163900
3.735300 10.510500
3.749800 10.888400
3.764300 11.411800
3.778800 12.123200
3.793300 12.976600
3.807800 13.893400
3.822300 14.825800
3.836800 15.759800
3.851300 16.658200
3.865900 17.416000
3.880400 17.886000
3.894900 17.956400
3.909400 17.615700
3.923900 16.959800
3.938400 16.148800
3.952900 15.345600
3.967400 14.663800
3.981900 14.142400
3.996400 13.758900
4.010900 13.471900
4.025400 13.260700
4.039900 13.129100
4.054400 13.078000
4.068900 13.086000
4.083400 13.118900
4.097900 13.147400
4.112400 13.146800
4.126900 13.082800
4.141400 12.908800
4.155900 12.586600
4.170400 12.115000
4.184900 11.543700
4.199400 10.959700
4.213900 10.450800
4.228400 10.068700
4.242900 9.806900
4.257500 9.600400
4.272000 9.347100
4.286500 8.956500
4.301000 8.405300
4.315500 7.758200
4.330000 7.127900
4.344500 6.606800
4.359000 6.225900
4.373500 5.963900
4.388000 5.779700
4.402500 5.636200
4.417000 5.509300
4.431500 5.394300
4.446000 5.310700
4.460500 5.296000
4.475000 5.385000
4.489500 5.587000
4.504000 5.877400
4.518500 6.207500
4.533000 6.529000
4.547500 6.821500
4.562000 7.104800
4.576500 7.420400
4.591000 7.800800
4.605500 8.259500
4.620000 8.814000
4.634600 9.508700
4.649100 10.391200
4.663600 11.447400
4.678100 12.551500
4.692600 13.483700
4.707100 14.022500
4.721600 14.060000
4.736100 13.664100
4.750600 13.039200
4.765100 12.413200
4.779600 11.934000
4.794100 11.644300
4.808600 11.521300
4.823100 11.516000
4.837600 11.550500
4.852100 11.502600
4.866600 11.227300
4.881100 10.622200
4.895600 9.687000
4.910100 8.526700
4.924600 7.298100
4.939100 6.135100
4.953600 5.101100
4.968100 4.189900
4.982600 3.365700
4.997100 2.608800
5.011700 1.934900
5.026200 1.382200
5.040700 0.983500
5.055200 0.744800
5.069700 0.640500
5.084200 0.624200
5.098700 0.647600
5.113200 0.676900
5.127700 0.699300
5.142200 0.717400
5.156700 0.737500
5.171200 0.761000
5.185700 0.782000
5.200200 0.791200
5.214700 0.784500
5.229200 0.767600
5.243700 0.752000
5.258200 0.745700
5.272700 0.749200
5.287200 0.762500
5.301700 0.795700
5.316200 0.873900
5.330700 1.028300
5.345200 1.281700
5.359700 1.635600
5.374200 2.064700
5.388800 2.520200
5.403300 2.946400
5.417800 3.305300
5.432300 3.592400
5.446800 3.828600
5.461300 4.032300
5.475800 4.194600
5.490300 4.278800
5.504800 4.246400
5.519300 4.093000
5.533800 3.867000
5.548300 3.654500
5.562800 3.536600
5.577300 3.545100
5.591800 3.642500
5.606300 3.738100
5.620800 3.734600
5.635300 3.580200
5.649800 3.296200
5.664300 2.964300
5.678800 2.684700
5.693300 2.533400
5.707800 2.538900
5.722300 2.680000
5.736800 2.894400
5.751300 3.097800
5.765800 3.216500
5.780400 3.218800
5.794900 3.125700
5.809400 2.998100
5.823900 2.911600
5.838400 2.931200
5.852900 3.086200
5.867400 3.352800
5.881900 3.653400
5.896400 3.880700
5.910900 3.942800
5.925400 3.808400
5.939900 3.523200
5.954400 3.183400
5.968900 2.880900
5.983400 2.662800
5.997900 2.530400
6.012400 2.463400
6.026900 2.434100
6.041400 2.408800
6.055900 2.357000
6.070400 2.275000
6.084900 2.195300
6.099400 2.165000
6.113900 2.208100
6.128400 2.304000
6.142900 2.401500
6.157500 2.456600
6.172000 2.465200
6.186500 2.461800
6.201000 2.485500
6.215500 2.545300
6.230000 2.620600
6.244500 2.691300
6.259000 2.762200
6.273500 2.847400
6.288000 2.932700
6.302500 2.960000
6.317000 2.862600
6.331500 2.620800
6.346000 2.286000
6.360500 1.954400
6.375000 1.720900
6.389500 1.651900
6.404000 1.773700
6.418500 2.059200
6.433000 2.417600
6.447500 2.719700
6.462000 2.861300
6.476500 2.819100
6.491000 2.652400
6.505500 2.453500
6.520000 2.291100
6.534600 2.186200
6.549100 2.124100
6.563600 2.081500
6.578100 2.050100
6.592600 2.050000
6.607100 2.129900
6.621600 2.345500
6.636100 2.716100
6.650600 3.185500
6.665100 3.629700
6.679600 3.925800
6.694100 4.030400
6.708600 3.996600
6.723100 3.914200
6.737600 3.835300
6.752100 3.749600
6.766600 3.613400
6.781100 3.393300
6.795600 3.091000
6.810100 2.745700
6.824600 2.423200
6.839100 2.192300
6.853600 2.091100
6.868100 2.101300
6.882600 2.158100
6.897100 2.194200
6.911600 2.182200
6.926200 2.137800
6.940700 2.089700
6.955200 2.053600
6.969700 2.035400
6.984200 2.050300
6.998700 2.130400
7.013200 2.309300
7.027700 2.591300
7.042200 2.930500
7.056700 3.236700
7.071200 3.415200
7.085700 3.421600
7.100200 3.292500
7.114700 3.125000
7.129200 3.017500
7.143700 3.016800
7.158200 3.104800
7.172700 3.220400
7.187200 3.294400
7.201700 3.282200
7.216200 3.184700
7.230700 3.044500
7.245200 2.913000
7.259700 2.813400
7.274200 2.728300
7.288700 2.620200
7.303300 2.461000
7.317800 2.247700
7.332300 2.003200
7.346800 1.770500
7.361300 1.605900
7.375800 1.567300
7.390300 1.695500
7.404800 1.993800
7.419300 2.415400
7.433800 2.873800
7.448300 3.277600
7.462800 3.567800
7.477300 3.728400
7.491800 3.766100
7.506300 3.687500
7.520800 3.502400
7.535300 3.248100
7.549800 2.998300
7.564300 2.833400
7.578800 2.793100
7.593300 2.854800
7.607800 2.955200
7.622300 3.033200
7.636800 3.061600
7.651300 3.051900
7.665800 3.037700
7.680400 3.044100
7.694900 3.056600
7.709400 3.013800
7.723900 2.842500
7.738400 2.516900
7.752900 2.093600
7.767400 1.685600
7.781900 1.396600
7.796400 1.269100
7.810900 1.282600
7.825400 1.385700
7.839900 1.528100
7.854400 1.671100
7.868900 1.786300
7.883400 1.855800
7.897900 1.880800
7.912400 1.887200
7.926900 1.917500
7.941400 2.009300
7.955900 2.170900
7.970400 2.369100
7.984900 2.538600
7.999400 2.610300
8.013900 2.550400
8.028400 2.385800
8.042900 2.194400
8.057500 2.059000
8.072000 2.019800
8.086500 2.063900
8.101000 2.154900
8.115500 2.266300
8.130000 2.385800
8.144500 2.501300
8.159000 2.595300
8.173500 2.653400
8.188000 2.672400
8.202500 2.665600
8.217000 2.667900
8.231500 2.732600
8.246000 2.902100
8.260500 3.165500
8.275000 3.445100
8.289500 3.634400
8.304000 3.661300
8.318500 3.522200
8.333000 3.263600
8.347500 2.935300
8.362000 2.565400
8.376500 2.174700
8.391000 1.806400
8.405500 1.530600
8.420000 1.412700
8.434500 1.473100
8.449100 1.675100
8.463600 1.949400
8.478100 2.228900
8.492600 2.466400
8.507100 2.628900
8.521600 2.692100
8.536100 2.647900
8.550600 2.516200
8.565100 2.342500
8.579600 2.176200
8.594100 2.047300
8.608600 1.961500
8.623100 1.915000
8.637600 1.910100
8.652100 1.955500
8.666600 2.053800
8.681100 2.191800
8.695600 2.339900
8.710100 2.455700
8.724600 2.493900
8.739100 2.427200
8.753600 2.271800
8.768100 2.089500
8.782600 1.954600
8.797100 1.908800
8.811600 1.942600
8.826200 2.018200
