set title 'mp-1183647 - Density of States'
set xlabel 'Energy (eV)'
set ylabel 'DOS (states/eV)'
set grid
set xrange [-10:10]
set yrange [0:90.458]
set xzeroaxis lt -1
set terminal png size 800,600
set output 'mp-1183647_dos_gnuplot.png'
plot '-' using 1:2 with lines title 'DOS'
-7.712600 0.000000
-7.692000 0.000000
-7.671400 0.000000
-7.650800 0.000000
-7.630200 0.000000
-7.609600 0.000000
-7.589000 0.000000
-7.568400 0.000000
-7.547900 0.000000
-7.527300 0.000000
-7.506700 0.000000
-7.486100 0.000000
-7.465500 0.000000
-7.444900 0.000000
-7.424300 0.000000
-7.403700 0.000000
-7.383100 0.000000
-7.362500 0.000000
-7.341900 0.000000
-7.321300 0.000000
-7.300700 0.000000
-7.280100 0.000000
-7.259500 0.000000
-7.238900 0.000000
-7.218300 0.000000
-7.197700 0.000000
-7.177100 0.000000
-7.156600 0.000000
-7.136000 0.000000
-7.115400 0.000000
-7.094800 0.000000
-7.074200 0.000000
-7.053600 0.000000
-7.033000 0.000000
-7.012400 0.000000
-6.991800 0.000000
-6.971200 0.000000
-6.950600 0.000000
-6.930000 0.000000
-6.909400 0.000000
-6.888800 0.000000
-6.868200 0.000000
-6.847600 0.000000
-6.827000 0.000000
-6.806400 0.000000
-6.785800 0.000000
-6.765200 0.000000
-6.744700 0.000000
-6.724100 0.000000
-6.703500 0.000000
-6.682900 0.000000
-6.662300 0.000000
-6.641700 0.000000
-6.621100 0.000000
-6.600500 0.000000
-6.579900 0.000000
-6.559300 0.000000
-6.538700 0.000000
-6.518100 0.000000
-6.497500 0.000000
-6.476900 0.000000
-6.456300 0.000000
-6.435700 0.000000
-6.415100 0.000000
-6.394500 0.000000
-6.373900 0.000000
-6.353400 0.000000
-6.332800 0.000000
-6.312200 0.000000
-6.291600 0.000000
-6.271000 0.000000
-6.250400 0.000000
-6.229800 0.000000
-6.209200 0.000000
-6.188600 0.000000
-6.168000 0.000000
-6.147400 0.000000
-6.126800 0.000000
-6.106200 0.000000
-6.085600 0.000000
-6.065000 0.000000
-6.044400 0.000000
-6.023800 0.000000
-6.003200 0.000000
-5.982600 0.000000
-5.962000 0.000000
-5.941500 0.000000
-5.920900 0.000000
-5.900300 0.000000
-5.879700 0.000000
-5.859100 0.000000
-5.838500 0.056700
-5.817900 0.992400
-5.797300 1.483300
-5.776700 6.146000
-5.756100 12.587900
-5.735500 18.286300
-5.714900 45.688800
-5.694300 82.234500
-5.673700 53.740600
-5.653100 62.587800
-5.632500 69.836100
-5.611900 68.381700
-5.591300 18.499800
-5.570700 23.215000
-5.550200 10.101000
-5.529600 14.192300
-5.509000 17.089100
-5.488400 7.053100
-5.467800 5.319400
-5.447200 0.000000
-5.426600 0.000000
-5.406000 0.000000
-5.385400 0.000000
-5.364800 0.000000
-5.344200 0.000000
-5.323600 0.000000
-5.303000 0.000000
-5.282400 0.000000
-5.261800 0.000000
-5.241200 0.000000
-5.220600 0.000000
-5.200000 0.000000
-5.179400 0.000000
-5.158800 0.000000
-5.138300 0.000000
-5.117700 0.000000
-5.097100 0.000000
-5.076500 0.000000
-5.055900 0.000000
-5.035300 0.000000
-5.014700 0.000000
-4.994100 0.000000
-4.973500 0.000000
-4.952900 0.000000
-4.932300 0.000000
-4.911700 0.000000
-4.891100 0.000000
-4.870500 0.000000
-4.849900 0.000000
-4.829300 0.000000
-4.808700 0.005000
-4.788100 0.021800
-4.767500 0.050300
-4.747000 0.090300
-4.726400 0.131700
-4.705800 0.134200
-4.685200 0.139900
-4.664600 0.148700
-4.644000 0.159400
-4.623400 0.171400
-4.602800 0.184800
-4.582200 0.197500
-4.561600 0.205700
-4.541000 0.218200
-4.520400 0.231100
-4.499800 0.244000
-4.479200 0.254000
-4.458600 0.260900
-4.438000 0.264800
-4.417400 0.268200
-4.396800 0.279000
-4.376200 0.287800
-4.355600 0.296800
-4.335100 0.305400
-4.314500 0.313500
-4.293900 0.321100
-4.273300 0.328300
-4.252700 0.335800
-4.232100 0.343800
-4.211500 0.352200
-4.190900 0.361000
-4.170300 0.370300
-4.149700 0.380200
-4.129100 0.390600
-4.108500 0.401400
-4.087900 0.409500
-4.067300 0.417600
-4.046700 0.425700
-4.026100 0.433900
-4.005500 0.442000
-3.984900 0.450200
-3.964300 0.459000
-3.943800 0.468300
-3.923200 0.477700
-3.902600 0.487300
-3.882000 0.497100
-3.861400 0.507000
-3.840800 0.517100
-3.820200 0.530000
-3.799600 0.541900
-3.779000 0.554100
-3.758400 0.566700
-3.737800 0.579700
-3.717200 0.593000
-3.696600 0.606600
-3.676000 0.620600
-3.655400 0.635100
-3.634800 0.650000
-3.614200 0.669500
-3.593600 0.690000
-3.573000 0.709800
-3.552400 0.730500
-3.531900 0.752900
-3.511300 0.777400
-3.490700 0.804600
-3.470100 0.834400
-3.449500 0.868300
-3.428900 0.908500
-3.408300 0.950900
-3.387700 0.995600
-3.367100 1.059700
-3.346500 1.110100
-3.325900 1.146800
-3.305300 1.194500
-3.284700 1.217600
-3.264100 1.285700
-3.243500 1.347400
-3.222900 1.407600
-3.202300 1.513800
-3.181700 1.709100
-3.161100 2.838400
-3.140500 4.891200
-3.120000 5.310500
-3.099400 4.102600
-3.078800 3.794200
-3.058200 3.389600
-3.037600 3.120500
-3.017000 3.017100
-2.996400 2.881900
-2.975800 2.613900
-2.955200 2.605100
-2.934600 2.603600
-2.914000 2.604700
-2.893400 2.325200
-2.872800 2.186000
-2.852200 2.187700
-2.831600 2.113100
-2.811000 1.988400
-2.790400 1.921400
-2.769800 1.991200
-2.749200 1.957100
-2.728700 1.920100
-2.708100 1.675500
-2.687500 1.972900
-2.666900 2.173100
-2.646300 2.491100
-2.625700 2.825600
-2.605100 3.183200
-2.584500 3.781400
-2.563900 4.394100
-2.543300 4.416200
-2.522700 4.648700
-2.502100 4.789700
-2.481500 5.106300
-2.460900 5.574100
-2.440300 6.239600
-2.419700 7.952200
-2.399100 11.807000
-2.378500 8.770700
-2.357900 8.063800
-2.337300 8.420000
-2.316800 7.548300
-2.296200 7.552500
-2.275600 11.427500
-2.255000 19.216300
-2.234400 23.241300
-2.213800 23.322900
-2.193200 17.782600
-2.172600 16.793500
-2.152000 15.101900
-2.131400 16.046900
-2.110800 18.349700
-2.090200 20.658700
-2.069600 17.730500
-2.049000 17.124900
-2.028400 16.786800
-2.007800 15.259800
-1.987200 15.604600
-1.966600 15.253500
-1.946000 14.684700
-1.925500 13.319100
-1.904900 11.659200
-1.884300 10.509600
-1.863700 8.775400
-1.843100 8.163900
-1.822500 8.621100
-1.801900 7.488100
-1.781300 6.951700
-1.760700 7.281000
-1.740100 8.904600
-1.719500 10.688900
-1.698900 12.764000
-1.678300 12.682800
-1.657700 14.996500
-1.637100 14.211800
-1.616500 11.917300
-1.595900 7.414400
-1.575300 7.347900
-1.554700 10.641800
-1.534100 14.058300
-1.513600 13.312800
-1.493000 15.481800
-1.472400 14.032500
-1.451800 12.662100
-1.431200 11.996100
-1.410600 11.819500
-1.390000 10.145500
-1.369400 9.111000
-1.348800 9.474800
-1.328200 10.441800
-1.307600 11.171900
-1.287000 11.777400
-1.266400 12.275500
-1.245800 13.047900
-1.225200 11.983000
-1.204600 11.714000
-1.184000 12.041200
-1.163400 11.655200
-1.142800 12.320900
-1.122300 13.065100
-1.101700 13.321400
-1.081100 11.021200
-1.060500 9.473600
-1.039900 9.396500
-1.019300 9.361600
-0.998700 12.243500
-0.978100 20.924300
-0.957500 28.855100
-0.936900 21.987300
-0.916300 17.611300
-0.895700 13.909200
-0.875100 13.939100
-0.854500 13.581800
-0.833900 17.390100
-0.813300 15.790900
-0.792700 13.878900
-0.772100 11.118500
-0.751500 10.605400
-0.730900 12.225200
-0.710400 11.540600
-0.689800 11.805900
-0.669200 12.678200
-0.648600 12.984300
-0.628000 12.500900
-0.607400 12.384500
-0.586800 11.790900
-0.566200 11.545600
-0.545600 10.984200
-0.525000 10.437800
-0.504400 10.292500
-0.483800 10.537100
-0.463200 10.354900
-0.442600 9.168800
-0.422000 8.648900
-0.401400 8.308900
-0.380800 11.199700
-0.360200 9.689100
-0.339600 7.497500
-0.319100 7.895300
-0.298500 12.064000
-0.277900 9.363800
-0.257300 7.004100
-0.236700 8.058300
-0.216100 8.949200
-0.195500 7.749700
-0.174900 5.839900
-0.154300 4.551300
-0.133700 3.831300
-0.113100 3.103800
-0.092500 2.852300
-0.071900 2.638000
-0.051300 2.471100
-0.030700 2.371000
-0.010100 2.295700
0.010500 2.128400
0.031100 1.889500
0.051700 1.525100
0.072300 1.179300
0.092800 0.971200
0.113400 0.918400
0.134000 0.869700
0.154600 0.829700
0.175200 0.794300
0.195800 0.791300
0.216400 0.749000
0.237000 0.724400
0.257600 0.693500
0.278200 0.652800
0.298800 0.647600
0.319400 0.678300
0.340000 0.764100
0.360600 0.824300
0.381200 0.867900
0.401800 0.903500
0.422400 0.961900
0.443000 1.024100
0.463600 1.072500
0.484100 1.107300
0.504700 1.134400
0.525300 1.145100
0.545900 1.143300
0.566500 1.140900
0.587100 1.138600
0.607700 1.128400
0.628300 1.115300
0.648900 1.110300
0.669500 1.083900
0.690100 1.073200
0.710700 1.066800
0.731300 1.062900
0.751900 1.060900
0.772500 1.095700
0.793100 1.105300
0.813700 1.091900
0.834300 1.077600
0.854900 1.079200
0.875500 1.080500
0.896000 1.081300
0.916600 1.078600
0.937200 1.078300
0.957800 1.081200
0.978400 1.083900
0.999000 1.086400
1.019600 1.091300
1.040200 1.043200
1.060800 1.039100
1.081400 1.040000
1.102000 1.038600
1.122600 1.037200
1.143200 1.035800
1.163800 1.034400
1.184400 1.032500
1.205000 1.030200
1.225600 1.027400
1.246200 1.024300
1.266800 1.021400
1.287300 1.019100
1.307900 1.016500
1.328500 1.016600
1.349100 1.018700
1.369700 1.020600
1.390300 1.029600
1.410900 1.037500
1.431500 1.044500
1.452100 1.050400
1.472700 1.057200
1.493300 1.063200
1.513900 1.067700
1.534500 1.092400
1.555100 1.077600
1.575700 1.076500
1.596300 1.074800
1.616900 1.072500
1.637500 1.068900
1.658100 1.082100
1.678700 1.069300
1.699200 1.072000
1.719800 1.069400
1.740400 1.063000
1.761000 1.054800
1.781600 1.048300
1.802200 1.044200
1.822800 1.042100
1.843400 1.038600
1.864000 1.033800
1.884600 1.026600
1.905200 1.023300
1.925800 1.020200
1.946400 1.017100
1.967000 1.014600
1.987600 1.012900
2.008200 1.011100
2.028800 1.009200
2.049400 1.119700
2.070000 1.339800
2.090500 1.123600
2.111100 1.071200
2.131700 1.065600
2.152300 1.065900
2.172900 1.064600
2.193500 1.062400
2.214100 1.059900
2.234700 1.059400
2.255300 1.058600
2.275900 1.057400
2.296500 1.067900
2.317100 1.070200
2.337700 1.074300
2.358300 1.080500
2.378900 1.088700
2.399500 1.097500
2.420100 1.105700
2.440700 1.114000
2.461300 1.122500
2.481900 1.132700
2.502400 1.142400
2.523000 1.152900
2.543600 1.165000
2.564200 1.177300
2.584800 1.190400
2.605400 1.189700
2.626000 1.226200
2.646600 1.290700
2.667200 1.291700
2.687800 1.288300
2.708400 1.310400
2.729000 1.324700
2.749600 1.209100
2.770200 1.211100
2.790800 1.214700
2.811400 1.219000
2.832000 1.223800
2.852600 1.229100
2.873200 1.235500
2.893700 1.256800
2.914300 1.209500
2.934900 1.207900
2.955500 1.198000
2.976100 1.150200
2.996700 1.147800
3.017300 1.146800
3.037900 1.146900
3.058500 1.148400
3.079100 1.146200
3.099700 1.143800
3.120300 1.142500
3.140900 1.143700
3.161500 1.146400
3.182100 1.144700
3.202700 1.142900
3.223300 1.141000
3.243900 1.139000
3.264500 1.133700
3.285100 1.130700
3.305600 1.127400
3.326200 1.125000
3.346800 1.126100
3.367400 1.127500
3.388000 1.129400
3.408600 1.131800
3.429200 1.134800
3.449800 1.138300
3.470400 1.142400
3.491000 1.147400
3.511600 1.155400
3.532200 1.168600
3.552800 1.182900
3.573400 1.197400
3.594000 1.208900
3.614600 1.220000
3.635200 1.229400
3.655800 1.236100
3.676400 1.237400
3.696900 1.235800
3.717500 1.241000
3.738100 1.245200
3.758700 1.248300
3.779300 1.251300
3.799900 1.253900
3.820500 1.257800
3.841100 1.348100
3.861700 1.251200
3.882300 1.245000
3.902900 1.238600
3.923500 1.253700
3.944100 1.215400
3.964700 1.196600
3.985300 1.185600
4.005900 1.171800
4.026500 1.156100
4.047100 1.137900
4.067700 1.119400
4.088300 1.102300
4.108800 1.086700
4.129400 1.073800
4.150000 1.063600
4.170600 1.052800
4.191200 1.040500
4.211800 1.028000
4.232400 1.015400
4.253000 1.002800
4.273600 0.990400
4.294200 0.976600
4.314800 0.963300
4.335400 0.951100
4.356000 0.939000
4.376600 0.927000
4.397200 0.912000
4.417800 0.890200
4.438400 0.868500
4.459000 0.864200
4.479600 0.862200
4.500100 0.862900
4.520700 0.836000
4.541300 0.835600
4.561900 0.837400
4.582500 0.837500
4.603100 0.833400
4.623700 0.829900
4.644300 0.827200
4.664900 0.825000
4.685500 0.825800
4.706100 0.830200
4.726700 0.834400
4.747300 0.836800
4.767900 0.835200
4.788500 0.829500
4.809100 0.823600
4.829700 0.824200
4.850300 0.828100
4.870900 0.835100
4.891500 0.845500
4.912000 0.859800
4.932600 0.875200
4.953200 0.887200
4.973800 0.895100
4.994400 0.902400
5.015000 0.910800
5.035600 0.927600
5.056200 0.929800
5.076800 0.934100
5.097400 0.945700
5.118000 0.958100
5.138600 0.970900
5.159200 0.984100
5.179800 0.997800
5.200400 1.013700
5.221000 1.021000
5.241600 1.051800
5.262200 1.097300
5.282800 1.157400
5.303300 1.153600
5.323900 1.190200
5.344500 1.178200
5.365100 1.209100
5.385700 1.250300
5.406300 1.289500
5.426900 1.316800
5.447500 1.342600
5.468100 1.373200
5.488700 1.407000
5.509300 1.422000
5.529900 1.436400
5.550500 1.452700
5.571100 1.469200
5.591700 1.488000
5.612300 1.480500
5.632900 1.466900
5.653500 1.451100
5.674100 1.438800
5.694700 1.429400
5.715200 1.421100
5.735800 1.414400
5.756400 1.408600
5.777000 1.406100
5.797600 1.404400
5.818200 1.457900
5.838800 1.462500
5.859400 1.461900
5.880000 1.455900
5.900600 1.356700
5.921200 1.341100
5.941800 1.318600
5.962400 1.344200
5.983000 1.313200
6.003600 1.287000
6.024200 1.278600
6.044800 1.240700
6.065400 1.209900
6.086000 1.185700
6.106500 1.171500
6.127100 1.166800
6.147700 1.171800
6.168300 1.198800
6.188900 1.229200
6.209500 1.190400
6.230100 1.187800
6.250700 1.185000
6.271300 1.196900
6.291900 1.189200
6.312500 1.193200
6.333100 1.187300
6.353700 1.181800
6.374300 1.176700
6.394900 1.172000
6.415500 1.167500
6.436100 1.163200
6.456700 1.157400
6.477300 1.153400
6.497900 1.153400
6.518400 1.154200
6.539000 1.155400
6.559600 1.156800
6.580200 1.158100
6.600800 1.160700
6.621400 1.164000
6.642000 1.168000
6.662600 1.172400
6.683200 1.181100
6.703800 1.183300
6.724400 1.185000
6.745000 1.186100
6.765600 1.189300
6.786200 1.192000
6.806800 1.194700
6.827400 1.178800
6.848000 1.185100
6.868600 1.196100
6.889200 1.211000
6.909800 1.229400
6.930300 1.251500
6.950900 1.278500
6.971500 1.296800
6.992100 1.339900
7.012700 1.348900
7.033300 1.345400
7.053900 1.330100
7.074500 1.306400
7.095100 1.293900
7.115700 1.295600
7.136300 1.296600
7.156900 1.299600
7.177500 1.302700
7.198100 1.304900
7.218700 1.305700
7.239300 1.304700
7.259900 1.294700
7.280500 1.282900
7.301100 1.283100
7.321600 1.283400
7.342200 1.283300
7.362800 1.283100
7.383400 1.282800
7.404000 1.286700
7.424600 1.283100
7.445200 1.281000
7.465800 1.260800
7.486400 1.255100
7.507000 1.249800
7.527600 1.245000
7.548200 1.240600
7.568800 1.236700
7.589400 1.233500
7.610000 1.230900
7.630600 1.228300
7.651200 1.226200
7.671800 1.230100
7.692400 1.221700
7.713000 1.223000
7.733500 1.225300
7.754100 1.228600
7.774700 1.229800
7.795300 1.228900
7.815900 1.228500
7.836500 1.228700
7.857100 1.229500
7.877700 1.230600
7.898300 1.231800
7.918900 1.233000
7.939500 1.234100
7.960100 1.249100
7.980700 1.270400
8.001300 1.273300
8.021900 1.278100
8.042500 1.322400
8.063100 1.274900
8.083700 1.287500
8.104300 1.311700
8.124800 1.342100
8.145400 1.373000
8.166000 1.404300
8.186600 1.437600
8.207200 1.467600
8.227800 1.489700
8.248400 1.504700
8.269000 1.491100
8.289600 1.450000
8.310200 1.457400
8.330800 1.475600
8.351400 1.500000
8.372000 1.509500
8.392600 1.519000
8.413200 1.520000
8.433800 1.514600
8.454400 1.501700
8.475000 1.495900
8.495600 1.492000
8.516200 1.490600
8.536700 1.468300
8.557300 1.465100
8.577900 1.467400
8.598500 1.477400
8.619100 1.487000
8.639700 1.494400
8.660300 1.499300
8.680900 1.508600
8.701500 1.516100
8.722100 1.524000
8.742700 1.516500
8.763300 1.568600
8.783900 1.569500
8.804500 1.565700
8.825100 1.574600
8.845700 1.597100
8.866300 1.625000
8.886900 1.656700
8.907500 1.686100
8.928000 1.712700
8.948600 1.739000
8.969200 1.757600
8.989800 1.771900
9.010400 1.780600
9.031000 1.783700
9.051600 1.783100
9.072200 1.788100
9.092800 1.788200
9.113400 1.779800
9.134000 1.772100
9.154600 1.756800
9.175200 1.772000
9.195800 1.712500
9.216400 1.684200
9.237000 1.681700
9.257600 1.681600
9.278200 1.681700
9.298800 1.705200
9.319400 1.690800
9.339900 1.676700
9.360500 1.664300
9.381100 1.690900
9.401700 1.677800
9.422300 1.669800
9.442900 1.668900
9.463500 1.666800
9.484100 1.664800
9.504700 1.662200
9.525300 1.690400
9.545900 1.703400
9.566500 1.699900
9.587100 1.694800
9.607700 1.695200
9.628300 1.713600
9.648900 1.698200
9.669500 1.682400
9.690100 1.674100
9.710700 1.661400
9.731200 1.653500
9.751800 1.645700
9.772400 1.637200
9.793000 1.629200
9.813600 1.623000
9.834200 1.618900
9.854800 1.615000
9.875400 1.613100
9.896000 1.613700
9.916600 1.616100
9.937200 1.623500
9.957800 1.647400
9.978400 1.647400
9.999000 1.638900
10.019600 1.650800
10.040200 1.659400
10.060800 1.665800
10.081400 1.669900
10.102000 1.681300
10.122600 1.844100
10.143100 1.970700
10.163700 2.064200
10.184300 1.939300
10.204900 1.917800
10.225500 1.895100
10.246100 1.886000
10.266700 1.902300
10.287300 1.922800
10.307900 1.891500
10.328500 1.866000
10.349100 1.850100
10.369700 1.840300
10.390300 1.830100
10.410900 1.818900
10.431500 1.807000
10.452100 1.793700
10.472700 1.785100
10.493300 1.777700
10.513900 1.771700
10.534400 1.770300
10.555000 1.826300
10.575600 1.756000
10.596200 1.738600
10.616800 1.724700
10.637400 1.740500
10.658000 1.742400
10.678600 1.722800
10.699200 1.673000
10.719800 1.663900
10.740400 1.662800
10.761000 1.664900
10.781600 1.669300
10.802200 1.674600
10.822800 1.681100
10.843400 1.686600
10.864000 1.693300
10.884600 1.700400
10.905200 1.706000
10.925800 1.710200
10.946300 1.712900
10.966900 1.717600
10.987500 1.726000
11.008100 1.732800
11.028700 1.734200
11.049300 1.729800
11.069900 1.716800
11.090500 1.673500
11.111100 1.686300
11.131700 1.688900
11.152300 1.691200
11.172900 1.689800
11.193500 1.686700
11.214100 1.688600
11.234700 1.689800
11.255300 1.690700
11.275900 1.691800
11.296500 1.693400
11.317100 1.695900
11.337600 1.702700
11.358200 1.712000
11.378800 1.711800
11.399400 1.721400
11.420000 1.730200
11.440600 1.738300
11.461200 1.745400
11.481800 1.751700
11.502400 1.757500
11.523000 1.786400
11.543600 1.883400
11.564200 1.846000
11.584800 1.871100
11.605400 1.898200
11.626000 1.870500
11.646600 1.858800
11.667200 1.858200
11.687800 1.927500
11.708400 1.905000
11.729000 1.892500
11.749500 1.893800
11.770100 1.898300
11.790700 1.905400
11.811300 1.932200
11.831900 1.960400
11.852500 1.983400
11.873100 2.005500
11.893700 2.046000
11.914300 2.087600
11.934900 2.130000
11.955500 2.171400
11.976100 2.215700
11.996700 2.169500
12.017300 2.132300
12.037900 2.121300
12.058500 2.125300
12.079100 2.112000
12.099700 2.129600
12.120300 2.139000
12.140800 2.249400
12.161400 2.190200
12.182000 2.154000
12.202600 2.155500
12.223200 2.165700
12.243800 2.177000
12.264400 2.187200
12.285000 2.193500
12.305600 2.196400
12.326200 2.196000
12.346800 2.189400
12.367400 2.190800
12.388000 2.199000
12.408600 2.209100
12.429200 2.218400
12.449800 2.232500
12.470400 2.254200
12.491000 2.273300
12.511600 2.287100
12.532200 2.288600
12.552700 2.290000
12.573300 2.279300
12.593900 2.253900
12.614500 2.223600
12.635100 2.220600
12.655700 2.234200
12.676300 2.233900
12.696900 2.247700
12.717500 2.267000
12.738100 2.289400
12.758700 2.339800
12.779300 2.403100
12.799900 2.477400
12.820500 2.544800
12.841100 2.579900
12.861700 2.554900
12.882300 2.445500
12.902900 2.426900
12.923500 2.389600
12.944000 2.330700
12.964600 2.256000
12.985200 2.183600
13.005800 2.113600
13.026400 2.038900
13.047000 1.977900
13.067600 1.927300
13.088200 1.889200
13.108800 1.865300
13.129400 1.861100
13.150000 1.885700
13.170600 1.924200
13.191200 1.986900
13.211800 2.100400
13.232400 2.166700
13.253000 2.218300
13.273600 2.262200
13.294200 2.302200
13.314800 2.340000
13.335400 2.405400
13.355900 2.501400
13.376500 2.510200
13.397100 2.457300
13.417700 2.395900
13.438300 2.327800
13.458900 2.264300
13.479500 2.218900
13.500100 2.213300
13.520700 2.204400
13.541300 2.195300
13.561900 2.199800
13.582500 2.211800
13.603100 2.217200
13.623700 2.230900
13.644300 2.254100
13.664900 2.282400
13.685500 2.299400
13.706100 2.319500
13.726700 2.368500
13.747200 2.394900
13.767800 2.402900
13.788400 2.393500
13.809000 2.374800
13.829600 2.339100
13.850200 2.283200
13.870800 2.207000
13.891400 2.130300
13.912000 2.066500
13.932600 2.018300
13.953200 1.967600
13.973800 1.920200
13.994400 1.885000
14.015000 1.872600
14.035600 1.848800
14.056200 1.821200
