set title 'mp-1078313 - Density of States'
set xlabel 'Energy (eV)'
set ylabel 'DOS (states/eV)'
set grid
set xrange [-10:10]
set yrange [0:32.042]
set xzeroaxis lt -1
set terminal png size 800,600
set output 'mp-1078313_dos_gnuplot.png'
plot '-' using 1:2 with lines title 'DOS'
-8.132000 0.000000
-8.116000 0.000000
-8.099900 0.000000
-8.083900 0.000000
-8.067900 0.000000
-8.051900 0.000000
-8.035900 0.000000
-8.019800 0.000000
-8.003800 0.000000
-7.987800 0.000000
-7.971800 0.000000
-7.955800 0.000000
-7.939800 0.000000
-7.923700 0.000000
-7.907700 0.000000
-7.891700 0.000000
-7.875700 0.000000
-7.859700 0.000000
-7.843600 0.000000
-7.827600 0.000000
-7.811600 0.000000
-7.795600 0.000000
-7.779600 0.000000
-7.763600 0.000000
-7.747500 0.000000
-7.731500 0.000000
-7.715500 0.000000
-7.699500 0.000000
-7.683500 0.000000
-7.667400 0.000000
-7.651400 0.000000
-7.635400 0.000000
-7.619400 0.000000
-7.603400 0.000000
-7.587400 0.000000
-7.571300 0.000000
-7.555300 0.000000
-7.539300 0.000000
-7.523300 0.000000
-7.507300 0.000000
-7.491200 0.000000
-7.475200 0.000000
-7.459200 0.000000
-7.443200 0.000000
-7.427200 0.000000
-7.411100 0.000000
-7.395100 0.000000
-7.379100 0.000000
-7.363100 0.000000
-7.347100 0.000000
-7.331100 0.000000
-7.315000 0.000000
-7.299000 0.000000
-7.283000 0.000000
-7.267000 0.000000
-7.251000 0.000000
-7.234900 0.000000
-7.218900 0.000000
-7.202900 0.000000
-7.186900 0.000000
-7.170900 0.000000
-7.154900 0.000000
-7.138800 0.000000
-7.122800 0.000000
-7.106800 0.000000
-7.090800 0.000000
-7.074800 0.000000
-7.058700 0.000000
-7.042700 0.000000
-7.026700 0.000000
-7.010700 0.000000
-6.994700 0.000000
-6.978700 0.000000
-6.962600 0.000000
-6.946600 0.000000
-6.930600 0.000000
-6.914600 0.000000
-6.898600 0.000000
-6.882500 0.000000
-6.866500 0.000000
-6.850500 0.000000
-6.834500 0.000000
-6.818500 0.000000
-6.802400 0.000000
-6.786400 0.000000
-6.770400 0.000000
-6.754400 0.000000
-6.738400 0.000000
-6.722400 0.000000
-6.706300 0.000000
-6.690300 0.000000
-6.674300 0.000200
-6.658300 0.026800
-6.642300 0.098400
-6.626200 0.215000
-6.610200 0.361300
-6.594200 0.523900
-6.578200 0.593300
-6.562200 0.614900
-6.546200 0.610500
-6.530100 0.650300
-6.514100 0.707400
-6.498100 0.766000
-6.482100 0.825800
-6.466100 0.883400
-6.450000 0.937300
-6.434000 0.987400
-6.418000 1.032900
-6.402000 1.068800
-6.386000 1.109400
-6.369900 1.142900
-6.353900 1.173700
-6.337900 1.203100
-6.321900 1.235300
-6.305900 1.271600
-6.289900 1.311600
-6.273800 1.352700
-6.257800 1.398000
-6.241800 1.448900
-6.225800 1.506400
-6.209800 1.571500
-6.193700 1.640000
-6.177700 1.701400
-6.161700 1.764500
-6.145700 1.828800
-6.129700 1.891700
-6.113700 1.940100
-6.097600 1.967100
-6.081600 1.976800
-6.065600 1.972400
-6.049600 1.983100
-6.033600 2.012700
-6.017500 2.041900
-6.001500 2.070700
-5.985500 2.099200
-5.969500 2.127300
-5.953500 2.230300
-5.937500 2.347100
-5.921400 2.439600
-5.905400 2.449800
-5.889400 2.453600
-5.873400 2.452700
-5.857400 2.447200
-5.841300 2.437100
-5.825300 2.422200
-5.809300 2.400900
-5.793300 2.368100
-5.777300 2.324100
-5.761200 2.274100
-5.745200 3.203700
-5.729200 3.022300
-5.713200 2.436400
-5.697200 2.103300
-5.681200 2.034600
-5.665100 1.968800
-5.649100 1.906000
-5.633100 1.846000
-5.617100 1.802700
-5.601100 1.707400
-5.585000 1.641800
-5.569000 1.570400
-5.553000 1.514600
-5.537000 1.452200
-5.521000 1.391300
-5.505000 1.349200
-5.488900 1.366600
-5.472900 1.445900
-5.456900 1.594200
-5.440900 1.769400
-5.424900 1.969300
-5.408800 2.219500
-5.392800 2.312400
-5.376800 2.322000
-5.360800 2.342900
-5.344800 2.419500
-5.328800 2.761900
-5.312700 2.707200
-5.296700 2.614100
-5.280700 2.628400
-5.264700 2.709400
-5.248700 2.809300
-5.232600 2.931300
-5.216600 3.046100
-5.200600 3.210700
-5.184600 3.395800
-5.168600 3.605500
-5.152500 3.888300
-5.136500 4.393500
-5.120500 4.998500
-5.104500 5.352500
-5.088500 6.096400
-5.072500 5.718400
-5.056400 5.630900
-5.040400 5.234700
-5.024400 4.960500
-5.008400 4.237700
-4.992400 3.494600
-4.976300 2.984400
-4.960300 3.178400
-4.944300 3.206600
-4.928300 3.270900
-4.912300 3.548800
-4.896300 3.876900
-4.880200 4.055400
-4.864200 4.202900
-4.848200 4.123000
-4.832200 4.302600
-4.816200 4.494300
-4.800100 5.825500
-4.784100 4.727400
-4.768100 4.799500
-4.752100 4.711200
-4.736100 4.662200
-4.720000 4.760200
-4.704000 5.244400
-4.688000 5.765600
-4.672000 5.996600
-4.656000 6.256200
-4.640000 6.645000
-4.623900 6.887000
-4.607900 6.846100
-4.591900 6.784900
-4.575900 7.035900
-4.559900 6.018700
-4.543800 5.767500
-4.527800 5.365500
-4.511800 5.053400
-4.495800 5.115900
-4.479800 5.309700
-4.463800 5.707400
-4.447700 6.156100
-4.431700 6.502300
-4.415700 7.035400
-4.399700 7.611100
-4.383700 8.130200
-4.367600 8.237900
-4.351600 8.018200
-4.335600 8.481900
-4.319600 8.835500
-4.303600 9.300400
-4.287600 10.393000
-4.271500 11.420500
-4.255500 13.422700
-4.239500 10.251500
-4.223500 10.146500
-4.207500 9.948500
-4.191400 9.704100
-4.175400 9.480000
-4.159400 9.811600
-4.143400 10.205900
-4.127400 10.350700
-4.111300 10.443000
-4.095300 11.254100
-4.079300 12.242300
-4.063300 13.359400
-4.047300 17.441200
-4.031300 16.176900
-4.015200 13.389800
-3.999200 20.432600
-3.983200 15.266600
-3.967200 14.288300
-3.951200 21.401900
-3.935100 3.861100
-3.919100 0.000000
-3.903100 0.000000
-3.887100 0.000000
-3.871100 0.000000
-3.855100 0.000000
-3.839000 0.000000
-3.823000 0.000000
-3.807000 0.000000
-3.791000 0.000000
-3.775000 0.000000
-3.758900 0.000000
-3.742900 0.000000
-3.726900 0.000000
-3.710900 0.000000
-3.694900 0.000000
-3.678800 0.000000
-3.662800 0.000000
-3.646800 0.000000
-3.630800 0.000000
-3.614800 0.000000
-3.598800 0.000000
-3.582700 0.000000
-3.566700 0.000000
-3.550700 0.000000
-3.534700 0.000000
-3.518700 0.000000
-3.502600 0.000000
-3.486600 0.000000
-3.470600 0.000000
-3.454600 0.000000
-3.438600 0.000000
-3.422600 0.000000
-3.406500 0.000000
-3.390500 0.000000
-3.374500 0.000000
-3.358500 0.000000
-3.342500 0.000000
-3.326400 0.000000
-3.310400 0.000000
-3.294400 0.000000
-3.278400 0.000000
-3.262400 0.000000
-3.246400 0.000000
-3.230300 0.000000
-3.214300 0.000000
-3.198300 0.000000
-3.182300 0.000000
-3.166300 0.000000
-3.150200 0.000000
-3.134200 0.000000
-3.118200 0.000000
-3.102200 0.000000
-3.086200 0.000000
-3.070100 0.000000
-3.054100 0.000000
-3.038100 0.000000
-3.022100 0.000000
-3.006100 0.000000
-2.990100 0.000000
-2.974000 0.000000
-2.958000 0.000000
-2.942000 0.000000
-2.926000 0.000000
-2.910000 0.000000
-2.893900 0.000000
-2.877900 0.000000
-2.861900 0.000000
-2.845900 0.000000
-2.829900 0.000000
-2.813900 0.000000
-2.797800 0.000000
-2.781800 0.000000
-2.765800 0.000000
-2.749800 0.000000
-2.733800 0.000000
-2.717700 0.000000
-2.701700 0.000000
-2.685700 0.000000
-2.669700 0.000000
-2.653700 0.000000
-2.637700 0.000000
-2.621600 0.000000
-2.605600 0.000000
-2.589600 0.000000
-2.573600 0.000000
-2.557600 0.000000
-2.541500 0.000000
-2.525500 0.000000
-2.509500 0.000000
-2.493500 0.000000
-2.477500 0.000000
-2.461400 0.000000
-2.445400 0.000000
-2.429400 0.000000
-2.413400 0.000000
-2.397400 0.000000
-2.381400 0.000000
-2.365300 0.000000
-2.349300 0.000000
-2.333300 0.000000
-2.317300 0.000000
-2.301300 0.000000
-2.285200 0.000000
-2.269200 0.000000
-2.253200 0.000000
-2.237200 0.000000
-2.221200 0.000000
-2.205200 0.000000
-2.189100 0.000000
-2.173100 0.000000
-2.157100 0.000000
-2.141100 0.000000
-2.125100 0.000000
-2.109000 0.000000
-2.093000 0.000000
-2.077000 0.000000
-2.061000 0.000000
-2.045000 0.000000
-2.028900 0.000000
-2.012900 0.000000
-1.996900 0.000000
-1.980900 0.000000
-1.964900 0.000000
-1.948900 0.000000
-1.932800 0.000000
-1.916800 0.000000
-1.900800 0.000000
-1.884800 0.000000
-1.868800 0.000000
-1.852700 0.000000
-1.836700 0.000000
-1.820700 0.000000
-1.804700 0.000000
-1.788700 0.000000
-1.772700 0.000000
-1.756600 0.000000
-1.740600 0.000000
-1.724600 0.000000
-1.708600 0.000000
-1.692600 0.000000
-1.676500 0.000000
-1.660500 0.000000
-1.644500 0.000000
-1.628500 0.000000
-1.612500 0.000000
-1.596500 0.000000
-1.580400 0.000000
-1.564400 0.000000
-1.548400 0.000000
-1.532400 0.000000
-1.516400 0.000000
-1.500300 0.000000
-1.484300 0.000000
-1.468300 0.000000
-1.452300 0.000000
-1.436300 0.000000
-1.420200 0.000000
-1.404200 0.000000
-1.388200 0.000000
-1.372200 0.000000
-1.356200 0.000000
-1.340200 0.000000
-1.324100 0.000000
-1.308100 0.000000
-1.292100 0.000000
-1.276100 0.000000
-1.260100 0.000000
-1.244000 0.000000
-1.228000 0.000000
-1.212000 0.000000
-1.196000 0.000000
-1.180000 0.000000
-1.164000 0.000000
-1.147900 0.000000
-1.131900 0.000000
-1.115900 0.000000
-1.099900 0.000000
-1.083900 0.000000
-1.067800 0.000000
-1.051800 0.000000
-1.035800 0.000000
-1.019800 0.000000
-1.003800 0.000000
-0.987800 0.000000
-0.971700 0.000000
-0.955700 0.000000
-0.939700 0.000000
-0.923700 0.000000
-0.907700 0.000000
-0.891600 0.000000
-0.875600 0.000000
-0.859600 0.000000
-0.843600 0.000000
-0.827600 0.000000
-0.811500 0.000000
-0.795500 0.000000
-0.779500 0.000000
-0.763500 0.000000
-0.747500 0.000000
-0.731500 0.000000
-0.715400 0.000000
-0.699400 0.000000
-0.683400 0.000000
-0.667400 0.000000
-0.651400 0.000000
-0.635300 0.000000
-0.619300 0.000000
-0.603300 0.000000
-0.587300 0.000000
-0.571300 0.000000
-0.555300 0.000000
-0.539200 0.000000
-0.523200 0.000000
-0.507200 0.000000
-0.491200 0.000000
-0.475200 0.000000
-0.459100 0.000000
-0.443100 0.000000
-0.427100 0.000000
-0.411100 0.000000
-0.395100 0.000000
-0.379000 0.000000
-0.363000 0.000000
-0.347000 0.000000
-0.331000 0.000000
-0.315000 0.000000
-0.299000 0.000000
-0.282900 0.000000
-0.266900 0.000000
-0.250900 0.000000
-0.234900 0.000000
-0.218900 0.000000
-0.202800 0.000000
-0.186800 0.000000
-0.170800 0.000000
-0.154800 0.000000
-0.138800 0.000000
-0.122800 0.000000
-0.106700 0.000000
-0.090700 0.000000
-0.074700 0.000000
-0.058700 0.000000
-0.042700 0.000000
-0.026600 0.000000
-0.010600 0.000000
0.005400 0.000000
0.021400 0.000000
0.037400 0.000000
0.053400 0.000000
0.069500 0.000000
0.085500 0.000000
0.101500 0.000000
0.117500 0.000000
0.133500 0.000000
0.149600 0.000000
0.165600 0.000000
0.181600 0.000000
0.197600 0.000000
0.213600 0.000000
0.229700 0.000000
0.245700 0.000000
0.261700 0.000000
0.277700 0.000000
0.293700 0.000000
0.309700 0.000000
0.325800 0.000000
0.341800 0.000000
0.357800 0.000000
0.373800 0.000000
0.389800 0.000000
0.405900 0.000000
0.421900 0.002200
0.437900 0.026400
0.453900 0.077200
0.469900 0.154500
0.485900 0.293100
0.502000 0.584800
0.518000 0.913600
0.534000 1.176200
0.550000 1.447800
0.566000 1.736700
0.582100 2.058800
0.598100 2.417500
0.614100 2.749900
0.630100 3.141200
0.646100 3.558400
0.662100 4.121200
0.678200 5.034000
0.694200 6.319300
0.710200 7.261600
0.726200 7.318700
0.742200 6.720000
0.758300 5.573700
0.774300 5.133700
0.790300 4.744100
0.806300 4.405000
0.822300 4.103100
0.838400 3.835600
0.854400 3.610200
0.870400 3.401100
0.886400 3.232600
0.902400 3.057600
0.918400 3.026200
0.934500 2.969000
0.950500 2.778800
0.966500 2.931600
0.982500 2.976500
0.998500 3.202600
1.014600 3.493100
1.030600 3.975600
1.046600 5.238900
1.062600 5.811400
1.078600 6.882600
1.094600 6.654700
1.110700 6.719700
1.126700 7.067100
1.142700 7.537000
1.158700 6.619500
1.174700 6.635500
1.190800 6.635000
1.206800 6.500600
1.222800 6.435300
1.238800 7.422800
1.254800 7.008100
1.270900 6.107700
1.286900 6.150700
1.302900 6.547500
1.318900 6.556800
1.334900 6.437900
1.350900 5.585200
1.367000 5.528000
1.383000 5.997900
1.399000 6.994200
1.415000 6.458900
1.431000 6.724100
1.447100 7.884900
1.463100 8.550200
1.479100 8.650700
1.495100 8.659500
1.511100 7.131700
1.527100 7.120100
1.543200 6.976000
1.559200 6.979100
1.575200 5.679800
1.591200 5.213200
1.607200 5.347300
1.623300 5.570600
1.639300 5.601600
1.655300 5.571400
1.671300 5.831500
1.687300 6.297400
1.703300 6.447300
1.719400 6.341300
1.735400 6.651800
1.751400 7.051900
1.767400 7.707500
1.783400 8.814100
1.799500 11.958200
1.815500 11.869400
1.831500 12.683000
1.847500 13.664800
1.863500 11.207500
1.879600 13.304900
1.895600 10.018200
1.911600 7.840600
1.927600 8.211800
1.943600 9.592600
1.959600 11.922300
1.975700 9.762100
1.991700 9.619100
2.007700 10.070500
2.023700 11.374200
2.039700 12.881100
2.055800 12.917100
2.071800 13.151500
2.087800 12.115000
2.103800 11.847700
2.119800 10.695100
2.135800 10.803600
2.151900 10.870300
2.167900 10.361300
2.183900 11.774200
2.199900 13.959400
2.215900 15.559400
2.232000 9.096900
2.248000 4.379300
2.264000 4.606700
2.280000 5.638900
2.296000 6.350000
2.312000 6.626900
2.328100 7.184800
2.344100 8.602900
2.360100 10.869100
2.376100 10.417700
2.392100 10.489400
2.408200 12.187500
2.424200 9.687900
2.440200 12.237700
2.456200 15.654500
2.472200 15.765700
2.488300 13.686600
2.504300 21.125700
2.520300 17.919800
2.536300 16.068000
2.552300 15.123100
2.568300 10.334800
2.584400 9.294800
2.600400 14.822100
2.616400 22.530300
2.632400 20.381300
2.648400 14.797500
2.664500 15.636700
2.680500 14.064900
2.696500 12.330500
2.712500 11.775300
2.728500 10.952000
2.744500 10.029000
2.760600 8.687100
2.776600 10.099200
2.792600 13.626500
2.808600 14.875800
2.824600 12.840100
2.840700 13.151300
2.856700 13.696300
2.872700 14.231400
2.888700 15.073300
2.904700 18.084600
2.920800 15.410200
2.936800 14.115600
2.952800 15.342600
2.968800 16.271000
2.984800 17.061400
3.000800 15.643000
3.016900 13.186400
3.032900 12.815500
3.048900 13.463000
3.064900 12.758200
3.080900 10.662900
3.097000 11.747400
3.113000 12.961700
3.129000 12.794200
3.145000 15.494200
3.161000 17.222800
3.177000 15.105700
3.193100 14.519400
3.209100 18.636600
3.225100 22.428800
3.241100 24.627600
3.257100 16.446000
3.273200 10.682800
3.289200 7.851100
3.305200 6.547300
3.321200 5.965900
3.337200 7.029100
3.353200 9.209400
3.369300 11.768400
3.385300 14.055000
3.401300 14.210600
3.417300 16.593400
3.433300 16.263800
3.449400 12.797500
3.465400 13.593900
3.481400 10.973500
3.497400 13.639700
3.513400 16.568200
3.529500 21.810900
3.545500 29.129000
3.561500 6.960900
3.577500 1.427500
3.593500 7.579900
3.609500 10.387100
3.625600 12.377900
3.641600 10.531100
3.657600 11.913400
3.673600 15.797500
3.689600 16.368600
3.705700 16.063100
3.721700 9.989000
3.737700 5.450100
3.753700 4.333600
3.769700 5.130300
3.785700 7.718600
3.801800 12.181500
3.817800 13.578500
3.833800 19.232600
3.849800 19.932500
3.865800 15.398000
3.881900 10.830200
3.897900 9.402600
3.913900 8.932900
3.929900 9.985700
3.945900 9.775000
3.961900 6.687300
3.978000 7.936900
3.994000 9.784900
4.010000 17.058300
4.026000 28.962500
4.042000 21.180800
4.058100 9.680400
4.074100 4.793600
4.090100 1.489800
4.106100 0.698500
4.122100 1.116900
4.138200 1.649700
4.154200 2.275200
4.170200 3.078000
4.186200 3.740200
4.202200 3.617300
4.218200 3.976900
4.234300 5.421400
4.250300 5.213800
4.266300 5.295800
4.282300 5.580300
4.298300 6.943300
4.314400 7.746200
4.330400 8.978800
4.346400 9.178600
4.362400 9.144000
4.378400 9.364400
4.394400 9.294500
4.410500 8.869700
4.426500 8.624000
4.442500 7.402900
4.458500 6.760400
4.474500 6.212100
4.490600 5.734000
4.506600 5.310700
4.522600 4.988100
4.538600 4.708200
4.554600 4.529400
4.570700 4.338600
4.586700 4.554000
4.602700 4.692300
4.618700 4.827300
4.634700 4.775200
4.650700 4.936000
4.666800 4.474000
4.682800 4.440700
4.698800 4.428200
4.714800 4.504400
4.730800 4.617400
4.746900 4.732700
4.762900 4.995400
4.778900 5.463000
4.794900 5.626100
4.810900 5.623900
4.826900 5.417100
4.843000 5.206600
4.859000 5.643100
4.875000 6.010000
4.891000 5.969100
4.907000 5.994000
4.923100 5.907700
4.939100 5.843900
4.955100 5.819800
4.971100 5.932200
4.987100 6.420600
5.003100 7.186600
5.019200 7.428500
5.035200 7.365600
5.051200 7.040700
5.067200 6.098000
5.083200 6.050700
5.099300 5.892000
5.115300 5.661200
5.131300 5.628200
5.147300 5.631100
5.163300 5.709900
5.179400 5.900700
5.195400 6.113900
5.211400 6.125400
5.227400 6.197200
5.243400 6.238900
5.259400 6.317200
5.275500 6.497700
5.291500 6.671900
5.307500 6.909100
5.323500 7.100700
5.339500 7.111800
5.355600 7.196600
5.371600 7.270000
5.387600 7.240500
5.403600 7.493500
5.419600 6.852800
5.435600 6.549700
5.451700 6.304900
5.467700 6.100800
5.483700 5.577000
5.499700 5.726800
5.515700 5.976600
5.531800 5.907000
5.547800 5.678500
5.563800 5.860800
5.579800 6.083800
5.595800 6.326200
5.611800 6.922800
5.627900 6.187900
5.643900 5.767000
5.659900 5.369200
5.675900 4.997200
5.691900 4.633700
5.708000 4.355100
5.724000 4.158500
5.740000 4.020200
5.756000 3.897500
5.772000 3.780400
5.788100 3.682000
5.804100 3.598500
5.820100 3.515400
5.836100 3.450200
5.852100 3.401600
5.868100 3.370600
5.884200 3.357300
5.900200 3.361600
5.916200 3.641400
5.932200 3.752600
5.948200 3.853700
5.964300 3.980700
5.980300 4.099900
5.996300 4.196400
6.012300 4.281100
6.028300 4.383300
6.044300 4.609900
6.060400 5.450600
6.076400 5.150200
6.092400 5.722900
6.108400 5.766600
6.124400 5.475700
6.140500 5.303800
6.156500 5.195800
6.172500 5.099700
6.188500 5.020900
6.204500 4.956900
6.220600 4.865400
6.236600 4.505800
6.252600 3.702200
6.268600 3.298300
6.284600 3.020700
6.300600 2.756100
6.316700 2.468800
6.332700 2.247900
6.348700 2.069200
6.364700 2.186600
6.380700 2.215600
6.396800 2.094700
6.412800 2.129200
6.428800 2.178000
6.444800 2.250000
6.460800 2.463400
6.476800 2.695700
6.492900 2.835300
6.508900 3.005100
6.524900 3.183600
6.540900 3.332400
6.556900 3.449200
6.573000 3.548200
6.589000 3.652500
6.605000 3.816700
6.621000 4.179800
6.637000 4.778500
6.653000 5.163700
6.669100 5.378300
6.685100 5.304000
6.701100 4.985200
6.717100 4.670800
6.733100 4.637800
6.749200 4.367900
6.765200 3.825400
6.781200 3.467400
6.797200 3.178600
6.813200 3.012900
6.829300 2.912700
6.845300 2.822600
6.861300 2.761600
6.877300 2.736500
6.893300 2.733900
6.909300 2.745700
6.925400 2.795700
6.941400 2.890300
6.957400 3.038100
6.973400 3.339700
6.989400 3.590900
7.005500 4.242000
7.021500 4.890300
7.037500 5.786600
7.053500 5.507100
7.069500 5.733800
7.085500 5.872500
7.101600 6.060600
7.117600 6.100200
7.133600 6.108400
7.149600 6.267200
7.165600 6.251100
7.181700 6.181300
7.197700 6.181100
7.213700 5.655500
7.229700 4.265200
7.245700 3.568200
7.261700 3.521900
7.277800 3.153800
7.293800 3.167300
7.309800 3.019300
7.325800 3.205500
7.341800 3.557200
7.357900 4.094900
7.373900 4.816300
7.389900 5.688100
7.405900 6.641900
7.421900 7.450400
7.438000 7.964300
7.454000 8.430600
7.470000 8.868400
7.486000 8.964000
7.502000 10.100000
7.518000 8.742300
7.534100 7.880200
7.550100 5.790100
7.566100 3.693400
7.582100 3.578700
7.598100 3.145200
7.614200 3.088100
7.630200 3.135400
7.646200 3.332200
7.662200 3.635500
7.678200 3.951000
7.694200 4.481100
7.710300 4.749300
7.726300 4.917600
7.742300 4.909700
7.758300 4.823800
7.774300 4.891100
7.790400 4.959900
7.806400 5.080400
7.822400 4.991100
7.838400 4.742100
7.854400 4.877200
7.870500 5.044900
7.886500 5.371700
7.902500 4.723900
7.918500 4.359700
7.934500 4.316000
7.950500 4.322000
7.966600 4.372100
7.982600 4.446600
7.998600 4.498500
8.014600 4.531600
8.030600 4.483800
8.046700 4.314400
8.062700 4.167300
8.078700 4.058000
8.094700 4.061200
8.110700 4.182600
8.126700 4.515500
8.142800 5.002600
8.158800 5.631700
8.174800 6.427700
8.190800 6.856400
8.206800 6.546800
8.222900 5.600900
8.238900 4.941300
8.254900 4.576400
8.270900 4.413700
8.286900 4.269100
8.302900 4.192600
8.319000 4.228500
8.335000 4.157700
8.351000 4.109200
8.367000 4.086900
8.383000 4.110700
8.399100 4.128100
8.415100 4.034200
8.431100 3.907600
8.447100 3.795600
8.463100 3.702700
8.479200 3.638300
8.495200 3.583300
8.511200 3.680700
8.527200 3.832800
8.543200 3.955100
8.559200 4.251400
8.575300 4.450300
8.591300 4.537500
8.607300 4.853600
8.623300 5.127000
8.639300 5.377000
8.655400 5.872500
8.671400 7.058300
8.687400 7.005600
8.703400 7.007900
8.719400 6.988600
8.735400 7.228100
8.751500 7.469600
8.767500 7.709100
8.783500 7.968600
8.799500 8.166200
8.815500 8.201200
8.831600 8.081400
