set title 'mp-984050 - Density of States'
set xlabel 'Energy (eV)'
set ylabel 'DOS (states/eV)'
set grid
set xrange [-10:10]
set yrange [0:2.423]
set xzeroaxis lt -1
set terminal png size 800,600
set output 'mp-984050_dos_gnuplot.png'
plot '-' using 1:2 with lines title 'DOS'
-11.722000 0.000000
-11.686000 0.000000
-11.650000 0.000000
-11.614000 0.000000
-11.578000 0.000000
-11.542000 0.000000
-11.506000 0.000000
-11.470100 0.000000
-11.434100 0.000000
-11.398100 0.000000
-11.362100 0.000000
-11.326100 0.000000
-11.290100 0.000000
-11.254100 0.000000
-11.218100 0.000000
-11.182200 0.000000
-11.146200 0.000000
-11.110200 0.000000
-11.074200 0.000000
-11.038200 0.000000
-11.002200 0.000000
-10.966200 0.000000
-10.930200 0.000000
-10.894300 0.000000
-10.858300 0.000000
-10.822300 0.000000
-10.786300 0.000000
-10.750300 0.000000
-10.714300 0.000000
-10.678300 0.000000
-10.642300 0.000000
-10.606400 0.000000
-10.570400 0.000000
-10.534400 0.000000
-10.498400 0.000000
-10.462400 0.000000
-10.426400 0.000000
-10.390400 0.000000
-10.354400 0.000000
-10.318500 0.000000
-10.282500 0.000000
-10.246500 0.000000
-10.210500 0.000000
-10.174500 0.000000
-10.138500 0.000000
-10.102500 0.000000
-10.066500 0.000000
-10.030600 0.000000
-9.994600 0.000000
-9.958600 0.000000
-9.922600 0.000000
-9.886600 0.000000
-9.850600 0.000000
-9.814600 0.000000
-9.778600 0.000000
-9.742700 0.000000
-9.706700 0.000000
-9.670700 0.000000
-9.634700 0.000000
-9.598700 0.000000
-9.562700 0.000000
-9.526700 0.000000
-9.490700 0.000000
-9.454800 0.000000
-9.418800 0.000000
-9.382800 0.000000
-9.346800 0.000000
-9.310800 0.000000
-9.274800 0.000000
-9.238800 0.000000
-9.202800 0.000000
-9.166900 0.000000
-9.130900 0.000000
-9.094900 0.000000
-9.058900 0.000000
-9.022900 0.000000
-8.986900 0.000000
-8.950900 0.000000
-8.914900 0.000000
-8.879000 0.000000
-8.843000 0.000000
-8.807000 0.000000
-8.771000 0.000000
-8.735000 0.000000
-8.699000 0.000000
-8.663000 0.000000
-8.627000 0.000000
-8.591100 0.000000
-8.555100 0.000100
-8.519100 0.001100
-8.483100 0.007500
-8.447100 0.024600
-8.411100 0.046100
-8.375100 0.074700
-8.339100 0.128500
-8.303200 0.133700
-8.267200 0.074900
-8.231200 0.085900
-8.195200 0.168100
-8.159200 0.213000
-8.123200 0.233200
-8.087200 0.238500
-8.051200 0.163000
-8.015200 0.087000
-7.979300 0.102900
-7.943300 0.186500
-7.907300 0.299800
-7.871300 0.378000
-7.835300 0.352400
-7.799300 0.250600
-7.763300 0.180000
-7.727300 0.208500
-7.691400 0.243900
-7.655400 0.249500
-7.619400 0.257700
-7.583400 0.285200
-7.547400 0.293400
-7.511400 0.290200
-7.475400 0.378000
-7.439400 0.491500
-7.403500 0.478600
-7.367500 0.340500
-7.331500 0.227300
-7.295500 0.232300
-7.259500 0.272900
-7.223500 0.303300
-7.187500 0.393400
-7.151500 0.513700
-7.115600 0.472000
-7.079600 0.337400
-7.043600 0.316200
-7.007600 0.431700
-6.971600 0.576800
-6.935600 0.583000
-6.899600 0.441600
-6.863600 0.369200
-6.827700 0.392200
-6.791700 0.446600
-6.755700 0.434400
-6.719700 0.383200
-6.683700 0.482600
-6.647700 0.606500
-6.611700 0.600300
-6.575700 0.610100
-6.539800 0.628500
-6.503800 0.607400
-6.467800 0.562800
-6.431800 0.561000
-6.395800 0.513700
-6.359800 0.462400
-6.323800 0.559000
-6.287800 0.766100
-6.251900 0.904800
-6.215900 0.947500
-6.179900 0.828600
-6.143900 0.723400
-6.107900 0.651300
-6.071900 0.644500
-6.035900 0.837400
-5.999900 0.973500
-5.964000 1.010200
-5.928000 1.064800
-5.892000 1.135000
-5.856000 1.000200
-5.820000 0.789600
-5.784000 0.879500
-5.748000 1.191900
-5.712000 1.330100
-5.676100 1.183000
-5.640100 1.006800
-5.604100 0.799600
-5.568100 0.787200
-5.532100 0.952700
-5.496100 1.033400
-5.460100 1.017700
-5.424100 0.705900
-5.388200 0.407500
-5.352200 0.399500
-5.316200 0.428500
-5.280200 0.508700
-5.244200 0.694400
-5.208200 0.834100
-5.172200 0.791700
-5.136200 0.652600
-5.100300 0.452900
-5.064300 0.230200
-5.028300 0.274200
-4.992300 0.472200
-4.956300 0.441700
-4.920300 0.291400
-4.884300 0.283700
-4.848300 0.492300
-4.812400 0.636700
-4.776400 0.517500
-4.740400 0.368900
-4.704400 0.326800
-4.668400 0.304700
-4.632400 0.246600
-4.596400 0.164900
-4.560400 0.210700
-4.524500 0.442100
-4.488500 0.542400
-4.452500 0.337900
-4.416500 0.145400
-4.380500 0.116400
-4.344500 0.089300
-4.308500 0.030600
-4.272500 0.004200
-4.236600 0.000200
-4.200600 0.000000
-4.164600 0.000000
-4.128600 0.000000
-4.092600 0.000000
-4.056600 0.000000
-4.020600 0.000000
-3.984600 0.000000
-3.948700 0.000000
-3.912700 0.000000
-3.876700 0.000000
-3.840700 0.000000
-3.804700 0.000000
-3.768700 0.000000
-3.732700 0.000000
-3.696700 0.000000
-3.660700 0.000000
-3.624800 0.000000
-3.588800 0.000000
-3.552800 0.000000
-3.516800 0.000000
-3.480800 0.000000
-3.444800 0.000000
-3.408800 0.000000
-3.372800 0.000000
-3.336900 0.000000
-3.300900 0.000000
-3.264900 0.000000
-3.228900 0.000000
-3.192900 0.000000
-3.156900 0.000000
-3.120900 0.000000
-3.084900 0.000000
-3.049000 0.000000
-3.013000 0.000000
-2.977000 0.000000
-2.941000 0.000000
-2.905000 0.000000
-2.869000 0.000000
-2.833000 0.000000
-2.797000 0.000000
-2.761100 0.000000
-2.725100 0.000000
-2.689100 0.000000
-2.653100 0.000000
-2.617100 0.000000
-2.581100 0.000000
-2.545100 0.000000
-2.509100 0.000000
-2.473200 0.000000
-2.437200 0.000000
-2.401200 0.000000
-2.365200 0.000000
-2.329200 0.000500
-2.293200 0.005600
-2.257200 0.024400
-2.221200 0.044100
-2.185300 0.034500
-2.149300 0.019500
-2.113300 0.052100
-2.077300 0.135200
-2.041300 0.174400
-2.005300 0.150600
-1.969300 0.166200
-1.933300 0.229900
-1.897400 0.316100
-1.861400 0.384700
-1.825400 0.437700
-1.789400 0.420900
-1.753400 0.297200
-1.717400 0.253200
-1.681400 0.337200
-1.645400 0.430300
-1.609500 0.456700
-1.573500 0.479000
-1.537500 0.511900
-1.501500 0.597500
-1.465500 0.660400
-1.429500 0.550800
-1.393500 0.476500
-1.357500 0.638900
-1.321600 0.739200
-1.285600 0.584200
-1.249600 0.481300
-1.213600 0.581700
-1.177600 0.669900
-1.141600 0.752800
-1.105600 1.127100
-1.069600 1.435600
-1.033700 1.164800
-0.997700 0.695700
-0.961700 0.470500
-0.925700 0.441400
-0.889700 0.577300
-0.853700 0.833600
-0.817700 0.943500
-0.781700 0.811100
-0.745800 0.751600
-0.709800 0.852100
-0.673800 0.983800
-0.637800 1.254000
-0.601800 1.262700
-0.565800 0.909800
-0.529800 0.837300
-0.493800 1.036500
-0.457900 1.184600
-0.421900 1.125100
-0.385900 1.021000
-0.349900 0.886200
-0.313900 0.816800
-0.277900 0.886700
-0.241900 0.935100
-0.205900 0.902300
-0.170000 0.793300
-0.134000 0.686800
-0.098000 0.600100
-0.062000 0.691200
-0.026000 0.917600
0.010000 0.842200
0.046000 0.611600
0.082000 0.593700
0.117900 0.582100
0.153900 0.480400
0.189900 0.461300
0.225900 0.527700
0.261900 0.738700
0.297900 0.901500
0.333900 0.795400
0.369900 0.606300
0.405900 0.463400
0.441800 0.568200
0.477800 0.830400
0.513800 0.917800
0.549800 0.734200
0.585800 0.534900
0.621800 0.529100
0.657800 0.696300
0.693800 0.803900
0.729700 0.656500
0.765700 0.439200
0.801700 0.345400
0.837700 0.408500
0.873700 0.627300
0.909700 0.932300
0.945700 1.106000
0.981700 0.942900
1.017600 0.710700
1.053600 0.701800
1.089600 0.931900
1.125600 1.033600
1.161600 0.751700
1.197600 0.481100
1.233600 0.370200
1.269600 0.408800
1.305500 0.560100
1.341500 0.789200
1.377500 1.028700
1.413500 0.894200
1.449500 0.473100
1.485500 0.414500
1.521500 0.786900
1.557500 1.064300
1.593400 1.074900
1.629400 1.146200
1.665400 1.240200
1.701400 0.955100
1.737400 0.599800
1.773400 0.536700
1.809400 0.636700
1.845400 0.765900
1.881300 0.760800
1.917300 0.587700
1.953300 0.398600
1.989300 0.418800
2.025300 0.568600
2.061300 0.605300
2.097300 0.645500
2.133300 0.759000
2.169200 0.813900
2.205200 0.874600
2.241200 1.023000
2.277200 1.146100
2.313200 1.119700
2.349200 0.969600
2.385200 0.931200
2.421200 1.020200
2.457100 0.969300
2.493100 0.938000
2.529100 0.957600
2.565100 0.813600
2.601100 0.672400
2.637100 0.770000
2.673100 1.080600
2.709100 1.302400
2.745000 1.194200
2.781000 0.917000
2.817000 0.731500
2.853000 0.993700
2.889000 1.473600
2.925000 1.447600
2.961000 0.954700
2.997000 0.580000
3.032900 0.461400
3.068900 0.626900
3.104900 0.777500
3.140900 0.736500
3.176900 0.859300
3.212900 0.977700
3.248900 0.904000
3.284900 0.948500
3.320800 1.045700
3.356800 1.097700
3.392800 1.153900
3.428800 1.238700
3.464800 1.190200
3.500800 0.880300
3.536800 0.800600
3.572800 1.100600
3.608700 1.212300
3.644700 0.947900
3.680700 0.799300
3.716700 0.890600
3.752700 0.964100
3.788700 0.880200
3.824700 0.929300
3.860700 1.137800
3.896600 1.215900
3.932600 1.153800
3.968600 1.191700
4.004600 1.347100
4.040600 1.284600
4.076600 1.067100
4.112600 1.116100
4.148600 1.206000
4.184500 0.961100
4.220500 0.715200
4.256500 0.630600
4.292500 0.659300
4.328500 0.886200
4.364500 1.209600
4.400500 1.396300
4.436500 1.434000
4.472400 1.240700
4.508400 0.981100
4.544400 0.921900
4.580400 1.135300
4.616400 1.211600
4.652400 1.068600
4.688400 0.943600
4.724400 0.784800
4.760400 0.688500
4.796300 0.749100
4.832300 0.885200
4.868300 1.042300
4.904300 1.265700
4.940300 1.227400
4.976300 0.967600
5.012300 0.872500
5.048300 0.822300
5.084200 0.719400
5.120200 0.718400
5.156200 0.907800
5.192200 1.090800
5.228200 1.000200
5.264200 0.710000
5.300200 0.591900
5.336200 0.539800
5.372100 0.476700
5.408100 0.616200
5.444100 0.735800
5.480100 0.612500
5.516100 0.509400
5.552100 0.664200
5.588100 0.767400
5.624100 0.572900
5.660000 0.478200
5.696000 0.599000
5.732000 0.736200
5.768000 0.771500
5.804000 0.778300
5.840000 0.950400
5.876000 1.022800
5.912000 0.782400
5.947900 0.593200
5.983900 0.558500
6.019900 0.559400
6.055900 0.555400
6.091900 0.635700
6.127900 0.671600
6.163900 0.547800
6.199900 0.417000
6.235800 0.349300
6.271800 0.347300
6.307800 0.397000
6.343800 0.470300
6.379800 0.485900
6.415800 0.447400
6.451800 0.481800
6.487800 0.590900
6.523700 0.706900
6.559700 0.843400
6.595700 1.016700
6.631700 0.987300
6.667700 0.746700
6.703700 0.640000
6.739700 0.686100
6.775700 0.616900
6.811600 0.484400
6.847600 0.568700
6.883600 0.705400
6.919600 0.612700
6.955600 0.478700
6.991600 0.411600
7.027600 0.368500
7.063600 0.365700
7.099500 0.553400
7.135500 0.905000
7.171500 1.091000
7.207500 1.033000
7.243500 0.912700
7.279500 0.987700
7.315500 1.271400
7.351500 1.463700
7.387400 1.529600
7.423400 1.593100
7.459400 1.652900
7.495400 1.603100
7.531400 1.406100
7.567400 1.008700
7.603400 0.750500
7.639400 0.903000
7.675300 1.138000
7.711300 1.510300
7.747300 1.982200
7.783300 2.177500
7.819300 2.202900
7.855300 1.900700
7.891300 1.532700
7.927300 1.270200
7.963200 1.017700
7.999200 0.906200
8.035200 0.917900
8.071200 1.054400
8.107200 1.317300
8.143200 1.456100
8.179200 1.474000
8.215200 1.412600
8.251100 1.361700
8.287100 1.329100
8.323100 1.227100
8.359100 1.294800
8.395100 1.562500
8.431100 1.642400
8.467100 1.456000
8.503100 1.136100
8.539000 0.929900
8.575000 0.965700
8.611000 1.192800
8.647000 1.282000
8.683000 1.119100
8.719000 1.131600
8.755000 1.202900
8.791000 1.160600
8.827000 1.212000
8.862900 1.261600
8.898900 1.265700
8.934900 1.153300
8.970900 0.962500
9.006900 0.688500
9.042900 0.445400
9.078900 0.464300
9.114900 0.594500
9.150800 0.694500
9.186800 0.664500
9.222800 0.515900
9.258800 0.499100
9.294800 0.626100
9.330800 0.658600
9.366800 0.552600
9.402800 0.409800
9.438700 0.237600
9.474700 0.214700
9.510700 0.487000
9.546700 0.839500
9.582700 0.888400
9.618700 0.697100
9.654700 0.578100
9.690700 0.746500
9.726600 0.940300
9.762600 0.757700
9.798600 0.450000
9.834600 0.408700
9.870600 0.599900
9.906600 0.824400
9.942600 0.970000
9.978600 0.983200
10.014500 0.950400
10.050500 0.966400
10.086500 0.960500
10.122500 0.984200
10.158500 1.006400
10.194500 1.016900
10.230500 1.000100
10.266500 0.991800
10.302400 1.033200
10.338400 0.932300
10.374400 0.866000
10.410400 0.991800
10.446400 1.004300
10.482400 0.862500
10.518400 0.798600
10.554400 0.801800
10.590300 0.966000
10.626300 1.256900
10.662300 1.438300
10.698300 1.260200
10.734300 0.942100
10.770300 0.957700
10.806300 1.148400
10.842300 1.064500
10.878200 0.778400
10.914200 0.577400
10.950200 0.482200
10.986200 0.432800
11.022200 0.537900
11.058200 0.653700
11.094200 0.576000
11.130200 0.469000
11.166100 0.455000
11.202100 0.488100
11.238100 0.551100
11.274100 0.603100
11.310100 0.519100
11.346100 0.428300
11.382100 0.407500
11.418100 0.328900
11.454000 0.319300
11.490000 0.330900
11.526000 0.278100
11.562000 0.324500
11.598000 0.425100
11.634000 0.495700
11.670000 0.455600
11.706000 0.405700
11.741900 0.388600
11.777900 0.412000
11.813900 0.506700
11.849900 0.553200
11.885900 0.529500
11.921900 0.597100
11.957900 0.614200
11.993900 0.439000
12.029800 0.258100
12.065800 0.232700
12.101800 0.370900
12.137800 0.532600
12.173800 0.490800
12.209800 0.429600
12.245800 0.491500
12.281800 0.549300
12.317700 0.627600
12.353700 0.809200
12.389700 1.035700
12.425700 1.018400
12.461700 0.752700
12.497700 0.496800
12.533700 0.421800
12.569700 0.593200
12.605600 0.805900
12.641600 0.917400
12.677600 0.993400
12.713600 1.044600
12.749600 1.034100
12.785600 1.089300
12.821600 1.184200
12.857600 1.135000
12.893500 0.906400
12.929500 0.643900
12.965500 0.543300
13.001500 0.527200
13.037500 0.544800
13.073500 0.556400
13.109500 0.603300
13.145500 0.753600
13.181500 0.903500
13.217400 0.864300
13.253400 0.763800
13.289400 0.773000
13.325400 0.783600
13.361400 0.671200
13.397400 0.442300
13.433400 0.328200
13.469400 0.376900
13.505300 0.463500
13.541300 0.677600
13.577300 0.881700
13.613300 0.967100
13.649300 0.996800
13.685300 0.923600
13.721300 0.782900
13.757300 0.683700
13.793200 0.799800
13.829200 1.190400
13.865200 1.478700
13.901200 1.511900
13.937200 1.340000
13.973200 1.030600
14.009200 0.838300
14.045200 0.806400
14.081100 0.940200
14.117100 1.129700
14.153100 1.260200
14.189100 1.208300
14.225100 1.034700
14.261100 1.044000
14.297100 1.125500
14.333100 1.035900
14.369000 1.091100
14.405000 1.463500
14.441000 1.786600
14.477000 1.790000
14.513000 1.765400
14.549000 1.567300
14.585000 1.235500
14.621000 1.189700
14.656900 1.028400
14.692900 0.778100
14.728900 0.844700
14.764900 1.086200
14.800900 1.424700
14.836900 1.447200
14.872900 1.091100
14.908900 0.805000
14.944800 0.663300
14.980800 0.755600
15.016800 1.131300
15.052800 1.352700
15.088800 1.096000
15.124800 0.815500
15.160800 0.796800
15.196800 0.826800
15.232700 0.903500
15.268700 1.237100
15.304700 1.581300
15.340700 1.548100
15.376700 1.388700
15.412700 1.317800
15.448700 1.218800
15.484700 1.121200
15.520600 1.122300
15.556600 1.125100
15.592600 1.195500
15.628600 1.227000
15.664600 1.358700
15.700600 1.339500
15.736600 0.979000
15.772600 0.861000
15.808500 1.149200
15.844500 1.378500
15.880500 1.168700
15.916500 0.920800
15.952500 1.136900
15.988500 1.385500
16.024500 1.524400
16.060500 1.619400
16.096400 1.521900
16.132400 1.342900
16.168400 1.171800
16.204400 1.133300
16.240400 1.237100
16.276400 1.253800
16.312400 1.332800
16.348400 1.520500
16.384300 1.640000
16.420300 1.749400
16.456300 1.837300
16.492300 1.929700
16.528300 1.887500
16.564300 1.698700
16.600300 1.506000
16.636300 1.316100
16.672200 1.168800
16.708200 1.275600
16.744200 1.530000
16.780200 1.408300
16.816200 1.206900
16.852200 1.120300
16.888200 1.091800
16.924200 0.977200
16.960100 0.978700
16.996100 1.428800
17.032100 1.856800
17.068100 1.795400
17.104100 1.510100
17.140100 1.257300
17.176100 1.388300
17.212100 1.838500
17.248100 1.995400
17.284000 1.886000
17.320000 1.713800
17.356000 1.488500
17.392000 1.420800
17.428000 1.431800
17.464000 1.429100
17.500000 1.309700
17.536000 1.231100
17.571900 1.382100
17.607900 1.461500
17.643900 1.344000
17.679900 1.170500
17.715900 1.056200
17.751900 1.015900
17.787900 0.950900
17.823900 0.821700
17.859800 0.696200
17.895800 0.673200
17.931800 0.806100
17.967800 0.901600
18.003800 0.863500
18.039800 0.975600
18.075800 1.305400
18.111800 1.709400
18.147700 1.759300
18.183700 1.388800
18.219700 1.287700
18.255700 1.504900
18.291700 1.765500
18.327700 1.932000
18.363700 1.609900
18.399700 1.194700
18.435600 1.258500
18.471600 1.661700
18.507600 2.065600
18.543600 2.262900
18.579600 2.046100
18.615600 1.586600
18.651600 1.375700
18.687600 1.415500
18.723500 1.402300
18.759500 1.351800
18.795500 1.408500
18.831500 1.418200
18.867500 1.205800
18.903500 1.014800
18.939500 0.984800
18.975500 0.956300
19.011400 1.061000
19.047400 1.145500
19.083400 1.018900
19.119400 0.954900
19.155400 1.032700
19.191400 1.264900
19.227400 1.505300
19.263400 1.639700
19.299300 1.560400
19.335300 1.461600
19.371300 1.636000
19.407300 1.948900
19.443300 1.888500
19.479300 1.514100
19.515300 1.495700
19.551300 1.887900
19.587200 2.187100
19.623200 2.391900
19.659200 2.514400
19.695200 2.454700
19.731200 2.302400
19.767200 2.137300
19.803200 2.032800
19.839200 1.806900
19.875100 1.715200
19.911100 1.941100
19.947100 2.042600
19.983100 1.961400
20.019100 1.911500
20.055100 1.724200
20.091100 1.619700
20.127100 2.035800
20.163000 2.320100
20.199000 1.757800
20.235000 1.165300
20.271000 1.007600
20.307000 0.916100
20.343000 0.972800
20.379000 1.196600
20.415000 1.253800
20.450900 1.086500
20.486900 0.998800
20.522900 1.214800
20.558900 1.601600
20.594900 1.766400
20.630900 1.828500
20.666900 1.905900
20.702900 1.790000
20.738800 1.617600
20.774800 1.731300
20.810800 1.948000
20.846800 1.767100
20.882800 1.474600
20.918800 1.494000
20.954800 1.602900
20.990800 1.759700
21.026700 1.831100
21.062700 1.736900
21.098700 1.675800
21.134700 1.670500
21.170700 1.725000
21.206700 1.661400
21.242700 1.403800
21.278700 1.394100
21.314600 1.777900
21.350600 2.131500
21.386600 2.108400
21.422600 1.812400
21.458600 1.816800
21.494600 2.057000
21.530600 1.854700
21.566600 1.594700
21.602600 1.652700
21.638500 1.755800
21.674500 1.692200
21.710500 1.578700
21.746500 1.532000
21.782500 1.538600
21.818500 1.616000
21.854500 1.725400
21.890500 2.011300
21.926400 2.290000
21.962400 2.319800
21.998400 2.255200
22.034400 2.039800
22.070400 1.563500
22.106400 1.253000
22.142400 1.456400
22.178400 1.943800
22.214300 1.902400
22.250300 1.520600
22.286300 1.399600
22.322300 1.467700
22.358300 1.583100
22.394300 1.574900
22.430300 1.444600
22.466300 1.406700
22.502200 1.553100
22.538200 1.792600
22.574200 2.032200
22.610200 2.206000
22.646200 2.298300
22.682200 2.298500
22.718200 2.166100
22.754200 2.141400
22.790100 2.312800
22.826100 2.355400
22.862100 2.309500
22.898100 2.175100
22.934100 1.955200
22.970100 1.745600
23.006100 1.434500
23.042100 1.127200
23.078000 1.192800
23.114000 1.609100
23.150000 1.949500
23.186000 1.864100
23.222000 1.556000
23.258000 1.465900
23.294000 1.567200
23.330000 1.650700
23.365900 1.696600
23.401900 1.481000
23.437900 1.242500
23.473900 1.167700
23.509900 1.154900
23.545900 1.357800
23.581900 1.696700
23.617900 1.914000
23.653800 1.898500
23.689800 1.894400
23.725800 1.907700
23.761800 1.803500
23.797800 1.579300
23.833800 1.590100
23.869800 1.789200
23.905800 1.647000
23.941700 1.476800
23.977700 1.572700
24.013700 1.658100
24.049700 1.562100
24.085700 1.466700
24.121700 1.525200
24.157700 1.652200
24.193700 1.730100
24.229600 1.860700
24.265600 2.240700
24.301600 2.467400
24.337600 2.207700
24.373600 1.927900
24.409600 2.154400
24.445600 2.353500
24.481600 2.267500
24.517500 2.058900
24.553500 1.881100
24.589500 2.044600
24.625500 2.326900
24.661500 2.289700
24.697500 2.012900
24.733500 1.942700
24.769500 1.825400
24.805400 1.559600
24.841400 1.430100
24.877400 1.468600
24.913400 1.486800
24.949400 1.619100
24.985400 1.888700
25.021400 1.877400
25.057400 1.691900
25.093300 1.885900
25.129300 2.281700
25.165300 2.256100
25.201300 2.108800
25.237300 2.349200
25.273300 2.565400
25.309300 2.312100
25.345300 2.026600
25.381200 2.083600
25.417200 2.074800
25.453200 2.052000
25.489200 2.258900
25.525200 2.161700
25.561200 1.887500
25.597200 2.112800
25.633200 2.576500
25.669200 2.364200
25.705100 2.077900
25.741100 2.511800
25.777100 2.831600
25.813100 2.546400
25.849100 2.168000
25.885100 1.798400
25.921100 1.437100
25.957100 1.434600
25.993000 1.723300
26.029000 1.820100
