set title 'mp-1227413 - Density of States'
set xlabel 'Energy (eV)'
set ylabel 'DOS (states/eV)'
set grid
set xrange [-10:10]
set yrange [0:8.676]
set xzeroaxis lt -1
set terminal png size 800,600
set output 'mp-1227413_dos_gnuplot.png'
plot '-' using 1:2 with lines title 'DOS'
-8.779500 0.000000
-8.764300 0.000000
-8.749200 0.000000
-8.734000 0.000000
-8.718800 0.000000
-8.703700 0.000000
-8.688500 0.000000
-8.673300 0.000000
-8.658200 0.000000
-8.643000 0.000000
-8.627800 0.000000
-8.612700 0.000000
-8.597500 0.000000
-8.582300 0.000000
-8.567200 0.000000
-8.552000 0.000000
-8.536900 0.000000
-8.521700 0.000000
-8.506500 0.000000
-8.491400 0.000000
-8.476200 0.000000
-8.461000 0.000000
-8.445900 0.000000
-8.430700 0.000000
-8.415500 0.000000
-8.400400 0.000000
-8.385200 0.000000
-8.370000 0.000000
-8.354900 0.000000
-8.339700 0.000000
-8.324500 0.000000
-8.309400 0.000000
-8.294200 0.000000
-8.279000 0.000000
-8.263900 0.000000
-8.248700 0.000000
-8.233500 0.000000
-8.218400 0.000000
-8.203200 0.000000
-8.188000 0.000000
-8.172900 0.000000
-8.157700 0.000000
-8.142500 0.000000
-8.127400 0.000000
-8.112200 0.000000
-8.097000 0.000000
-8.081900 0.000000
-8.066700 0.000000
-8.051600 0.000000
-8.036400 0.000000
-8.021200 0.000000
-8.006100 0.000000
-7.990900 0.000000
-7.975700 0.000000
-7.960600 0.000000
-7.945400 0.000000
-7.930200 0.000000
-7.915100 0.000000
-7.899900 0.000000
-7.884700 0.000000
-7.869600 0.000000
-7.854400 0.000000
-7.839200 0.000000
-7.824100 0.000000
-7.808900 0.000000
-7.793700 0.000000
-7.778600 0.000000
-7.763400 0.000000
-7.748200 0.000000
-7.733100 0.000000
-7.717900 0.000000
-7.702700 0.000000
-7.687600 0.000000
-7.672400 0.000000
-7.657200 0.000000
-7.642100 0.000000
-7.626900 0.000000
-7.611700 0.000000
-7.596600 0.000000
-7.581400 0.000000
-7.566300 0.000000
-7.551100 0.000000
-7.535900 0.000100
-7.520800 0.000300
-7.505600 0.001300
-7.490400 0.004600
-7.475300 0.013600
-7.460100 0.034200
-7.444900 0.072000
-7.429800 0.128100
-7.414600 0.194100
-7.399400 0.254500
-7.384300 0.298700
-7.369100 0.332700
-7.353900 0.378300
-7.338800 0.456000
-7.323600 0.567500
-7.308400 0.692800
-7.293300 0.799900
-7.278100 0.857500
-7.262900 0.848300
-7.247800 0.782000
-7.232600 0.697000
-7.217400 0.640000
-7.202300 0.635700
-7.187100 0.675800
-7.171900 0.735800
-7.156800 0.801800
-7.141600 0.887200
-7.126400 1.025800
-7.111300 1.238000
-7.096100 1.487600
-7.081000 1.675200
-7.065800 1.694200
-7.050600 1.512100
-7.035500 1.199200
-7.020300 0.883100
-7.005100 0.676000
-6.990000 0.628600
-6.974800 0.727500
-6.959600 0.918400
-6.944500 1.134300
-6.929300 1.318600
-6.914100 1.445900
-6.899000 1.532800
-6.883800 1.619700
-6.868600 1.723100
-6.853500 1.806200
-6.838300 1.811500
-6.823100 1.723400
-6.808000 1.590300
-6.792800 1.488300
-6.777600 1.475200
-6.762500 1.566400
-6.747300 1.729800
-6.732100 1.896800
-6.717000 1.991200
-6.701800 1.967600
-6.686600 1.835800
-6.671500 1.658000
-6.656300 1.510900
-6.641100 1.435000
-6.626000 1.411000
-6.610800 1.389700
-6.595700 1.348300
-6.580500 1.324500
-6.565300 1.393200
-6.550200 1.600600
-6.535000 1.911600
-6.519800 2.223700
-6.504700 2.441900
-6.489500 2.551700
-6.474300 2.627800
-6.459200 2.768800
-6.444000 2.998400
-6.428800 3.213100
-6.413700 3.236900
-6.398500 2.959100
-6.383300 2.440000
-6.368200 1.894700
-6.353000 1.573200
-6.337800 1.623400
-6.322700 2.008700
-6.307500 2.520700
-6.292300 2.893500
-6.277200 2.959300
-6.262000 2.731200
-6.246800 2.357700
-6.231700 2.006300
-6.216500 1.775500
-6.201300 1.680800
-6.186200 1.692400
-6.171000 1.788600
-6.155800 1.980400
-6.140700 2.281100
-6.125500 2.653500
-6.110400 3.006000
-6.095200 3.256400
-6.080000 3.394400
-6.064900 3.466100
-6.049700 3.504000
-6.034500 3.486500
-6.019400 3.372100
-6.004200 3.158200
-5.989000 2.905100
-5.973900 2.714900
-5.958700 2.691500
-5.943500 2.892600
-5.928400 3.285600
-5.913200 3.733700
-5.898000 4.039500
-5.882900 4.036400
-5.867700 3.679800
-5.852500 3.076700
-5.837400 2.431600
-5.822200 1.949100
-5.807000 1.761300
-5.791900 1.902800
-5.776700 2.309700
-5.761500 2.831300
-5.746400 3.283200
-5.731200 3.541400
-5.716000 3.610700
-5.700900 3.593700
-5.685700 3.589100
-5.670500 3.621800
-5.655400 3.660700
-5.640200 3.683500
-5.625100 3.711800
-5.609900 3.784900
-5.594700 3.900400
-5.579600 3.982400
-5.564400 3.922800
-5.549200 3.680000
-5.534100 3.353500
-5.518900 3.152900
-5.503700 3.271000
-5.488600 3.751300
-5.473400 4.437900
-5.458200 5.038000
-5.443100 5.269800
-5.427900 5.024600
-5.412700 4.430900
-5.397600 3.758400
-5.382400 3.233500
-5.367200 2.928200
-5.352100 2.788700
-5.336900 2.734600
-5.321700 2.726800
-5.306600 2.778300
-5.291400 2.920400
-5.276200 3.146600
-5.261100 3.383200
-5.245900 3.527700
-5.230700 3.525500
-5.215600 3.406100
-5.200400 3.245600
-5.185200 3.108500
-5.170100 3.025200
-5.154900 3.005000
-5.139800 3.055500
-5.124600 3.194900
-5.109400 3.463700
-5.094300 3.922300
-5.079100 4.608900
-5.063900 5.469400
-5.048800 6.326600
-5.033600 6.952500
-5.018400 7.213700
-5.003300 7.167400
-4.988100 6.998500
-4.972900 6.837700
-4.957800 6.638200
-4.942600 6.259200
-4.927400 5.672000
-4.912300 5.049100
-4.897100 4.621000
-4.881900 4.466500
-4.866800 4.464900
-4.851600 4.434500
-4.836400 4.290800
-4.821300 4.091500
-4.806100 3.973100
-4.790900 4.060800
-4.775800 4.409800
-4.760600 4.988200
-4.745400 5.680700
-4.730300 6.299200
-4.715100 6.619700
-4.699900 6.471000
-4.684800 5.839500
-4.669600 4.896400
-4.654500 3.898100
-4.639300 3.034900
-4.624100 2.360800
-4.609000 1.841100
-4.593800 1.435100
-4.578600 1.129800
-4.563500 0.922300
-4.548300 0.804600
-4.533100 0.777100
-4.518000 0.874700
-4.502800 1.170400
-4.487600 1.727700
-4.472500 2.517800
-4.457300 3.371600
-4.442100 4.039300
-4.427000 4.340700
-4.411800 4.286700
-4.396600 4.050500
-4.381500 3.810400
-4.366300 3.614900
-4.351100 3.397300
-4.336000 3.098700
-4.320800 2.763700
-4.305600 2.536100
-4.290500 2.583700
-4.275300 3.003100
-4.260100 3.733700
-4.245000 4.533700
-4.229800 5.081100
-4.214600 5.163700
-4.199500 4.805900
-4.184300 4.212000
-4.169200 3.595100
-4.154000 3.066600
-4.138800 2.660900
-4.123700 2.406900
-4.108500 2.348000
-4.093300 2.510500
-4.078200 2.877600
-4.063000 3.382200
-4.047800 3.901900
-4.032700 4.268500
-4.017500 4.321500
-4.002300 3.993100
-3.987200 3.364400
-3.972000 2.638000
-3.956800 2.040400
-3.941700 1.719800
-3.926500 1.696600
-3.911300 1.881000
-3.896200 2.146900
-3.881000 2.426500
-3.865800 2.761100
-3.850700 3.242400
-3.835500 3.872700
-3.820300 4.474700
-3.805200 4.769400
-3.790000 4.577500
-3.774800 3.957200
-3.759700 3.145000
-3.744500 2.370600
-3.729300 1.732300
-3.714200 1.219800
-3.699000 0.804700
-3.683900 0.489200
-3.668700 0.295600
-3.653500 0.241500
-3.638400 0.333400
-3.623200 0.566800
-3.608000 0.921800
-3.592900 1.356000
-3.577700 1.805900
-3.562500 2.195100
-3.547400 2.453100
-3.532200 2.551600
-3.517000 2.531200
-3.501900 2.477100
-3.486700 2.448700
-3.471500 2.438700
-3.456400 2.409600
-3.441200 2.354800
-3.426000 2.305500
-3.410900 2.291400
-3.395700 2.324900
-3.380500 2.421300
-3.365400 2.599100
-3.350200 2.837300
-3.335000 3.048400
-3.319900 3.125500
-3.304700 3.036000
-3.289500 2.872700
-3.274400 2.800700
-3.259200 2.935800
-3.244000 3.256200
-3.228900 3.614100
-3.213700 3.818700
-3.198600 3.722100
-3.183400 3.275400
-3.168200 2.556300
-3.153100 1.742500
-3.137900 1.025000
-3.122700 0.515900
-3.107600 0.221000
-3.092400 0.080300
-3.077200 0.024700
-3.062100 0.006400
-3.046900 0.001400
-3.031700 0.000300
-3.016600 0.000000
-3.001400 0.000000
-2.986200 0.000000
-2.971100 0.000000
-2.955900 0.000000
-2.940700 0.000000
-2.925600 0.000000
-2.910400 0.000000
-2.895200 0.000000
-2.880100 0.000000
-2.864900 0.000000
-2.849700 0.000000
-2.834600 0.000000
-2.819400 0.000000
-2.804200 0.000000
-2.789100 0.000000
-2.773900 0.000000
-2.758700 0.000000
-2.743600 0.000000
-2.728400 0.000000
-2.713300 0.000000
-2.698100 0.000000
-2.682900 0.000000
-2.667800 0.000000
-2.652600 0.000000
-2.637400 0.000000
-2.622300 0.000000
-2.607100 0.000000
-2.591900 0.000000
-2.576800 0.000000
-2.561600 0.000000
-2.546400 0.000000
-2.531300 0.000000
-2.516100 0.000000
-2.500900 0.000000
-2.485800 0.000000
-2.470600 0.000000
-2.455400 0.000000
-2.440300 0.000000
-2.425100 0.000000
-2.409900 0.000000
-2.394800 0.000000
-2.379600 0.000000
-2.364400 0.000000
-2.349300 0.000000
-2.334100 0.000000
-2.318900 0.000000
-2.303800 0.000000
-2.288600 0.000000
-2.273400 0.000000
-2.258300 0.000000
-2.243100 0.000000
-2.228000 0.000000
-2.212800 0.000000
-2.197600 0.000000
-2.182500 0.000000
-2.167300 0.000000
-2.152100 0.000000
-2.137000 0.000000
-2.121800 0.000000
-2.106600 0.000000
-2.091500 0.000000
-2.076300 0.000000
-2.061100 0.000000
-2.046000 0.000000
-2.030800 0.000000
-2.015600 0.000000
-2.000500 0.000000
-1.985300 0.000000
-1.970100 0.000000
-1.955000 0.000000
-1.939800 0.000000
-1.924600 0.000000
-1.909500 0.000000
-1.894300 0.000000
-1.879100 0.000000
-1.864000 0.000000
-1.848800 0.000000
-1.833600 0.000000
-1.818500 0.000000
-1.803300 0.000000
-1.788100 0.000000
-1.773000 0.000000
-1.757800 0.000000
-1.742700 0.000000
-1.727500 0.000000
-1.712300 0.000000
-1.697200 0.000000
-1.682000 0.000000
-1.666800 0.000000
-1.651700 0.000000
-1.636500 0.000000
-1.621300 0.000000
-1.606200 0.000000
-1.591000 0.000000
-1.575800 0.000000
-1.560700 0.000000
-1.545500 0.000000
-1.530300 0.000000
-1.515200 0.000000
-1.500000 0.000000
-1.484800 0.000000
-1.469700 0.000000
-1.454500 0.000000
-1.439300 0.000000
-1.424200 0.000000
-1.409000 0.000000
-1.393800 0.000000
-1.378700 0.000000
-1.363500 0.000000
-1.348300 0.000000
-1.333200 0.000000
-1.318000 0.000000
-1.302800 0.000000
-1.287700 0.000000
-1.272500 0.000000
-1.257400 0.000000
-1.242200 0.000000
-1.227000 0.000000
-1.211900 0.000000
-1.196700 0.000000
-1.181500 0.000000
-1.166400 0.000000
-1.151200 0.000000
-1.136000 0.000000
-1.120900 0.000000
-1.105700 0.000000
-1.090500 0.000000
-1.075400 0.000000
-1.060200 0.000000
-1.045000 0.000000
-1.029900 0.000000
-1.014700 0.000000
-0.999500 0.000000
-0.984400 0.000000
-0.969200 0.000000
-0.954000 0.000000
-0.938900 0.000000
-0.923700 0.000000
-0.908500 0.000000
-0.893400 0.000000
-0.878200 0.000000
-0.863000 0.000000
-0.847900 0.000000
-0.832700 0.000000
-0.817500 0.000000
-0.802400 0.000000
-0.787200 0.000000
-0.772100 0.000000
-0.756900 0.000000
-0.741700 0.000000
-0.726600 0.000000
-0.711400 0.000000
-0.696200 0.000000
-0.681100 0.000000
-0.665900 0.000000
-0.650700 0.000000
-0.635600 0.000000
-0.620400 0.000000
-0.605200 0.000000
-0.590100 0.000000
-0.574900 0.000000
-0.559700 0.000000
-0.544600 0.000000
-0.529400 0.000000
-0.514200 0.000000
-0.499100 0.000000
-0.483900 0.000000
-0.468700 0.000000
-0.453600 0.000000
-0.438400 0.000000
-0.423200 0.000000
-0.408100 0.000000
-0.392900 0.000000
-0.377700 0.000000
-0.362600 0.000000
-0.347400 0.000000
-0.332200 0.000000
-0.317100 0.000000
-0.301900 0.000000
-0.286800 0.000000
-0.271600 0.000000
-0.256400 0.000000
-0.241300 0.000000
-0.226100 0.000000
-0.210900 0.000000
-0.195800 0.000000
-0.180600 0.000000
-0.165400 0.000000
-0.150300 0.000000
-0.135100 0.000000
-0.119900 0.000000
-0.104800 0.000000
-0.089600 0.000000
-0.074400 0.000000
-0.059300 0.000000
-0.044100 0.000000
-0.028900 0.000000
-0.013800 0.000000
0.001400 0.000000
0.016600 0.000000
0.031700 0.000000
0.046900 0.000000
0.062100 0.000000
0.077200 0.000000
0.092400 0.000000
0.107600 0.000000
0.122700 0.000000
0.137900 0.000000
0.153100 0.000000
0.168200 0.000000
0.183400 0.000000
0.198500 0.000000
0.213700 0.000000
0.228900 0.000000
0.244000 0.000000
0.259200 0.000000
0.274400 0.000000
0.289500 0.000000
0.304700 0.000000
0.319900 0.000000
0.335000 0.000000
0.350200 0.000000
0.365400 0.000000
0.380500 0.000000
0.395700 0.000000
0.410900 0.000000
0.426000 0.000000
0.441200 0.000000
0.456400 0.000000
0.471500 0.000000
0.486700 0.000000
0.501900 0.000000
0.517000 0.000000
0.532200 0.000000
0.547400 0.000000
0.562500 0.000000
0.577700 0.000000
0.592900 0.000000
0.608000 0.000000
0.623200 0.000000
0.638400 0.000000
0.653500 0.000000
0.668700 0.000000
0.683800 0.000000
0.699000 0.000000
0.714200 0.000000
0.729300 0.000000
0.744500 0.000000
0.759700 0.000000
0.774800 0.000000
0.790000 0.000000
0.805200 0.000000
0.820300 0.000000
0.835500 0.000000
0.850700 0.000000
0.865800 0.000000
0.881000 0.000000
0.896200 0.000000
0.911300 0.000000
0.926500 0.000000
0.941700 0.000000
0.956800 0.000000
0.972000 0.000000
0.987200 0.000100
1.002300 0.000500
1.017500 0.002600
1.032700 0.010600
1.047800 0.035700
1.063000 0.101500
1.078200 0.244300
1.093300 0.502000
1.108500 0.892200
1.123700 1.397300
1.138800 1.976200
1.154000 2.593000
1.169100 3.229600
1.184300 3.866100
1.199500 4.457000
1.214600 4.933600
1.229800 5.236200
1.245000 5.349700
1.260100 5.322300
1.275300 5.259800
1.290500 5.290100
1.305600 5.499400
1.320800 5.868100
1.336000 6.263000
1.351100 6.518600
1.366300 6.551000
1.381500 6.399600
1.396600 6.150700
1.411800 5.828400
1.427000 5.385200
1.442100 4.803200
1.457300 4.172100
1.472500 3.643600
1.487600 3.312400
1.502800 3.161200
1.518000 3.113300
1.533100 3.116200
1.548300 3.168900
1.563500 3.287800
1.578600 3.465500
1.593800 3.664200
1.608900 3.837000
1.624100 3.960800
1.639300 4.062200
1.654400 4.204200
1.669600 4.427900
1.684800 4.696500
1.699900 4.912400
1.715100 5.002600
1.730300 4.995300
1.745400 5.017500
1.760600 5.207100
1.775800 5.599500
1.790900 6.080100
1.806100 6.457300
1.821300 6.588800
1.836400 6.439200
1.851600 6.040800
1.866800 5.443800
1.881900 4.717000
1.897100 3.970400
1.912300 3.348800
1.927400 2.984200
1.942600 2.927000
1.957800 3.101100
1.972900 3.339800
1.988100 3.502100
2.003300 3.573700
2.018400 3.648000
2.033600 3.808700
2.048800 4.040700
2.063900 4.256200
2.079100 4.387400
2.094200 4.439900
2.109400 4.460500
2.124600 4.465700
2.139700 4.410700
2.154900 4.232900
2.170100 3.926000
2.185200 3.573300
2.200400 3.309800
2.215600 3.247400
2.230700 3.421300
2.245900 3.785900
2.261100 4.247200
2.276200 4.687000
2.291400 4.968000
2.306600 4.966800
2.321700 4.657200
2.336900 4.165200
2.352100 3.714000
2.367200 3.498600
2.382400 3.605100
2.397600 4.013500
2.412700 4.628100
2.427900 5.294000
2.443100 5.830300
2.458200 6.101000
2.473400 6.074200
2.488600 5.814700
2.503700 5.431700
2.518900 5.041200
2.534100 4.752200
2.549200 4.636400
2.564400 4.683700
2.579500 4.800400
2.594700 4.880000
2.609900 4.889900
2.625000 4.885300
2.640200 4.942300
2.655400 5.074600
2.670500 5.209500
2.685700 5.241900
2.700900 5.121000
2.716000 4.886000
2.731200 4.606900
2.746400 4.298100
2.761500 3.913600
2.776700 3.437800
2.791900 2.955600
2.807000 2.602100
2.822200 2.437800
2.837400 2.383200
2.852500 2.282400
2.867700 2.036700
2.882900 1.690300
2.898000 1.411100
2.913200 1.397600
2.928400 1.780600
2.943500 2.567100
2.958700 3.634800
2.973900 4.771200
2.989000 5.747700
3.004200 6.398000
3.019400 6.655800
3.034500 6.534700
3.049700 6.088600
3.064800 5.397800
3.080000 4.582800
3.095200 3.810300
3.110300 3.268800
3.125500 3.109700
3.140700 3.364100
3.155800 3.883600
3.171000 4.389300
3.186200 4.638900
3.201300 4.585700
3.216500 4.378900
3.231700 4.214800
3.246800 4.195200
3.262000 4.307400
3.277200 4.491500
3.292300 4.698400
3.307500 4.901800
3.322700 5.099700
3.337800 5.312400
3.353000 5.548100
3.368200 5.742700
3.383300 5.748100
3.398500 5.419000
3.413700 4.742300
3.428800 3.895900
3.444000 3.181300
3.459200 2.873500
3.474300 3.086700
3.489500 3.733900
3.504700 4.604200
3.519800 5.496600
3.535000 6.307200
3.550100 7.005400
3.565300 7.548200
3.580500 7.834200
3.595600 7.749100
3.610800 7.254500
3.626000 6.438300
3.641100 5.490200
3.656300 4.629900
3.671500 4.027200
3.686600 3.737200
3.701800 3.670800
3.717000 3.637100
3.732100 3.469500
3.747300 3.162500
3.762500 2.891600
3.777600 2.874400
3.792800 3.192600
3.808000 3.739600
3.823100 4.334600
3.838300 4.869200
3.853500 5.330100
3.868600 5.692100
3.883800 5.843100
3.899000 5.669400
3.914100 5.218600
3.929300 4.738200
3.944500 4.516300
3.959600 4.670000
3.974800 5.080900
3.990000 5.523700
4.005100 5.847200
4.020300 6.036900
4.035400 6.128300
4.050600 6.102500
4.065800 5.892300
4.080900 5.478000
4.096100 4.947300
4.111300 4.458200
4.126400 4.151200
4.141600 4.082300
4.156800 4.199400
4.171900 4.368500
4.187100 4.454400
4.202300 4.423200
4.217400 4.387800
4.232600 4.545300
4.247800 5.042900
4.262900 5.865300
4.278100 6.810000
4.293300 7.568900
4.308400 7.887100
4.323600 7.704400
4.338800 7.158600
4.353900 6.446400
4.369100 5.693900
4.384300 4.967800
4.399400 4.366600
4.414600 4.033300
4.429800 4.055000
4.444900 4.374300
4.460100 4.815700
4.475300 5.188700
4.490400 5.357900
4.505600 5.256700
4.520700 4.900200
4.535900 4.414200
4.551100 4.016700
4.566200 3.915200
4.581400 4.191400
4.596600 4.768700
4.611700 5.467600
4.626900 6.079800
4.642100 6.423200
4.657200 6.386400
4.672400 5.967000
4.687600 5.277100
4.702700 4.497700
4.717900 3.795800
4.733100 3.256300
4.748200 2.871600
4.763400 2.588600
4.778600 2.360700
4.793700 2.166200
4.808900 2.006200
4.824100 1.912900
4.839200 1.955500
4.854400 2.195200
4.869600 2.595700
4.884700 2.983300
4.899900 3.138800
4.915100 2.959600
4.930200 2.540600
4.945400 2.100300
4.960600 1.833700
4.975700 1.817100
4.990900 2.002000
5.006000 2.265500
5.021200 2.478000
5.036400 2.572000
5.051500 2.590400
5.066700 2.682500
5.081900 3.022100
5.097000 3.666300
5.112200 4.456900
5.127400 5.084400
5.142500 5.306600
5.157700 5.131900
5.172900 4.788300
5.188000 4.522200
5.203200 4.441000
5.218400 4.525000
5.233500 4.726300
5.248700 5.007500
5.263900 5.286800
5.279000 5.399400
5.294200 5.171400
5.309400 4.558400
5.324500 3.710400
5.339700 2.896200
5.354900 2.357600
5.370000 2.204200
5.385200 2.395100
5.400400 2.784600
5.415500 3.201000
5.430700 3.521600
5.445900 3.707200
5.461000 3.773800
5.476200 3.740900
5.491300 3.610200
5.506500 3.385900
5.521700 3.091100
5.536800 2.762700
5.552000 2.447500
5.567200 2.203800
5.582300 2.083600
5.597500 2.100900
5.612700 2.231700
5.627800 2.449000
5.643000 2.740200
5.658200 3.078900
5.673300 3.391200
5.688500 3.568500
5.703700 3.527700
5.718800 3.269100
5.734000 2.880200
5.749200 2.480200
5.764300 2.155200
5.779500 1.939500
5.794700 1.838100
5.809800 1.841600
5.825000 1.917200
5.840200 2.007400
5.855300 2.056400
5.870500 2.039400
5.885700 1.964800
5.900800 1.863100
5.916000 1.786700
5.931200 1.812700
5.946300 2.015600
5.961500 2.411500
5.976600 2.922700
5.991800 3.402100
6.007000 3.699000
6.022100 3.717200
6.037300 3.441700
6.052500 2.945600
6.067600 2.377700
6.082800 1.917100
6.098000 1.693400
6.113100 1.719400
6.128300 1.889500
6.143500 2.058700
6.158600 2.155300
6.173800 2.240700
6.189000 2.458800
6.204100 2.902400
6.219300 3.504000
6.234500 4.051200
6.249600 4.326900
6.264800 4.254700
6.280000 3.927500
6.295100 3.511100
6.310300 3.131200
6.325500 2.841000
6.340600 2.661300
6.355800 2.600100
6.371000 2.623600
6.386100 2.648400
6.401300 2.611700
6.416500 2.550500
6.431600 2.581900
6.446800 2.788700
6.461900 3.132600
6.477100 3.477800
6.492300 3.685200
6.507400 3.686000
6.522600 3.488200
6.537800 3.142100
6.552900 2.704200
6.568100 2.229200
6.583300 1.789100
6.598400 1.493200
6.613600 1.470200
6.628800 1.805700
6.643900 2.469300
6.659100 3.294900
6.674300 4.050100
6.689400 4.557900
6.704600 4.772500
6.719800 4.749700
6.734900 4.564500
6.750100 4.272300
6.765300 3.936400
6.780400 3.664900
6.795600 3.597000
6.810800 3.830200
6.825900 4.335000
6.841100 4.929800
6.856300 5.359800
6.871400 5.437400
6.886600 5.140000
6.901800 4.605100
6.916900 4.038800
6.932100 3.604900
6.947200 3.356700
6.962400 3.251800
6.977600 3.229800
6.992700 3.273900
7.007900 3.397900
7.023100 3.595700
7.038200 3.834800
7.053400 4.105000
7.068600 4.440200
7.083700 4.861500
7.098900 5.296400
7.114100 5.573500
7.129200 5.522700
7.144400 5.108700
7.159600 4.484500
7.174700 3.906700
7.189900 3.568200
7.205100 3.482400
7.220200 3.520700
7.235400 3.569500
7.250600 3.652500
7.265700 3.896700
7.280900 4.386100
7.296100 5.062200
7.311200 5.765500
7.326400 6.349100
