set title 'mp-632172 - Density of States'
set xlabel 'Energy (eV)'
set ylabel 'DOS (states/eV)'
set grid
set xrange [-10:10]
set yrange [0:6.224]
set xzeroaxis lt -1
set terminal png size 800,600
set output 'mp-632172_dos_gnuplot.png'
plot '-' using 1:2 with lines title 'DOS'
-14.721600 0.000000
-14.673800 0.000000
-14.626000 0.000000
-14.578200 0.000000
-14.530400 0.000000
-14.482700 0.000000
-14.434900 0.000000
-14.387100 0.000000
-14.339300 0.000000
-14.291500 0.000000
-14.243700 0.000000
-14.195900 0.000000
-14.148200 0.000000
-14.100400 0.000000
-14.052600 0.000000
-14.004800 0.000000
-13.957000 0.000000
-13.909200 0.000000
-13.861500 0.000000
-13.813700 0.000000
-13.765900 0.000000
-13.718100 0.000000
-13.670300 0.000000
-13.622500 0.000000
-13.574700 0.000000
-13.527000 0.000000
-13.479200 0.000000
-13.431400 0.000000
-13.383600 0.000000
-13.335800 0.000000
-13.288000 0.000000
-13.240300 0.000000
-13.192500 0.000000
-13.144700 0.000000
-13.096900 0.000000
-13.049100 0.000000
-13.001300 0.000000
-12.953600 0.000000
-12.905800 0.000000
-12.858000 0.000000
-12.810200 0.000000
-12.762400 0.000000
-12.714600 0.000000
-12.666800 0.000000
-12.619100 0.000000
-12.571300 0.000000
-12.523500 0.000000
-12.475700 0.000000
-12.427900 0.000000
-12.380100 0.000000
-12.332400 0.000000
-12.284600 0.000000
-12.236800 0.000000
-12.189000 0.000000
-12.141200 0.000000
-12.093400 0.000000
-12.045600 0.000000
-11.997900 0.000000
-11.950100 0.000000
-11.902300 0.000000
-11.854500 0.000000
-11.806700 0.000000
-11.758900 0.000000
-11.711200 0.000000
-11.663400 0.000000
-11.615600 0.000000
-11.567800 0.000000
-11.520000 0.000000
-11.472200 0.000000
-11.424400 0.000000
-11.376700 0.000000
-11.328900 0.000000
-11.281100 0.000000
-11.233300 0.000000
-11.185500 0.000000
-11.137700 0.000000
-11.090000 0.000000
-11.042200 0.000000
-10.994400 0.000000
-10.946600 0.000000
-10.898800 0.000000
-10.851000 0.000000
-10.803300 0.000000
-10.755500 0.000000
-10.707700 0.000000
-10.659900 0.000000
-10.612100 0.000000
-10.564300 0.000000
-10.516500 0.000000
-10.468800 0.000000
-10.421000 0.000000
-10.373200 0.000400
-10.325400 0.059700
-10.277600 0.206800
-10.229800 0.266900
-10.182100 0.341400
-10.134300 0.414300
-10.086500 0.469400
-10.038700 0.543000
-9.990900 0.614600
-9.943100 0.695000
-9.895300 0.782400
-9.847600 0.900600
-9.799800 1.020300
-9.752000 1.163900
-9.704200 1.521900
-9.656400 1.584400
-9.608600 1.563300
-9.560900 1.596800
-9.513100 1.633900
-9.465300 1.681000
-9.417500 1.714500
-9.369700 1.775800
-9.321900 1.818900
-9.274100 1.853700
-9.226400 1.814800
-9.178600 1.783300
-9.130800 1.881400
-9.083000 2.098300
-9.035200 2.455200
-8.987400 3.502900
-8.939700 5.658400
-8.891900 0.000000
-8.844100 0.000000
-8.796300 0.000000
-8.748500 0.000000
-8.700700 0.000000
-8.653000 0.000000
-8.605200 0.000000
-8.557400 0.000000
-8.509600 0.000000
-8.461800 0.000000
-8.414000 0.000000
-8.366200 0.000000
-8.318500 0.000000
-8.270700 0.000000
-8.222900 0.000000
-8.175100 0.000000
-8.127300 0.000000
-8.079500 0.000000
-8.031800 0.000000
-7.984000 0.000000
-7.936200 0.000000
-7.888400 0.000000
-7.840600 0.000000
-7.792800 0.000000
-7.745000 0.000000
-7.697300 0.000000
-7.649500 0.000000
-7.601700 0.000000
-7.553900 0.000000
-7.506100 0.000000
-7.458300 0.000000
-7.410600 0.000000
-7.362800 0.000000
-7.315000 0.000000
-7.267200 0.000000
-7.219400 0.000000
-7.171600 0.000000
-7.123800 0.000000
-7.076100 0.000000
-7.028300 0.000000
-6.980500 0.000000
-6.932700 0.000000
-6.884900 0.000000
-6.837100 0.000000
-6.789400 0.000000
-6.741600 0.000000
-6.693800 0.000000
-6.646000 0.000000
-6.598200 0.000000
-6.550400 0.000000
-6.502700 0.000000
-6.454900 0.000000
-6.407100 0.000000
-6.359300 0.000000
-6.311500 0.000000
-6.263700 0.000000
-6.215900 0.000000
-6.168200 0.000000
-6.120400 0.000000
-6.072600 0.000000
-6.024800 0.000000
-5.977000 0.000000
-5.929200 0.000000
-5.881500 0.000000
-5.833700 0.000000
-5.785900 0.000000
-5.738100 0.000000
-5.690300 0.000000
-5.642500 0.000000
-5.594700 0.000000
-5.547000 0.000000
-5.499200 0.000000
-5.451400 0.000000
-5.403600 0.000000
-5.355800 0.000000
-5.308000 0.000000
-5.260300 0.000000
-5.212500 0.000000
-5.164700 0.000000
-5.116900 0.000000
-5.069100 0.000000
-5.021300 0.000000
-4.973500 0.000000
-4.925800 0.000000
-4.878000 0.000000
-4.830200 0.000000
-4.782400 0.000000
-4.734600 0.000000
-4.686800 0.000000
-4.639100 0.000000
-4.591300 0.000000
-4.543500 0.000000
-4.495700 0.000000
-4.447900 0.000000
-4.400100 0.000000
-4.352300 0.000000
-4.304600 0.000000
-4.256800 0.000000
-4.209000 0.000000
-4.161200 0.000000
-4.113400 0.000000
-4.065600 0.000000
-4.017900 0.000000
-3.970100 0.000000
-3.922300 0.000000
-3.874500 0.000000
-3.826700 0.000000
-3.778900 0.000000
-3.731200 0.000000
-3.683400 0.000000
-3.635600 0.000000
-3.587800 0.000000
-3.540000 0.000000
-3.492200 0.000000
-3.444400 0.000000
-3.396700 0.000000
-3.348900 0.000000
-3.301100 0.000000
-3.253300 0.000000
-3.205500 0.000000
-3.157700 0.000000
-3.110000 0.000000
-3.062200 0.000000
-3.014400 0.000000
-2.966600 0.000000
-2.918800 0.000000
-2.871000 0.000000
-2.823200 0.000000
-2.775500 0.000000
-2.727700 0.000000
-2.679900 0.000000
-2.632100 0.000000
-2.584300 0.000000
-2.536500 0.000000
-2.488800 0.000000
-2.441000 0.000000
-2.393200 0.000000
-2.345400 0.000000
-2.297600 0.000000
-2.249800 0.000000
-2.202000 0.000000
-2.154300 0.000000
-2.106500 0.000000
-2.058700 0.000000
-2.010900 0.000000
-1.963100 0.000000
-1.915300 0.000000
-1.867600 0.000000
-1.819800 0.000000
-1.772000 0.000000
-1.724200 0.000000
-1.676400 0.000000
-1.628600 0.000000
-1.580900 0.000000
-1.533100 0.000000
-1.485300 0.000000
-1.437500 0.000000
-1.389700 0.000000
-1.341900 0.000000
-1.294100 0.000000
-1.246400 0.000000
-1.198600 0.000000
-1.150800 0.000000
-1.103000 0.000000
-1.055200 0.000000
-1.007400 0.000000
-0.959700 0.000000
-0.911900 0.000000
-0.864100 0.000000
-0.816300 0.000000
-0.768500 0.000000
-0.720700 0.000000
-0.672900 0.000000
-0.625200 0.000000
-0.577400 0.000000
-0.529600 0.000000
-0.481800 0.000000
-0.434000 0.000000
-0.386200 0.000000
-0.338500 0.000000
-0.290700 0.000000
-0.242900 0.000000
-0.195100 0.000000
-0.147300 0.000000
-0.099500 0.000000
-0.051700 0.000000
-0.004000 0.000000
0.043800 0.000000
0.091600 0.000000
0.139400 0.000000
0.187200 0.000000
0.235000 0.000000
0.282700 0.000000
0.330500 0.000000
0.378300 0.000000
0.426100 0.000000
0.473900 0.000000
0.521700 0.000000
0.569400 0.248400
0.617200 0.943800
0.665000 2.205800
0.712800 0.917200
0.760600 0.819100
0.808400 0.760100
0.856200 0.769400
0.903900 0.812200
0.951700 0.863800
0.999500 0.899200
1.047300 0.923500
1.095100 0.943000
1.142900 0.949300
1.190600 0.895000
1.238400 0.906000
1.286200 0.911100
1.334000 0.936400
1.381800 0.976200
1.429600 1.019000
1.477400 1.060300
1.525100 1.135100
1.572900 1.275500
1.620700 1.344700
1.668500 1.355900
1.716300 1.286900
1.764100 1.209400
1.811800 1.165500
1.859600 1.145700
1.907400 1.123800
1.955200 1.205700
2.003000 1.093700
2.050800 1.055300
2.098600 0.998500
2.146300 0.942500
2.194100 0.763100
2.241900 0.663400
2.289700 0.591500
2.337500 0.528700
2.385300 0.483500
2.433000 0.443100
2.480800 0.404500
2.528600 0.370300
2.576400 0.346500
2.624200 0.325000
2.672000 0.312100
2.719800 0.304600
2.767500 0.292400
2.815300 0.279200
2.863100 0.267900
2.910900 0.297700
2.958700 0.249400
3.006500 0.204000
3.054200 0.186600
3.102000 0.190500
3.149800 0.198100
3.197600 0.209400
3.245400 0.213400
3.293200 0.245800
3.340900 0.282800
3.388700 0.318100
3.436500 0.352300
3.484300 0.364200
3.532100 0.346900
3.579900 0.353400
3.627700 0.364200
3.675400 0.421700
3.723200 0.442000
3.771000 0.473900
3.818800 0.509200
3.866600 0.542600
3.914400 0.645800
3.962100 0.673300
4.009900 0.686800
4.057700 0.659400
4.105500 0.662400
4.153300 0.637800
4.201100 0.645000
4.248900 0.651500
4.296600 0.649100
4.344400 0.644500
4.392200 0.637200
4.440000 0.641000
4.487800 0.631700
4.535600 0.620800
4.583300 0.611800
4.631100 0.606000
4.678900 0.608000
4.726700 0.610700
4.774500 0.614000
4.822300 0.618000
4.870100 0.622700
4.917800 0.628500
4.965600 0.641200
5.013400 0.645200
5.061200 0.645000
5.109000 0.643200
5.156800 0.644400
5.204500 0.648500
5.252300 0.661900
5.300100 0.669600
5.347900 0.670300
5.395700 0.685100
5.443500 0.698300
5.491200 0.704900
5.539000 0.711500
5.586800 0.718000
5.634600 0.722100
5.682400 0.722100
5.730200 0.720900
5.778000 0.722700
5.825700 0.722800
5.873500 0.725700
5.921300 0.732000
5.969100 0.738300
6.016900 0.721700
6.064700 0.723600
6.112400 0.727300
6.160200 0.727900
6.208000 0.729300
6.255800 0.731500
6.303600 0.737800
6.351400 0.739200
6.399200 0.744100
6.446900 0.748100
6.494700 0.755400
6.542500 0.768900
6.590300 0.796200
6.638100 0.800500
6.685900 0.805200
6.733600 0.808200
6.781400 0.827900
6.829200 0.838300
6.877000 0.848100
6.924800 0.858600
6.972600 0.869500
7.020400 0.892800
7.068100 0.940600
7.115900 0.930200
7.163700 0.940900
7.211500 0.974800
7.259300 1.012800
7.307100 1.047300
7.354800 1.067800
7.402600 0.995200
7.450400 0.985000
7.498200 0.975900
7.546000 0.954900
7.593800 0.925100
7.641500 0.906500
7.689300 0.837200
7.737100 0.797800
7.784900 0.782500
7.832700 0.770400
7.880500 0.752100
7.928300 0.740900
7.976000 0.732600
8.023800 0.715200
8.071600 0.709500
8.119400 0.709100
8.167200 0.724900
8.215000 0.745500
8.262700 0.729800
8.310500 0.712300
8.358300 0.694800
8.406100 0.727200
8.453900 0.809500
8.501700 0.765000
8.549500 0.766600
8.597200 0.780300
8.645000 0.803800
8.692800 0.840500
8.740600 0.823500
8.788400 0.831300
8.836200 0.843300
8.883900 0.886100
8.931700 0.933600
8.979500 0.949800
9.027300 0.975300
9.075100 0.987300
9.122900 0.936900
9.170700 0.898400
9.218400 0.864900
9.266200 0.833800
9.314000 0.807600
9.361800 0.736300
9.409600 0.714400
9.457400 0.691800
9.505100 0.669900
9.552900 0.648700
9.600700 0.628300
9.648500 0.616100
9.696300 0.599100
9.744100 0.588600
9.791800 0.575500
9.839600 0.559000
9.887400 0.546700
9.935200 0.536500
9.983000 0.530700
10.030800 0.528100
10.078600 0.529100
10.126300 0.537900
10.174100 0.566100
10.221900 0.599200
10.269700 0.634200
10.317500 0.681100
10.365300 0.754900
10.413000 0.776700
10.460800 0.813400
10.508600 0.839800
10.556400 0.841800
10.604200 0.843800
10.652000 0.847500
10.699800 0.857400
10.747500 0.870200
10.795300 0.879900
10.843100 0.878300
10.890900 0.876500
10.938700 0.888800
10.986500 0.893600
11.034200 0.901000
11.082000 0.901300
11.129800 0.909900
11.177600 0.924700
11.225400 0.939200
11.273200 0.950000
11.321000 0.959200
11.368700 0.968600
11.416500 0.977400
11.464300 0.977500
11.512100 0.973200
11.559900 0.954000
11.607700 0.950900
11.655400 0.980800
11.703200 0.963700
11.751000 0.863000
11.798800 0.784700
11.846600 0.695300
11.894400 0.545900
11.942200 0.503400
11.989900 0.489400
12.037700 0.491400
12.085500 0.501200
12.133300 0.511600
12.181100 0.522500
12.228900 0.525600
12.276600 0.538800
12.324400 0.557200
12.372200 0.582500
12.420000 0.608200
12.467800 0.635600
12.515600 0.683000
12.563300 0.707800
12.611100 0.727800
12.658900 0.741100
12.706700 0.757300
12.754500 0.775700
12.802300 0.793100
12.850100 0.806400
12.897800 0.818400
12.945600 0.829000
12.993400 0.837700
13.041200 0.844600
13.089000 0.850900
13.136800 0.856900
13.184500 0.887100
13.232300 0.913000
13.280100 0.898100
13.327900 0.918300
13.375700 0.949300
13.423500 1.028800
13.471300 1.188900
13.519000 1.186800
13.566800 1.216500
13.614600 1.220600
13.662400 1.192300
13.710200 1.140000
13.758000 1.115500
13.805700 1.070400
13.853500 1.019100
13.901300 0.985700
13.949100 0.955900
13.996900 0.930300
14.044700 0.908700
14.092500 0.888900
14.140200 0.869800
14.188000 0.848700
14.235800 0.831400
14.283600 0.799100
14.331400 0.790300
14.379200 0.736200
14.426900 0.729400
14.474700 0.753500
14.522500 0.779600
14.570300 0.814800
14.618100 0.862600
14.665900 0.903800
14.713600 0.946500
14.761400 0.990200
14.809200 1.028900
14.857000 1.066800
14.904800 1.147400
14.952600 1.160600
15.000400 1.199800
15.048100 1.250700
15.095900 1.296000
15.143700 1.285100
15.191500 1.187100
15.239300 1.162300
15.287100 1.152100
15.334800 1.141500
15.382600 1.167400
15.430400 1.172100
15.478200 1.157400
15.526000 1.141300
15.573800 1.061000
15.621600 0.984900
15.669300 0.940500
15.717100 0.918100
15.764900 0.904300
15.812700 0.874900
15.860500 0.842300
15.908300 0.808200
15.956000 0.775300
16.003800 0.746800
16.051600 0.744900
16.099400 0.746900
16.147200 0.749900
16.195000 0.749200
16.242800 0.747200
16.290500 0.746000
16.338300 0.747000
16.386100 0.751300
16.433900 0.757900
16.481700 0.776800
16.529500 0.808200
16.577200 0.841100
16.625000 0.875400
16.672800 0.911900
16.720600 0.982100
16.768400 0.987100
16.816200 1.022300
16.863900 1.064000
16.911700 1.104400
16.959500 1.122100
17.007300 1.167600
17.055100 1.225000
17.102900 1.280300
17.150700 1.320900
17.198400 1.333700
17.246200 1.307900
17.294000 1.238900
17.341800 1.181000
17.389600 1.154100
17.437400 1.109200
17.485100 1.077800
17.532900 1.062600
17.580700 1.040800
17.628500 1.021900
17.676300 0.963300
17.724100 0.970500
17.771900 0.976200
17.819600 0.982900
17.867400 0.890500
17.915200 0.868700
17.963000 0.873600
18.010800 0.886500
18.058600 0.886200
18.106300 0.888300
18.154100 0.893700
18.201900 0.904900
18.249700 0.932100
18.297500 0.981300
18.345300 0.983200
18.393100 1.064000
18.440800 1.041100
18.488600 0.948700
18.536400 0.917700
18.584200 0.898100
18.632000 0.881000
18.679800 0.866000
18.727500 0.862600
18.775300 0.849100
18.823100 0.858400
18.870900 0.870800
18.918700 0.884700
18.966500 0.898400
19.014200 0.911400
19.062000 0.915400
19.109800 0.931700
19.157600 0.945500
19.205400 0.956100
19.253200 0.955100
19.301000 0.962500
19.348700 0.968000
19.396500 0.973000
19.444300 0.977300
19.492100 0.982300
19.539900 0.989600
19.587700 1.026400
19.635400 1.050000
19.683200 1.082700
19.731000 1.111700
19.778800 1.140600
19.826600 1.194600
19.874400 1.238000
19.922200 1.271400
19.969900 1.272000
20.017700 1.263900
20.065500 1.240400
20.113300 1.204200
20.161100 1.199400
20.208900 1.171000
20.256600 1.153700
20.304400 1.151800
20.352200 1.174000
20.400000 1.213000
20.447800 1.189500
20.495600 1.135000
20.543400 1.135200
20.591100 1.129300
20.638900 1.119500
20.686700 1.112000
20.734500 1.107200
20.782300 1.107700
20.830100 1.094200
20.877800 1.074300
20.925600 1.061200
20.973400 1.053600
21.021200 1.050800
21.069000 1.052900
21.116800 1.060300
21.164600 1.071100
21.212300 1.070200
21.260100 1.060700
21.307900 1.051000
21.355700 1.046500
21.403500 1.041500
21.451300 1.037600
21.499000 1.027500
21.546800 1.007000
21.594600 0.996400
21.642400 0.994000
21.690200 0.993200
21.738000 0.995000
21.785700 1.004900
21.833500 1.014000
21.881300 1.029000
21.929100 1.044200
21.976900 1.047600
22.024700 1.049600
22.072500 1.051700
22.120200 1.053400
22.168000 1.054300
22.215800 1.054000
22.263600 1.053300
22.311400 1.058700
22.359200 1.117500
22.406900 1.150500
22.454700 1.121300
22.502500 1.096100
22.550300 1.086000
22.598100 1.073900
22.645900 1.086000
22.693700 1.117700
22.741400 1.155800
22.789200 1.197300
22.837000 1.170600
22.884800 1.166800
22.932600 1.159100
22.980400 1.151500
23.028100 1.150900
23.075900 1.150200
23.123700 1.145900
23.171500 1.141300
23.219300 1.136500
23.267100 1.138100
23.314900 1.133200
23.362600 1.129200
23.410400 1.125900
23.458200 1.123900
23.506000 1.129000
23.553800 1.134500
23.601600 1.143900
23.649300 1.151500
23.697100 1.143600
23.744900 1.145800
23.792700 1.159800
23.840500 1.181600
23.888300 1.210300
23.936000 1.244600
23.983800 1.282700
24.031600 1.319800
24.079400 1.352700
24.127200 1.381600
24.175000 1.405000
24.222800 1.423700
24.270500 1.345100
24.318300 1.299800
24.366100 1.265100
24.413900 1.237600
24.461700 1.212800
24.509500 1.188900
24.557200 1.172000
24.605000 1.156300
24.652800 1.144600
24.700600 1.136400
24.748400 1.133100
24.796200 1.135900
24.844000 1.138000
24.891700 1.130000
24.939500 1.104500
24.987300 1.092500
25.035100 1.056700
25.082900 1.036400
25.130700 1.023900
25.178400 1.013300
25.226200 1.004800
25.274000 0.997600
25.321800 0.991600
25.369600 0.986700
25.417400 0.983100
25.465200 0.981800
25.512900 0.985700
25.560700 1.046000
25.608500 1.053100
25.656300 1.068900
25.704100 1.078300
25.751900 1.090600
25.799600 1.105500
25.847400 1.121100
25.895200 1.135700
25.943000 1.163600
25.990800 1.165800
26.038600 1.170800
26.086300 1.205600
26.134100 1.221900
26.181900 1.226300
26.229700 1.217700
26.277500 1.198400
26.325300 1.174000
26.373100 1.152700
26.420800 1.160900
26.468600 1.170200
26.516400 1.142700
26.564200 1.104200
26.612000 1.050700
26.659800 1.053500
26.707500 1.065100
26.755300 1.051000
26.803100 1.040400
26.850900 1.041600
26.898700 1.050400
26.946500 1.063000
26.994300 1.077900
27.042000 1.095600
27.089800 1.115100
27.137600 1.135900
27.185400 1.154300
27.233200 1.170200
27.281000 1.189000
27.328700 1.200900
27.376500 1.213700
27.424300 1.220800
27.472100 1.227100
27.519900 1.235800
27.567700 1.247100
27.615500 1.256100
27.663200 1.259400
27.711000 1.265500
27.758800 1.298400
27.806600 1.365100
27.854400 1.420400
27.902200 1.397400
27.949900 1.398300
27.997700 1.398400
28.045500 1.434800
28.093300 1.482700
28.141100 1.472300
28.188900 1.430900
28.236600 1.380500
28.284400 1.338100
28.332200 1.294700
28.380000 1.237200
28.427800 1.191500
28.475600 1.152400
28.523400 1.135300
28.571100 1.128600
28.618900 1.125600
28.666700 1.126900
28.714500 1.129200
28.762300 1.135000
28.810100 1.143900
28.857800 1.149800
28.905600 1.165700
28.953400 1.189000
29.001200 1.236400
29.049000 1.278300
29.096800 1.280100
29.144600 1.304200
29.192300 1.313500
29.240100 1.314200
29.287900 1.298300
29.335700 1.280100
29.383500 1.272200
29.431300 1.256500
29.479000 1.245800
29.526800 1.234300
29.574600 1.211700
29.622400 1.216200
29.670200 1.211000
29.718000 1.200800
29.765800 1.191000
29.813500 1.189500
29.861300 1.183200
29.909100 1.180900
29.956900 1.176300
30.004700 1.168800
30.052500 1.164600
30.100200 1.161100
30.148000 1.159200
30.195800 1.160200
30.243600 1.162300
30.291400 1.161500
30.339200 1.152100
30.387000 1.146900
30.434700 1.156400
30.482500 1.234400
30.530300 1.233900
30.578100 1.238600
30.625900 1.140000
30.673700 1.103200
30.721400 1.106600
30.769200 1.124000
30.817000 1.134800
30.864800 1.143600
30.912600 1.156100
30.960400 1.194400
31.008100 1.227700
31.055900 1.265300
31.103700 1.304400
31.151500 1.341500
31.199300 1.382800
31.247100 1.429300
31.294900 1.472200
31.342600 1.513600
31.390400 1.556600
31.438200 1.586500
31.486000 1.769100
31.533800 1.761800
31.581600 1.727800
31.629300 1.670500
31.677100 1.718100
31.724900 1.595600
31.772700 1.461600
31.820500 1.350400
31.868300 1.304600
31.916100 1.294900
31.963800 1.246000
32.011600 1.231300
32.059400 1.219900
32.107200 1.196400
32.155000 1.204800
32.202800 1.202700
32.250500 1.206100
32.298300 1.218100
32.346100 1.231500
32.393900 1.244000
32.441700 1.254900
32.489500 1.257600
32.537300 1.266600
32.585000 1.275100
32.632800 1.257600
32.680600 1.240200
32.728400 1.223700
32.776200 1.204100
32.824000 1.185400
32.871700 1.181200
32.919500 1.121200
32.967300 1.102100
33.015100 1.090700
33.062900 1.086600
33.110700 1.091000
33.158400 1.092400
33.206200 1.097000
33.254000 1.133400
33.301800 1.168000
33.349600 1.211500
33.397400 1.240100
33.445200 1.346000
33.492900 1.438300
33.540700 1.507200
33.588500 1.458400
33.636300 1.386900
33.684100 1.306600
33.731900 1.306100
33.779600 1.297600
33.827400 1.307300
33.875200 1.301900
33.923000 1.290000
33.970800 1.283400
34.018600 1.279500
34.066400 1.277200
34.114100 1.271200
34.161900 1.256600
34.209700 1.244500
34.257500 1.229500
34.305300 1.215900
34.353100 1.176000
34.400800 1.148200
34.448600 1.127000
34.496400 1.097500
34.544200 1.186900
34.592000 1.314200
34.639800 1.125000
34.687600 1.140600
34.735300 1.173600
34.783100 1.204000
34.830900 1.222000
34.878700 1.238600
34.926500 1.251000
34.974300 1.266200
35.022000 1.284800
35.069800 1.301600
