set title 'mp-27902 - Density of States'
set xlabel 'Energy (eV)'
set ylabel 'DOS (states/eV)'
set grid
set xrange [-10:10]
set yrange [0:31.313]
set xzeroaxis lt -1
set terminal png size 800,600
set output 'mp-27902_dos_gnuplot.png'
plot '-' using 1:2 with lines title 'DOS'
-11.226100 0.000000
-11.215800 0.000000
-11.205400 0.000000
-11.195000 0.000000
-11.184700 0.000000
-11.174300 0.000000
-11.164000 0.000000
-11.153600 0.000000
-11.143200 0.000000
-11.132900 0.000000
-11.122500 0.000000
-11.112200 0.000000
-11.101800 0.000000
-11.091400 0.000000
-11.081100 0.000000
-11.070700 0.000000
-11.060400 0.000000
-11.050000 0.000000
-11.039600 0.000000
-11.029300 0.000000
-11.018900 0.000000
-11.008600 0.000000
-10.998200 0.000000
-10.987800 0.000000
-10.977500 0.000000
-10.967100 0.000000
-10.956800 0.000000
-10.946400 0.000000
-10.936000 0.000000
-10.925700 0.000000
-10.915300 0.000000
-10.905000 0.000000
-10.894600 0.000000
-10.884200 0.000000
-10.873900 0.000000
-10.863500 0.000000
-10.853200 0.000000
-10.842800 0.000000
-10.832400 0.000000
-10.822100 0.000000
-10.811700 0.000000
-10.801400 0.000000
-10.791000 0.000000
-10.780600 0.000000
-10.770300 0.000000
-10.759900 0.000000
-10.749600 0.000000
-10.739200 0.000000
-10.728800 0.000000
-10.718500 0.000000
-10.708100 0.000000
-10.697800 0.000000
-10.687400 0.000000
-10.677000 0.000000
-10.666700 0.000000
-10.656300 0.000000
-10.646000 0.000000
-10.635600 0.000000
-10.625200 0.000000
-10.614900 0.000000
-10.604500 0.000000
-10.594200 0.000000
-10.583800 0.000000
-10.573400 0.000000
-10.563100 0.000000
-10.552700 0.000000
-10.542400 0.000000
-10.532000 0.000000
-10.521600 0.000000
-10.511300 0.000000
-10.500900 0.000000
-10.490600 0.000000
-10.480200 0.000000
-10.469800 0.000000
-10.459500 0.000000
-10.449100 0.000000
-10.438800 0.000000
-10.428400 0.000000
-10.418000 0.000000
-10.407700 0.000000
-10.397300 0.000000
-10.387000 0.000000
-10.376600 0.000000
-10.366200 0.000000
-10.355900 0.000000
-10.345500 0.000000
-10.335200 0.000000
-10.324800 0.000000
-10.314400 0.000000
-10.304100 0.000000
-10.293700 0.000000
-10.283400 0.009000
-10.273000 0.409600
-10.262600 0.820700
-10.252300 1.566000
-10.241900 1.496900
-10.231600 1.945700
-10.221200 1.564400
-10.210800 1.635000
-10.200500 1.705500
-10.190100 1.776100
-10.179700 1.846600
-10.169400 1.884400
-10.159000 1.879300
-10.148700 1.852900
-10.138300 1.771900
-10.127900 1.741200
-10.117600 1.713500
-10.107200 1.729400
-10.096900 1.755600
-10.086500 1.781800
-10.076100 1.808000
-10.065800 1.834200
-10.055400 1.860400
-10.045100 1.886600
-10.034700 1.912900
-10.024300 1.864000
-10.014000 1.876200
-10.003600 1.814700
-9.993300 1.812900
-9.982900 1.811100
-9.972500 1.809200
-9.962200 1.807400
-9.951800 1.812400
-9.941500 1.818800
-9.931100 1.831500
-9.920700 1.846300
-9.910400 1.861100
-9.900000 1.875900
-9.889700 1.890600
-9.879300 1.905400
-9.868900 1.920200
-9.858600 1.935000
-9.848200 1.934800
-9.837900 1.930200
-9.827500 1.911100
-9.817100 1.894400
-9.806800 1.885500
-9.796400 1.893600
-9.786100 2.305800
-9.775700 2.817400
-9.765300 3.329600
-9.755000 2.753200
-9.744600 2.803400
-9.734300 3.018800
-9.723900 3.580900
-9.713500 4.145600
-9.703200 4.050100
-9.692800 3.906800
-9.682500 3.914500
-9.672100 3.922200
-9.661700 3.944600
-9.651400 4.016600
-9.641000 4.085400
-9.630700 4.078400
-9.620300 4.041300
-9.609900 4.017400
-9.599600 4.028100
-9.589200 4.064400
-9.578900 4.100700
-9.568500 4.093900
-9.558100 4.087200
-9.547800 4.110400
-9.537400 4.134300
-9.527100 4.160800
-9.516700 4.182100
-9.506300 4.134500
-9.496000 4.154100
-9.485600 4.173900
-9.475300 4.193700
-9.464900 4.213600
-9.454500 4.233600
-9.444200 4.261700
-9.433800 4.291300
-9.423500 4.321700
-9.413100 4.344500
-9.402700 4.355000
-9.392400 4.365500
-9.382000 4.385900
-9.371700 4.413000
-9.361300 4.433900
-9.350900 4.438500
-9.340600 4.441800
-9.330200 4.455000
-9.319900 4.477300
-9.309500 4.500800
-9.299100 4.525200
-9.288800 4.551300
-9.278400 4.577300
-9.268100 4.603300
-9.257700 4.629300
-9.247300 4.657200
-9.237000 4.687000
-9.226600 4.717500
-9.216300 4.739000
-9.205900 4.767400
-9.195500 4.795700
-9.185200 4.824100
-9.174800 4.852500
-9.164500 4.874900
-9.154100 4.905200
-9.143700 4.935500
-9.133400 4.965800
-9.123000 4.996100
-9.112600 5.028800
-9.102300 5.062900
-9.091900 5.097300
-9.081600 5.147300
-9.071200 5.189200
-9.060800 5.252900
-9.050500 5.302900
-9.040100 5.352800
-9.029800 5.401600
-9.019400 5.449800
-9.009000 5.504400
-8.998700 5.565700
-8.988300 5.624200
-8.978000 5.680400
-8.967600 5.738300
-8.957200 5.812500
-8.946900 5.885400
-8.936500 5.956500
-8.926200 6.035700
-8.915800 6.115400
-8.905400 6.195000
-8.895100 6.274700
-8.884700 6.358900
-8.874400 6.443400
-8.864000 6.527800
-8.853600 6.612300
-8.843300 6.701000
-8.832900 6.793500
-8.822600 7.293200
-8.812200 7.769200
-8.801800 7.836900
-8.791500 7.983600
-8.781100 8.070400
-8.770800 8.165500
-8.760400 8.331100
-8.750000 9.991200
-8.739700 11.857400
-8.729300 12.203200
-8.719000 11.844000
-8.708600 12.016100
-8.698200 15.240900
-8.687900 15.095700
-8.677500 24.425900
-8.667200 11.669300
-8.656800 11.831500
-8.646400 12.021000
-8.636100 11.856300
-8.625700 12.817000
-8.615400 13.823400
-8.605000 14.968400
-8.594600 24.678200
-8.584300 16.677100
-8.573900 15.069300
-8.563600 14.889100
-8.553200 15.202100
-8.542800 17.080800
-8.532500 17.257300
-8.522100 18.489900
-8.511800 19.453500
-8.501400 25.515400
-8.491000 25.431400
-8.480700 23.339000
-8.470300 21.246300
-8.460000 28.466200
-8.449600 22.792200
-8.439200 21.995000
-8.428900 22.690700
-8.418500 18.382800
-8.408200 9.642900
-8.397800 7.847300
-8.387400 0.000000
-8.377100 0.000000
-8.366700 0.000000
-8.356400 0.000000
-8.346000 0.000000
-8.335600 0.000000
-8.325300 0.000000
-8.314900 0.000000
-8.304600 0.000000
-8.294200 0.000000
-8.283800 0.000000
-8.273500 0.000000
-8.263100 0.000000
-8.252800 0.000000
-8.242400 0.000000
-8.232000 0.000000
-8.221700 0.000000
-8.211300 0.000000
-8.201000 0.000000
-8.190600 0.000000
-8.180200 0.000000
-8.169900 0.000000
-8.159500 0.000000
-8.149200 0.000000
-8.138800 0.000000
-8.128400 0.000000
-8.118100 0.000000
-8.107700 0.000000
-8.097400 0.000000
-8.087000 0.000000
-8.076600 0.000000
-8.066300 0.000000
-8.055900 0.000000
-8.045500 0.000000
-8.035200 0.122900
-8.024800 0.487600
-8.014500 0.852300
-8.004100 1.217100
-7.993700 0.706100
-7.983400 0.737000
-7.973000 0.767900
-7.962700 0.798800
-7.952300 0.829700
-7.941900 0.860600
-7.931600 0.891500
-7.921200 0.915700
-7.910900 0.879200
-7.900500 0.842600
-7.890100 0.806000
-7.879800 0.787700
-7.869400 0.799000
-7.859100 0.810400
-7.848700 0.821800
-7.838300 0.833100
-7.828000 0.844500
-7.817600 0.855800
-7.807300 0.867200
-7.796900 0.878500
-7.786500 0.889900
-7.776200 0.901200
-7.765800 0.844800
-7.755500 0.843600
-7.745100 0.842500
-7.734700 0.841400
-7.724400 0.840300
-7.714000 0.839200
-7.703700 0.838100
-7.693300 0.837200
-7.682900 0.843700
-7.672600 0.850100
-7.662200 0.856500
-7.651900 0.862900
-7.641500 0.869300
-7.631100 0.875800
-7.620800 0.882200
-7.610400 0.888600
-7.600100 0.895000
-7.589700 0.901400
-7.579300 0.904800
-7.569000 0.893400
-7.558600 0.882000
-7.548300 0.870700
-7.537900 0.868800
-7.527500 0.871500
-7.517200 0.874200
-7.506800 0.876900
-7.496500 0.879600
-7.486100 0.882300
-7.475700 0.885000
-7.465400 0.887700
-7.455000 0.890400
-7.444700 0.893000
-7.434300 0.896400
-7.423900 0.901300
-7.413600 0.906200
-7.403200 0.911100
-7.392900 0.916100
-7.382500 0.921000
-7.372100 0.925900
-7.361800 0.930800
-7.351400 0.935700
-7.341100 0.940600
-7.330700 0.945600
-7.320300 0.930700
-7.310000 0.931300
-7.299600 0.932000
-7.289300 0.932700
-7.278900 0.933300
-7.268500 0.934000
-7.258200 0.936000
-7.247800 0.940500
-7.237500 0.945100
-7.227100 0.949600
-7.216700 0.954100
-7.206400 0.958700
-7.196000 0.963200
-7.185700 0.967800
-7.175300 0.972300
-7.164900 0.976800
-7.154600 0.981400
-7.144200 0.985900
-7.133900 0.990500
-7.123500 0.996800
-7.113100 1.003500
-7.102800 1.010200
-7.092400 1.016800
-7.082100 1.023500
-7.071700 1.030100
-7.061300 1.036800
-7.051000 1.043600
-7.040600 1.147700
-7.030200 2.331800
-7.019900 4.274300
-7.009500 6.317200
-6.999200 9.633100
-6.988800 5.538900
-6.978400 6.454500
-6.968100 7.370100
-6.957700 8.634400
-6.947400 10.206000
-6.937000 12.313400
-6.926600 11.677900
-6.916300 11.981700
-6.905900 10.535300
-6.895600 10.323600
-6.885200 10.241900
-6.874800 10.160800
-6.864500 10.079400
-6.854100 9.031600
-6.843800 7.752400
-6.833400 6.981300
-6.823000 6.767800
-6.812700 6.554700
-6.802300 6.342100
-6.792000 6.185500
-6.781600 6.050500
-6.771200 5.775100
-6.760900 5.493000
-6.750500 4.537100
-6.740200 4.650600
-6.729800 4.768200
-6.719400 5.136200
-6.709100 5.634600
-6.698700 6.256600
-6.688400 7.095600
-6.678000 7.681600
-6.667600 7.730800
-6.657300 8.422900
-6.646900 9.407300
-6.636600 9.971300
-6.626200 9.231300
-6.615800 8.740500
-6.605500 7.980000
-6.595100 7.352800
-6.584800 13.386300
-6.574400 5.498000
-6.564000 4.924700
-6.553700 4.904800
-6.543300 4.982800
-6.533000 5.262800
-6.522600 5.577100
-6.512200 5.888500
-6.501900 7.143700
-6.491500 7.964100
-6.481200 7.184400
-6.470800 7.183300
-6.460400 8.633000
-6.450100 19.522400
-6.439700 15.475300
-6.429400 9.589900
-6.419000 8.082600
-6.408600 7.223800
-6.398300 7.111900
-6.387900 7.000100
-6.377600 6.888400
-6.367200 6.782500
-6.356800 6.679100
-6.346500 6.577500
-6.336100 6.483300
-6.325800 6.392500
-6.315400 6.317900
-6.305000 6.250000
-6.294700 6.157300
-6.284300 6.086900
-6.274000 5.998100
-6.263600 5.896600
-6.253200 5.825600
-6.242900 5.770300
-6.232500 5.714500
-6.222200 5.660200
-6.211800 5.608800
-6.201400 5.560500
-6.191100 5.531300
-6.180700 5.576100
-6.170400 5.618300
-6.160000 5.629000
-6.149600 5.619200
-6.139300 5.641300
-6.128900 5.652600
-6.118600 5.396600
-6.108200 5.370100
-6.097800 5.363400
-6.087500 5.363400
-6.077100 5.419700
-6.066800 5.460700
-6.056400 5.494100
-6.046000 5.469100
-6.035700 5.418800
-6.025300 5.548100
-6.015000 5.711600
-6.004600 5.794500
-5.994200 5.908300
-5.983900 5.480900
-5.973500 4.946400
-5.963100 4.544800
-5.952800 4.214000
-5.942400 3.743800
-5.932100 3.590400
-5.921700 3.618400
-5.911300 3.276600
-5.901000 2.912100
-5.890600 2.573600
-5.880300 2.262300
-5.869900 1.885300
-5.859500 1.628700
-5.849200 1.593800
-5.838800 1.571400
-5.828500 1.550800
-5.818100 1.554000
-5.807700 1.557200
-5.797400 1.560400
-5.787000 1.563600
-5.776700 1.566800
-5.766300 1.570000
-5.755900 1.573200
-5.745600 1.576500
-5.735200 1.580500
-5.724900 1.584700
-5.714500 1.588900
-5.704100 1.593900
-5.693800 1.599100
-5.683400 1.604200
-5.673100 1.609300
-5.662700 1.614500
-5.652300 1.619600
-5.642000 1.624800
-5.631600 1.629900
-5.621300 1.635100
-5.610900 1.642800
-5.600500 1.653500
-5.590200 1.664200
-5.579800 1.675300
-5.569500 1.689000
-5.559100 1.699600
-5.548700 1.709000
-5.538400 2.004300
-5.528000 1.999400
-5.517700 1.993100
-5.507300 1.986800
-5.496900 1.980600
-5.486600 1.974300
-5.476200 1.968100
-5.465900 1.961800
-5.455500 1.955600
-5.445100 1.949300
-5.434800 1.943100
-5.424400 1.937100
-5.414100 1.978200
-5.403700 2.022300
-5.393300 2.066500
-5.383000 2.110600
-5.372600 2.155700
-5.362300 2.202500
-5.351900 2.249500
-5.341500 2.296400
-5.331200 2.345800
-5.320800 2.405900
-5.310500 2.463500
-5.300100 2.514600
-5.289700 2.556000
-5.279400 2.602600
-5.269000 2.487800
-5.258700 3.583400
-5.248300 3.195100
-5.237900 2.804800
-5.227600 3.011300
-5.217200 3.274600
-5.206900 3.537900
-5.196500 3.801200
-5.186100 4.064500
-5.175800 3.298800
-5.165400 3.214600
-5.155100 3.137000
-5.144700 3.065900
-5.134300 3.000700
-5.124000 2.931700
-5.113600 2.857000
-5.103300 2.789500
-5.092900 2.765300
-5.082500 2.740600
-5.072200 2.714000
-5.061800 2.684300
-5.051500 2.648900
-5.041100 2.607000
-5.030700 2.566400
-5.020400 2.587000
-5.010000 2.588700
-4.999700 2.559200
-4.989300 2.509100
-4.978900 2.416500
-4.968600 2.304900
-4.958200 2.172600
-4.947800 2.086900
-4.937500 2.030600
-4.927100 1.969100
-4.916800 1.902300
-4.906400 1.830400
-4.896000 1.744200
-4.885700 1.613100
-4.875300 1.501200
-4.865000 1.410000
-4.854600 1.339400
-4.844200 1.289500
-4.833900 1.263200
-4.823500 1.258300
-4.813200 1.256000
-4.802800 1.253700
-4.792400 1.251400
-4.782100 1.249100
-4.771700 1.246800
-4.761400 1.245500
-4.751000 1.259800
-4.740600 1.274100
-4.730300 1.278100
-4.719900 1.272100
-4.709600 1.266100
-4.699200 1.260000
-4.688800 1.254000
-4.678500 1.250000
-4.668100 1.247200
-4.657800 1.244500
-4.647400 1.241800
-4.637000 1.239100
-4.626700 1.236400
-4.616300 1.233700
-4.606000 1.231000
-4.595600 1.228200
-4.585200 1.225500
-4.574900 1.229800
-4.564500 1.240000
-4.554200 1.250200
-4.543800 1.260500
-4.533400 1.270700
-4.523100 1.323500
-4.512700 1.316600
-4.502400 1.309800
-4.492000 1.302900
-4.481600 1.296100
-4.471300 1.289200
-4.460900 1.282400
-4.450600 1.277800
-4.440200 1.278900
-4.429800 1.280000
-4.419500 1.281100
-4.409100 1.282200
-4.398800 1.283300
-4.388400 1.284400
-4.378000 1.290200
-4.367700 1.340700
-4.357300 1.391100
-4.347000 1.395200
-4.336600 1.382200
-4.326200 1.369300
-4.315900 1.356400
-4.305500 1.343500
-4.295200 1.330500
-4.284800 1.317600
-4.274400 1.323300
-4.264100 1.332000
-4.253700 1.340700
-4.243400 1.349400
-4.233000 1.457500
-4.222600 1.428300
-4.212300 1.399100
-4.201900 1.369900
-4.191600 1.340700
-4.181200 1.311400
-4.170800 1.282200
-4.160500 1.303600
-4.150100 1.380000
-4.139800 1.432300
-4.129400 1.354600
-4.119000 1.277000
-4.108700 1.199300
-4.098300 1.121700
-4.088000 1.757800
-4.077600 0.946700
-4.067200 0.137500
-4.056900 0.000000
-4.046500 0.000000
-4.036200 0.000000
-4.025800 0.000000
-4.015400 0.000000
-4.005100 0.000000
-3.994700 0.000000
-3.984400 0.000000
-3.974000 0.000000
-3.963600 0.000000
-3.953300 0.000000
-3.942900 0.000000
-3.932600 0.000000
-3.922200 0.000000
-3.911800 0.000000
-3.901500 0.000000
-3.891100 0.000000
-3.880700 0.000000
-3.870400 0.000000
-3.860000 0.000000
-3.849700 0.000000
-3.839300 0.000000
-3.828900 0.000000
-3.818600 0.000000
-3.808200 0.000000
-3.797900 0.000000
-3.787500 0.000000
-3.777100 0.000000
-3.766800 0.000000
-3.756400 0.000000
-3.746100 0.000000
-3.735700 0.000000
-3.725300 0.000000
-3.715000 0.000000
-3.704600 0.000000
-3.694300 0.000000
-3.683900 0.000000
-3.673500 0.000000
-3.663200 0.000000
-3.652800 0.000000
-3.642500 0.000000
-3.632100 0.000000
-3.621700 0.000000
-3.611400 0.000000
-3.601000 0.000000
-3.590700 0.000000
-3.580300 0.000000
-3.569900 0.000000
-3.559600 0.000000
-3.549200 0.000000
-3.538900 0.000000
-3.528500 0.000000
-3.518100 0.000000
-3.507800 0.000000
-3.497400 0.000000
-3.487100 0.000000
-3.476700 0.000000
-3.466300 0.000000
-3.456000 0.000000
-3.445600 0.000000
-3.435300 0.000000
-3.424900 0.000000
-3.414500 0.000000
-3.404200 0.000000
-3.393800 0.000000
-3.383500 0.000000
-3.373100 0.000000
-3.362700 0.000000
-3.352400 0.000000
-3.342000 0.000000
-3.331700 0.000000
-3.321300 0.000000
-3.310900 0.000000
-3.300600 0.000000
-3.290200 0.000000
-3.279900 0.000000
-3.269500 0.000000
-3.259100 0.000000
-3.248800 0.000000
-3.238400 0.000000
-3.228100 0.000000
-3.217700 0.000000
-3.207300 0.000000
-3.197000 0.000000
-3.186600 0.000000
-3.176300 0.000000
-3.165900 0.000000
-3.155500 0.000000
-3.145200 0.000000
-3.134800 0.000000
-3.124500 0.000000
-3.114100 0.000000
-3.103700 0.000000
-3.093400 0.000000
-3.083000 0.000000
-3.072700 0.000000
-3.062300 0.000000
-3.051900 0.000000
-3.041600 0.000000
-3.031200 0.000000
-3.020900 0.000000
-3.010500 0.000000
-3.000100 0.000000
-2.989800 0.000000
-2.979400 0.000000
-2.969100 0.000000
-2.958700 0.000000
-2.948300 0.000000
-2.938000 0.000000
-2.927600 0.000000
-2.917300 0.000000
-2.906900 0.000000
-2.896500 0.000000
-2.886200 0.000000
-2.875800 0.000000
-2.865400 0.000000
-2.855100 0.000000
-2.844700 0.000000
-2.834400 0.000000
-2.824000 0.000000
-2.813600 0.000000
-2.803300 0.000000
-2.792900 0.000000
-2.782600 0.000000
-2.772200 0.000000
-2.761800 0.000000
-2.751500 0.000000
-2.741100 0.000000
-2.730800 0.000000
-2.720400 0.000000
-2.710000 0.000000
-2.699700 0.000000
-2.689300 0.000000
-2.679000 0.000000
-2.668600 0.000000
-2.658200 0.000000
-2.647900 0.000000
-2.637500 0.000000
-2.627200 0.000000
-2.616800 0.000000
-2.606400 0.000000
-2.596100 0.000000
-2.585700 0.000000
-2.575400 0.000000
-2.565000 0.000000
-2.554600 0.000000
-2.544300 0.000000
-2.533900 0.000000
-2.523600 0.000000
-2.513200 0.000000
-2.502800 0.000000
-2.492500 0.000000
-2.482100 0.000000
-2.471800 0.000000
-2.461400 0.000000
-2.451000 0.000000
-2.440700 0.000000
-2.430300 0.000000
-2.420000 0.000000
-2.409600 0.000000
-2.399200 0.000000
-2.388900 0.000000
-2.378500 0.000000
-2.368200 0.000000
-2.357800 0.000000
-2.347400 0.000000
-2.337100 0.000000
-2.326700 0.000000
-2.316400 0.000000
-2.306000 0.000000
-2.295600 0.000000
-2.285300 0.000000
-2.274900 0.000000
-2.264600 0.000000
-2.254200 0.000000
-2.243800 0.000000
-2.233500 0.000000
-2.223100 0.000000
-2.212800 0.000000
-2.202400 0.000000
-2.192000 0.000000
-2.181700 0.000000
-2.171300 0.000000
-2.161000 0.000000
-2.150600 0.000000
-2.140200 0.000000
-2.129900 0.000000
-2.119500 0.000000
-2.109200 0.000000
-2.098800 0.000000
-2.088400 0.000000
-2.078100 0.000000
-2.067700 0.000000
-2.057400 0.000000
-2.047000 0.000000
-2.036600 0.000000
-2.026300 0.000000
-2.015900 0.000000
-2.005600 0.000000
-1.995200 0.000000
-1.984800 0.000000
-1.974500 0.000000
-1.964100 0.000000
-1.953800 0.000000
-1.943400 0.000000
-1.933000 0.000000
-1.922700 0.000000
-1.912300 0.000000
-1.902000 0.000000
-1.891600 0.000000
-1.881200 0.000000
-1.870900 0.000000
-1.860500 0.000000
-1.850200 0.000000
-1.839800 0.000000
-1.829400 0.000000
-1.819100 0.000000
-1.808700 0.000000
-1.798300 0.000000
-1.788000 0.000000
-1.777600 0.000000
-1.767300 0.000000
-1.756900 0.000000
-1.746500 0.000000
-1.736200 0.000000
-1.725800 0.000000
-1.715500 0.000000
-1.705100 0.000000
-1.694700 0.000000
-1.684400 0.000000
-1.674000 0.000000
-1.663700 0.000000
-1.653300 0.000000
-1.642900 0.000000
-1.632600 0.000000
-1.622200 0.000000
-1.611900 0.000000
-1.601500 0.000000
-1.591100 0.000000
-1.580800 0.000000
-1.570400 0.000000
-1.560100 0.000000
-1.549700 0.000000
-1.539300 0.000000
-1.529000 0.000000
-1.518600 0.000000
-1.508300 0.000000
-1.497900 0.000000
-1.487500 0.000000
-1.477200 0.000000
-1.466800 0.000000
-1.456500 0.000000
-1.446100 0.000000
-1.435700 0.000000
-1.425400 0.000000
-1.415000 0.000000
-1.404700 0.000000
-1.394300 0.000000
-1.383900 0.000000
-1.373600 0.000000
-1.363200 0.000000
-1.352900 0.000000
-1.342500 0.000000
-1.332100 0.000000
-1.321800 0.000000
-1.311400 0.000000
-1.301100 0.000000
-1.290700 0.000000
-1.280300 0.000000
-1.270000 0.000000
-1.259600 0.000000
-1.249300 2.661400
-1.238900 1.779600
-1.228500 1.658100
-1.218200 1.792400
-1.207800 1.930200
-1.197500 2.071500
-1.187100 4.667300
-1.176700 3.973800
-1.166400 3.888700
-1.156000 3.844900
-1.145700 3.854700
-1.135300 3.986800
-1.124900 4.124500
-1.114600 4.250900
-1.104200 4.176000
-1.093900 4.054700
-1.083500 4.023100
-1.073100 4.049600
-1.062800 4.079200
-1.052400 4.132200
-1.042100 4.223800
-1.031700 4.334800
-1.021300 4.446300
-1.011000 4.518300
-1.000600 4.547600
-0.990300 4.592600
-0.979900 4.657000
-0.969500 4.723400
-0.959200 4.801700
-0.948800 4.847200
-0.938500 4.853600
-0.928100 4.846000
-0.917700 7.947500
-0.907400 5.580700
-0.897000 5.633200
-0.886700 7.377600
-0.876300 4.373300
-0.865900 4.194800
-0.855600 4.083200
-0.845200 3.971900
-0.834900 3.862300
-0.824500 3.755100
-0.814100 3.648000
-0.803800 3.541200
-0.793400 3.434500
-0.783100 5.518600
-0.772700 2.906800
-0.762300 2.827900
-0.752000 2.750300
-0.741600 2.737300
-0.731200 3.266300
-0.720900 3.761000
-0.710500 2.257000
-0.700200 2.230000
-0.689800 2.237100
-0.679400 2.289900
-0.669100 2.349100
-0.658700 2.406900
-0.648400 2.464900
-0.638000 2.532000
-0.627600 2.639100
-0.617300 2.790000
-0.606900 2.958100
-0.596600 3.126800
-0.586200 3.296000
-0.575800 3.465600
