set title 'mp-1179643 - Density of States'
set xlabel 'Energy (eV)'
set ylabel 'DOS (states/eV)'
set grid
set xrange [-10:10]
set yrange [0:12.248]
set xzeroaxis lt -1
set terminal png size 800,600
set output 'mp-1179643_dos_gnuplot.png'
plot '-' using 1:2 with lines title 'DOS'
-18.214100 0.000000
-18.193900 0.000000
-18.173800 0.000000
-18.153700 0.000000
-18.133500 0.000000
-18.113400 0.000000
-18.093300 0.000000
-18.073200 0.000000
-18.053000 0.000000
-18.032900 0.000000
-18.012800 0.000000
-17.992700 0.000000
-17.972500 0.000000
-17.952400 0.000000
-17.932300 0.000000
-17.912200 0.000000
-17.892000 0.000000
-17.871900 0.000000
-17.851800 0.000000
-17.831600 0.000000
-17.811500 0.000000
-17.791400 0.000000
-17.771300 0.000000
-17.751100 0.000000
-17.731000 0.000000
-17.710900 0.000000
-17.690800 0.000000
-17.670600 0.000000
-17.650500 0.000000
-17.630400 0.000000
-17.610300 0.000000
-17.590100 0.000000
-17.570000 0.000000
-17.549900 0.000000
-17.529700 0.000000
-17.509600 0.000000
-17.489500 0.000000
-17.469400 0.000000
-17.449200 0.000000
-17.429100 0.000000
-17.409000 0.000000
-17.388900 0.000000
-17.368700 0.000000
-17.348600 0.000000
-17.328500 0.000000
-17.308400 0.000000
-17.288200 0.000000
-17.268100 0.000000
-17.248000 0.000000
-17.227800 0.000000
-17.207700 0.000000
-17.187600 0.000000
-17.167500 0.000000
-17.147300 0.000000
-17.127200 0.000000
-17.107100 0.000000
-17.087000 0.000000
-17.066800 0.000000
-17.046700 0.000000
-17.026600 0.000000
-17.006500 0.000000
-16.986300 0.000000
-16.966200 0.000000
-16.946100 0.000000
-16.925900 0.000000
-16.905800 0.000000
-16.885700 0.000000
-16.865600 0.000000
-16.845400 0.000000
-16.825300 0.000000
-16.805200 0.000000
-16.785100 0.000000
-16.764900 0.000000
-16.744800 0.000000
-16.724700 0.000000
-16.704600 0.000000
-16.684400 0.000000
-16.664300 0.000000
-16.644200 0.000000
-16.624000 0.000000
-16.603900 0.000000
-16.583800 0.000000
-16.563700 0.000000
-16.543500 0.000000
-16.523400 0.000000
-16.503300 0.000000
-16.483200 0.000000
-16.463000 0.000000
-16.442900 0.000000
-16.422800 0.000000
-16.402700 0.000000
-16.382500 0.107100
-16.362400 3.658200
-16.342300 11.026500
-16.322100 10.534000
-16.302000 7.906700
-16.281900 3.682500
-16.261800 3.682500
-16.241600 3.682500
-16.221500 3.682500
-16.201400 3.682500
-16.181300 3.682500
-16.161100 3.682300
-16.141000 3.233800
-16.120900 2.262900
-16.100800 2.217500
-16.080600 2.217500
-16.060500 2.217500
-16.040400 2.217500
-16.020200 2.217500
-16.000100 2.217500
-15.980000 2.217500
-15.959900 2.217500
-15.939700 2.217500
-15.919600 2.217500
-15.899500 2.217500
-15.879400 2.190200
-15.859200 1.979300
-15.839100 1.593000
-15.819000 1.593000
-15.798900 1.593000
-15.778700 1.593000
-15.758600 1.593000
-15.738500 1.593000
-15.718300 1.593000
-15.698200 1.593000
-15.678100 1.593000
-15.658000 1.593000
-15.637800 1.593000
-15.617700 1.593000
-15.597600 1.593000
-15.577500 1.593000
-15.557300 1.593000
-15.537200 1.593000
-15.517100 1.593000
-15.497000 1.593000
-15.476800 1.485000
-15.456700 1.257200
-15.436600 1.249300
-15.416400 1.249300
-15.396300 1.249300
-15.376200 1.249300
-15.356100 1.249300
-15.335900 1.249300
-15.315800 1.249300
-15.295700 1.249300
-15.275600 1.249300
-15.255400 1.249300
-15.235300 1.249300
-15.215200 1.249300
-15.195100 1.249300
-15.174900 1.249300
-15.154800 1.249300
-15.134700 1.249300
-15.114500 1.249300
-15.094400 1.249300
-15.074300 1.249300
-15.054200 1.249300
-15.034000 1.249300
-15.013900 1.249300
-14.993800 1.220900
-14.973700 1.116300
-14.953500 1.034100
-14.933400 1.034100
-14.913300 1.034100
-14.893200 1.034100
-14.873000 1.034100
-14.852900 1.034100
-14.832800 1.034100
-14.812600 1.034100
-14.792500 1.034100
-14.772400 1.034100
-14.752300 1.034100
-14.732100 1.034100
-14.712000 1.034100
-14.691900 1.034100
-14.671800 1.034100
-14.651600 1.034100
-14.631500 1.034100
-14.611400 1.034100
-14.591300 1.034100
-14.571100 1.034100
-14.551000 1.034100
-14.530900 1.034100
-14.510700 1.034100
-14.490600 1.034100
-14.470500 1.034100
-14.450400 1.034100
-14.430200 1.034100
-14.410100 1.034100
-14.390000 6.718900
-14.369900 10.292800
-14.349700 0.000000
-14.329600 0.000000
-14.309500 0.000000
-14.289400 0.000000
-14.269200 0.000000
-14.249100 0.000000
-14.229000 0.000000
-14.208800 0.000000
-14.188700 0.000000
-14.168600 0.000000
-14.148500 0.000000
-14.128300 0.000000
-14.108200 0.000000
-14.088100 0.000000
-14.068000 0.000000
-14.047800 0.000000
-14.027700 0.000000
-14.007600 0.000000
-13.987500 0.000000
-13.967300 0.000000
-13.947200 0.000000
-13.927100 0.000000
-13.906900 0.000000
-13.886800 0.000000
-13.866700 0.000000
-13.846600 0.000000
-13.826400 0.000000
-13.806300 0.000000
-13.786200 0.000000
-13.766100 0.000000
-13.745900 0.000000
-13.725800 0.000000
-13.705700 5.132000
-13.685600 16.178700
-13.665400 0.788400
-13.645300 0.788400
-13.625200 0.788400
-13.605000 0.788400
-13.584900 0.788400
-13.564800 0.788400
-13.544700 0.788400
-13.524500 0.788400
-13.504400 0.788400
-13.484300 0.788400
-13.464200 0.788400
-13.444000 0.788400
-13.423900 0.788400
-13.403800 0.788400
-13.383700 0.788400
-13.363500 0.788400
-13.343400 0.788400
-13.323300 0.788400
-13.303100 0.788400
-13.283000 0.788400
-13.262900 0.788400
-13.242800 0.788400
-13.222600 0.788400
-13.202500 0.788400
-13.182400 0.788400
-13.162300 0.788400
-13.142100 0.788400
-13.122000 0.788400
-13.101900 0.788400
-13.081800 0.788400
-13.061600 0.788400
-13.041500 0.788400
-13.021400 0.788400
-13.001200 0.788400
-12.981100 0.788400
-12.961000 0.788400
-12.940900 0.788400
-12.920700 0.773100
-12.900600 0.732100
-12.880500 0.719800
-12.860400 0.719800
-12.840200 0.719800
-12.820100 0.719800
-12.800000 0.719800
-12.779900 0.719800
-12.759700 0.719800
-12.739600 0.719800
-12.719500 0.719800
-12.699300 0.719800
-12.679200 0.719800
-12.659100 0.719800
-12.639000 0.719800
-12.618800 0.719800
-12.598700 0.719800
-12.578600 0.719800
-12.558500 0.719800
-12.538300 0.719800
-12.518200 0.719800
-12.498100 0.719800
-12.478000 0.719800
-12.457800 0.719800
-12.437700 0.719800
-12.417600 0.719800
-12.397400 0.719800
-12.377300 0.719800
-12.357200 0.719800
-12.337100 0.719800
-12.316900 0.719800
-12.296800 0.719800
-12.276700 0.719800
-12.256600 0.719800
-12.236400 0.719800
-12.216300 0.719800
-12.196200 0.719800
-12.176100 0.719800
-12.155900 0.719800
-12.135800 0.719800
-12.115700 0.719800
-12.095500 0.719800
-12.075400 0.718000
-12.055300 0.700100
-12.035200 0.680600
-12.015000 0.680400
-11.994900 0.680400
-11.974800 0.680400
-11.954700 0.680400
-11.934500 0.680400
-11.914400 0.680400
-11.894300 0.680400
-11.874200 0.680400
-11.854000 0.680400
-11.833900 0.680400
-11.813800 0.680400
-11.793600 0.680400
-11.773500 0.680400
-11.753400 0.680400
-11.733300 0.680400
-11.713100 0.680400
-11.693000 0.680400
-11.672900 0.680400
-11.652800 0.680400
-11.632600 0.680400
-11.612500 0.680400
-11.592400 0.680400
-11.572300 0.680400
-11.552100 0.680400
-11.532000 0.680400
-11.511900 0.680400
-11.491700 0.680400
-11.471600 0.680400
-11.451500 0.680400
-11.431400 0.680400
-11.411200 0.680400
-11.391100 0.680400
-11.371000 0.680400
-11.350900 0.680400
-11.330700 0.680400
-11.310600 0.680400
-11.290500 0.680400
-11.270400 0.680400
-11.250200 0.680400
-11.230100 0.680400
-11.210000 0.680400
-11.189800 0.680400
-11.169700 0.680300
-11.149600 0.680700
-11.129500 0.680200
-11.109300 0.680000
-11.089200 0.680000
-11.069100 0.680000
-11.049000 0.680000
-11.028800 0.680000
-11.008700 0.680000
-10.988600 0.680000
-10.968500 0.680000
-10.948300 0.680000
-10.928200 0.680000
-10.908100 0.680000
-10.887900 0.680000
-10.867800 0.680000
-10.847700 0.680000
-10.827600 0.680000
-10.807400 0.680000
-10.787300 0.680000
-10.767200 0.680000
-10.747100 0.680000
-10.726900 0.680000
-10.706800 0.680000
-10.686700 0.680000
-10.666600 0.680000
-10.646400 0.680000
-10.626300 0.680000
-10.606200 0.680000
-10.586000 0.680000
-10.565900 0.680000
-10.545800 0.680000
-10.525700 0.680000
-10.505500 0.680000
-10.485400 0.680000
-10.465300 0.680000
-10.445200 0.680000
-10.425000 0.680000
-10.404900 0.680000
-10.384800 0.680000
-10.364600 0.680000
-10.344500 0.680000
-10.324400 0.680000
-10.304300 0.680000
-10.284100 0.680000
-10.264000 0.690100
-10.243900 0.746800
-10.223800 0.767500
-10.203600 0.778800
-10.183500 0.778800
-10.163400 0.778800
-10.143300 0.778800
-10.123100 0.778800
-10.103000 0.778800
-10.082900 0.778800
-10.062700 0.778800
-10.042600 0.778800
-10.022500 0.778800
-10.002400 0.778800
-9.982200 0.778800
-9.962100 0.778800
-9.942000 0.778800
-9.921900 0.778800
-9.901700 0.778800
-9.881600 0.778800
-9.861500 0.778800
-9.841400 0.778800
-9.821200 0.778800
-9.801100 0.778800
-9.781000 0.778800
-9.760800 0.778800
-9.740700 0.778800
-9.720600 0.778800
-9.700500 0.778800
-9.680300 0.778800
-9.660200 0.778800
-9.640100 0.778800
-9.620000 0.778800
-9.599800 0.778800
-9.579700 0.778800
-9.559600 0.778800
-9.539500 0.778800
-9.519300 0.778800
-9.499200 0.778800
-9.479100 0.967500
-9.458900 1.302300
-9.438800 1.460800
-9.418700 1.567200
-9.398600 1.658100
-9.378400 1.666300
-9.358300 1.666200
-9.338200 1.666200
-9.318100 1.666100
-9.297900 1.666000
-9.277800 1.665900
-9.257700 1.665800
-9.237600 1.665800
-9.217400 1.665700
-9.197300 1.665600
-9.177200 1.665500
-9.157000 1.665400
-9.136900 1.665400
-9.116800 1.260700
-9.096700 0.848500
-9.076500 0.528900
-9.056400 0.341500
-9.036300 0.195300
-9.016200 0.061600
-8.996000 0.000000
-8.975900 0.000000
-8.955800 0.000000
-8.935700 0.000000
-8.915500 0.000000
-8.895400 0.000000
-8.875300 0.000000
-8.855100 0.000000
-8.835000 0.000000
-8.814900 0.000000
-8.794800 0.000000
-8.774600 0.000000
-8.754500 0.000000
-8.734400 0.000000
-8.714300 0.000000
-8.694100 0.000000
-8.674000 0.000000
-8.653900 0.000000
-8.633800 0.000000
-8.613600 0.000000
-8.593500 0.000000
-8.573400 0.000000
-8.553200 0.000000
-8.533100 0.000000
-8.513000 0.000000
-8.492900 0.000000
-8.472700 0.000000
-8.452600 0.000000
-8.432500 0.000000
-8.412400 0.000000
-8.392200 0.000000
-8.372100 0.000000
-8.352000 0.000000
-8.331900 0.000000
-8.311700 0.000000
-8.291600 0.000000
-8.271500 0.000000
-8.251300 0.000000
-8.231200 0.000000
-8.211100 0.000000
-8.191000 0.000000
-8.170800 0.000000
-8.150700 0.000000
-8.130600 0.000000
-8.110500 0.000000
-8.090300 0.000000
-8.070200 0.000000
-8.050100 0.000000
-8.030000 0.000000
-8.009800 0.000000
-7.989700 0.000000
-7.969600 0.000000
-7.949400 0.000000
-7.929300 0.000000
-7.909200 0.000000
-7.889100 0.000000
-7.868900 0.000000
-7.848800 0.000000
-7.828700 0.000000
-7.808600 0.000000
-7.788400 0.000000
-7.768300 0.000000
-7.748200 0.000000
-7.728100 0.000000
-7.707900 0.000000
-7.687800 0.000000
-7.667700 0.000000
-7.647500 0.000000
-7.627400 0.000000
-7.607300 0.000000
-7.587200 0.000000
-7.567000 0.000000
-7.546900 0.000000
-7.526800 0.000000
-7.506700 0.000000
-7.486500 0.000000
-7.466400 0.000000
-7.446300 0.000000
-7.426200 0.000000
-7.406000 0.000000
-7.385900 0.000000
-7.365800 0.000000
-7.345600 0.000000
-7.325500 0.000000
-7.305400 0.000000
-7.285300 0.000000
-7.265100 0.000000
-7.245000 0.000000
-7.224900 0.000000
-7.204800 0.000000
-7.184600 0.000000
-7.164500 0.000000
-7.144400 1.972900
-7.124300 2.857700
-7.104100 2.857400
-7.084000 2.857100
-7.063900 2.856900
-7.043700 2.856600
-7.023600 2.856300
-7.003500 2.856100
-6.983400 2.855800
-6.963200 2.855500
-6.943100 2.391800
-6.923000 1.872600
-6.902900 1.642900
-6.882700 1.552600
-6.862600 1.552500
-6.842500 1.552300
-6.822400 1.552200
-6.802200 1.552100
-6.782100 1.552000
-6.762000 1.551800
-6.741800 1.551700
-6.721700 1.551600
-6.701600 1.551500
-6.681500 1.551300
-6.661300 1.551200
-6.641200 1.551100
-6.621100 1.551000
-6.601000 1.550800
-6.580800 1.542900
-6.560700 1.518800
-6.540600 1.506600
-6.520500 1.497500
-6.500300 1.491900
-6.480200 1.489600
-6.460100 1.488000
-6.439900 1.487600
-6.419800 1.487500
-6.399700 1.487400
-6.379600 1.487300
-6.359400 1.487100
-6.339300 1.487000
-6.319200 1.486900
-6.299100 1.486800
-6.278900 1.486600
-6.258800 1.486500
-6.238700 1.486400
-6.218600 1.486300
-6.198400 1.486100
-6.178300 1.470400
-6.158200 1.452700
-6.138000 1.442100
-6.117900 1.434100
-6.097800 1.425900
-6.077700 1.419800
-6.057500 1.416400
-6.037400 1.413800
-6.017300 1.411800
-5.997200 1.411000
-5.977000 1.411000
-5.956900 1.410900
-5.936800 1.410900
-5.916700 1.410800
-5.896500 1.410700
-5.876400 1.410700
-5.856300 1.410600
-5.836100 1.410500
-5.816000 1.410500
-5.795900 1.410400
-5.775800 1.410400
-5.755600 1.397200
-5.735500 1.370400
-5.715400 1.355400
-5.695300 1.342300
-5.675100 1.330700
-5.655000 1.316600
-5.634900 1.305800
-5.614800 1.298600
-5.594600 1.292700
-5.574500 1.287000
-5.554400 1.282900
-5.534200 1.282800
-5.514100 1.282800
-5.494000 1.282800
-5.473900 1.282800
-5.453700 1.282800
-5.433600 1.282800
-5.413500 1.282800
-5.393400 1.282800
-5.373200 1.282800
-5.353100 1.282800
-5.333000 1.282700
-5.312900 1.282700
-5.292700 1.282700
-5.272600 1.264500
-5.252500 1.243000
-5.232300 1.229500
-5.212200 1.217500
-5.192100 1.206300
-5.172000 1.192200
-5.151800 1.182000
-5.131700 1.175300
-5.111600 1.169000
-5.091500 1.163100
-5.071300 1.158700
-5.051200 1.158600
-5.031100 1.158600
-5.011000 1.158700
-4.990800 1.158700
-4.970700 1.158700
-4.950600 1.158700
-4.930400 1.158700
-4.910300 1.158700
-4.890200 1.158800
-4.870100 1.158800
-4.849900 1.158800
-4.829800 1.158800
-4.809700 1.158800
-4.789600 1.181800
-4.769400 1.441300
-4.749300 1.774100
-4.729200 5.677700
-4.709100 3.419600
-4.688900 3.302700
-4.668800 3.291700
-4.648700 3.715600
-4.628500 3.211700
-4.608400 2.658900
-4.588300 3.160900
-4.568200 3.125800
-4.548000 2.973300
-4.527900 2.779300
-4.507800 2.799400
-4.487700 2.753400
-4.467500 3.150100
-4.447400 3.739200
-4.427300 3.810600
-4.407200 3.628500
-4.387000 3.544800
-4.366900 3.541600
-4.346800 3.521300
-4.326600 3.496600
-4.306500 3.472600
-4.286400 3.482800
-4.266300 3.493700
-4.246100 3.370700
-4.226000 3.124400
-4.205900 2.829900
-4.185800 2.634200
-4.165600 2.553600
-4.145500 6.268900
-4.125400 4.839500
-4.105300 4.778500
-4.085100 5.273100
-4.065000 4.452400
-4.044900 3.752500
-4.024700 4.112400
-4.004600 3.824900
-3.984500 3.543300
-3.964400 3.010100
-3.944200 2.974500
-3.924100 2.944100
-3.904000 2.916000
-3.883900 2.892700
-3.863700 2.873900
-3.843600 2.857100
-3.823500 2.846600
-3.803400 2.843900
-3.783200 2.856300
-3.763100 2.879700
-3.743000 2.926100
-3.722800 2.968700
-3.702700 3.024000
-3.682600 3.081600
-3.662500 3.268200
-3.642300 3.463600
-3.622200 3.586600
-3.602100 3.730700
-3.582000 3.900800
-3.561800 4.123500
-3.541700 4.322000
-3.521600 3.508500
-3.501500 3.461500
-3.481300 1.138100
-3.461200 0.179200
-3.441100 0.000000
-3.420900 0.034900
-3.400800 0.173000
-3.380700 0.377900
-3.360600 0.511700
-3.340400 0.648400
-3.320300 0.805100
-3.300200 0.993100
-3.280100 1.168100
-3.259900 1.323200
-3.239800 1.359100
-3.219700 1.651900
-3.199600 1.844100
-3.179400 2.016600
-3.159300 2.170900
-3.139200 2.310000
-3.119000 2.436900
-3.098900 2.555300
-3.078800 2.668400
-3.058700 2.781400
-3.038500 2.892400
-3.018400 3.021100
-2.998300 3.376000
-2.978200 3.404300
-2.958000 3.345000
-2.937900 3.309500
-2.917800 3.319100
-2.897700 3.319400
-2.877500 3.193400
-2.857400 3.076000
-2.837300 2.908700
-2.817100 2.880800
-2.797000 2.523500
-2.776900 2.297000
-2.756800 2.161400
-2.736600 2.319700
-2.716500 2.698300
-2.696400 2.429900
-2.676300 2.277800
-2.656100 2.256700
-2.636000 2.486200
-2.615900 2.570100
-2.595800 2.653100
-2.575600 2.714600
-2.555500 2.862200
-2.535400 2.957800
-2.515200 2.946900
-2.495100 2.974600
-2.475000 3.098100
-2.454900 3.194600
-2.434700 3.224100
-2.414600 3.425000
-2.394500 3.625200
-2.374400 3.651400
-2.354200 3.595200
-2.334100 3.509200
-2.314000 3.521400
-2.293900 3.596300
-2.273700 3.679100
-2.253600 3.853500
-2.233500 4.037000
-2.213300 4.029800
-2.193200 4.055300
-2.173100 4.546000
-2.153000 3.454100
-2.132800 4.579300
-2.112700 4.490000
-2.092600 4.838400
-2.072500 4.403600
-2.052300 4.388100
-2.032200 4.322300
-2.012100 4.204700
-1.992000 4.047100
-1.971800 3.947900
-1.951700 3.750300
-1.931600 3.467400
-1.911400 2.903700
-1.891300 2.528900
-1.871200 2.317300
-1.851100 2.118200
-1.830900 1.950800
-1.810800 1.806200
-1.790700 1.745300
-1.770600 1.736800
-1.750400 1.675400
-1.730300 1.740200
-1.710200 1.864200
-1.690100 1.996500
-1.669900 2.164500
-1.649800 2.523300
-1.629700 2.916800
-1.609500 3.219100
-1.589400 3.397700
-1.569300 3.501900
-1.549200 3.589200
-1.529000 4.083200
-1.508900 5.362800
-1.488800 6.525700
-1.468700 7.353000
-1.448500 6.461100
-1.428400 5.695200
-1.408300 4.501900
-1.388200 3.919200
-1.368000 3.621600
-1.347900 3.426400
-1.327800 3.206800
-1.307600 2.977900
-1.287500 2.726800
-1.267400 2.443500
-1.247300 1.914000
-1.227100 1.603500
-1.207000 1.544500
-1.186900 1.544500
-1.166800 1.544500
-1.146600 1.544700
-1.126500 1.546700
-1.106400 1.548800
-1.086300 1.551000
-1.066100 1.553300
-1.046000 1.555900
-1.025900 1.558800
-1.005700 1.562000
-0.985600 1.566000
-0.965500 1.570600
-0.945400 1.577400
-0.925200 1.582700
-0.905100 1.584000
-0.885000 1.591100
-0.864900 1.606000
-0.844700 1.617000
-0.824600 1.627300
-0.804500 1.637600
-0.784400 1.648600
-0.764200 1.660700
-0.744100 1.672200
-0.724000 1.684200
-0.703800 1.697900
-0.683700 1.711900
-0.663600 1.721800
-0.643500 1.722000
-0.623300 1.722300
-0.603200 1.722500
-0.583100 1.722700
-0.563000 1.722900
-0.542800 1.700500
-0.522700 1.644700
-0.502600 1.587000
-0.482500 1.530400
-0.462300 1.468200
-0.442200 1.398800
-0.422100 1.324200
-0.401900 1.236300
-0.381800 1.130800
-0.361700 0.952200
-0.341600 0.794600
-0.321400 0.820500
-0.301300 0.865700
-0.281200 0.925800
-0.261100 0.993000
-0.240900 1.302300
-0.220800 1.621800
-0.200700 1.710200
-0.180600 1.780800
-0.160400 1.840500
-0.140300 1.891900
-0.120200 1.941000
-0.100000 1.986900
-0.079900 2.031200
-0.059800 2.053000
-0.039700 2.013600
-0.019500 1.985700
0.000600 1.975600
0.020700 1.969600
0.040800 1.968100
0.061000 1.977500
0.081100 1.999200
0.101200 2.045800
0.121300 2.093200
0.141500 2.111800
0.161600 2.134400
0.181700 2.159600
0.201900 2.194300
0.222000 2.217700
0.242100 2.242900
0.262200 2.338600
0.282400 2.508700
0.302500 2.668300
0.322600 2.831600
0.342700 3.014000
0.362900 3.168200
0.383000 3.206600
0.403100 3.399200
0.423300 3.457900
0.443400 3.383200
0.463500 3.258200
0.483600 3.043800
0.503800 2.613300
0.523900 2.281300
0.544000 2.149300
0.564100 2.039800
0.584300 1.947700
0.604400 1.810600
0.624500 1.715500
0.644600 1.659300
0.664800 1.588000
0.684900 1.492200
0.705000 1.400700
0.725200 1.320400
0.745300 1.243200
0.765400 1.173700
0.785500 1.118000
0.805700 1.041500
0.825800 0.932300
0.845900 0.827200
0.866000 0.732900
0.886200 0.640200
0.906300 0.536700
0.926400 0.470700
0.946500 0.462800
0.966700 0.462800
0.986800 0.462800
1.006900 0.462800
1.027100 0.462800
1.047200 0.462500
1.067300 0.450600
1.087400 0.443600
1.107600 0.436600
1.127700 0.428400
1.147800 0.426800
1.167900 0.426800
1.188100 0.426800
1.208200 0.426800
1.228300 0.426800
1.248400 0.426800
1.268600 0.426800
1.288700 0.426800
1.308800 0.426800
1.329000 0.426800
1.349100 0.426800
1.369200 0.426800
1.389300 0.426800
1.409500 0.426800
1.429600 0.426800
1.449700 0.426800
1.469800 0.426800
1.490000 0.426800
1.510100 0.426800
1.530200 0.426800
1.550300 0.426800
1.570500 0.426800
1.590600 0.426800
1.610700 0.426800
1.630900 0.426800
1.651000 0.426800
1.671100 0.426800
1.691200 0.426800
1.711400 0.426800
1.731500 0.426800
1.751600 0.426800
1.771700 0.426800
1.791900 0.426800
1.812000 0.426800
1.832100 0.426800
1.852200 0.426800
1.872400 0.426800
1.892500 0.426800
1.912600 0.426800
1.932800 0.426800
1.952900 0.426800
1.973000 0.426800
1.993100 0.426800
2.013300 0.426800
2.033400 0.426800
2.053500 0.426800
2.073600 0.426800
2.093800 0.426800
2.113900 0.426800
2.134000 0.426800
2.154100 0.426800
2.174300 0.426800
2.194400 0.426800
2.214500 0.426800
2.234700 0.426800
2.254800 0.426800
2.274900 0.426800
2.295000 0.426800
2.315200 0.426800
2.335300 0.426800
