set title 'mp-11470 - Density of States'
set xlabel 'Energy (eV)'
set ylabel 'DOS (states/eV)'
set grid
set xrange [-10:10]
set yrange [0:23.880]
set xzeroaxis lt -1
set terminal png size 800,600
set output 'mp-11470_dos_gnuplot.png'
plot '-' using 1:2 with lines title 'DOS'
-7.654200 0.000000
-7.637500 0.000000
-7.620800 0.000000
-7.604100 0.000000
-7.587400 0.000000
-7.570700 0.000000
-7.554000 0.000000
-7.537300 0.000000
-7.520700 0.000000
-7.504000 0.000000
-7.487300 0.000000
-7.470600 0.000000
-7.453900 0.000000
-7.437200 0.000000
-7.420500 0.000000
-7.403800 0.000000
-7.387100 0.000000
-7.370400 0.000000
-7.353700 0.000000
-7.337000 0.000000
-7.320300 0.000000
-7.303600 0.000000
-7.286900 0.000000
-7.270200 0.000000
-7.253500 0.000000
-7.236800 0.000000
-7.220100 0.000000
-7.203500 0.000000
-7.186800 0.000000
-7.170100 0.000000
-7.153400 0.000000
-7.136700 0.000000
-7.120000 0.000000
-7.103300 0.000000
-7.086600 0.000000
-7.069900 0.000000
-7.053200 0.000000
-7.036500 0.000000
-7.019800 0.000000
-7.003100 0.000000
-6.986400 0.000000
-6.969700 0.000000
-6.953000 0.000000
-6.936300 0.000000
-6.919600 0.000000
-6.903000 0.000000
-6.886300 0.000000
-6.869600 0.000000
-6.852900 0.000000
-6.836200 0.000000
-6.819500 0.000000
-6.802800 0.000000
-6.786100 0.000000
-6.769400 0.000000
-6.752700 0.000000
-6.736000 0.000000
-6.719300 0.000000
-6.702600 0.000000
-6.685900 0.000000
-6.669200 0.000000
-6.652500 0.000000
-6.635800 0.000000
-6.619100 0.000000
-6.602500 0.000000
-6.585800 0.000000
-6.569100 0.000000
-6.552400 0.000000
-6.535700 0.000000
-6.519000 0.000000
-6.502300 0.000000
-6.485600 0.000000
-6.468900 0.000000
-6.452200 0.000000
-6.435500 0.000000
-6.418800 0.000000
-6.402100 0.000000
-6.385400 0.000000
-6.368700 0.000000
-6.352000 0.000000
-6.335300 0.000000
-6.318600 0.000000
-6.302000 0.000000
-6.285300 0.000000
-6.268600 0.000000
-6.251900 0.000000
-6.235200 0.000000
-6.218500 0.000000
-6.201800 0.000000
-6.185100 0.000000
-6.168400 0.000000
-6.151700 0.000000
-6.135000 0.000100
-6.118300 0.009100
-6.101600 0.033300
-6.084900 0.071100
-6.068200 0.101000
-6.051500 0.116400
-6.034800 0.120300
-6.018100 0.127700
-6.001500 0.140000
-5.984800 0.155800
-5.968100 0.172300
-5.951400 0.188800
-5.934700 0.201700
-5.918000 0.209700
-5.901300 0.215100
-5.884600 0.222500
-5.867900 0.232400
-5.851200 0.243200
-5.834500 0.254000
-5.817800 0.264800
-5.801100 0.275600
-5.784400 0.286400
-5.767700 0.297600
-5.751000 0.309500
-5.734300 0.321900
-5.717600 0.334000
-5.701000 0.345500
-5.684300 0.356900
-5.667600 0.368600
-5.650900 0.380800
-5.634200 0.393200
-5.617500 0.405800
-5.600800 0.418500
-5.584100 0.431600
-5.567400 0.446000
-5.550700 0.464100
-5.534000 0.485700
-5.517300 0.509100
-5.500600 0.532000
-5.483900 0.554100
-5.467200 0.576600
-5.450500 0.599700
-5.433800 0.626100
-5.417100 0.672800
-5.400400 0.744300
-5.383800 0.818900
-5.367100 0.853200
-5.350400 0.847800
-5.333700 0.836300
-5.317000 0.839000
-5.300300 0.853200
-5.283600 0.867700
-5.266900 0.880300
-5.250200 0.890300
-5.233500 0.898000
-5.216800 0.905000
-5.200100 0.912200
-5.183400 0.969000
-5.166700 1.129600
-5.150000 1.202200
-5.133300 1.300700
-5.116600 1.382100
-5.099900 1.513700
-5.083300 1.794400
-5.066600 2.065500
-5.049900 2.265300
-5.033200 2.806600
-5.016500 3.335000
-4.999800 3.848800
-4.983100 4.209300
-4.966400 4.748600
-4.949700 5.548400
-4.933000 6.870200
-4.916300 6.639100
-4.899600 6.063800
-4.882900 5.520400
-4.866200 5.674500
-4.849500 5.889900
-4.832800 6.183600
-4.816100 6.768900
-4.799400 6.999800
-4.782800 6.822700
-4.766100 6.610200
-4.749400 6.345400
-4.732700 6.255500
-4.716000 6.029800
-4.699300 5.378500
-4.682600 4.858700
-4.665900 4.480400
-4.649200 4.042400
-4.632500 4.176000
-4.615800 4.544900
-4.599100 4.921200
-4.582400 5.502100
-4.565700 6.013500
-4.549000 6.482400
-4.532300 6.953200
-4.515600 7.372100
-4.498900 8.652500
-4.482300 9.408600
-4.465600 9.809700
-4.448900 9.861000
-4.432200 10.169500
-4.415500 10.749700
-4.398800 11.318100
-4.382100 12.943700
-4.365400 13.953200
-4.348700 14.379900
-4.332000 14.210200
-4.315300 12.499100
-4.298600 11.276200
-4.281900 10.374100
-4.265200 10.078500
-4.248500 10.044000
-4.231800 11.613200
-4.215100 11.408300
-4.198400 12.120100
-4.181800 12.366000
-4.165100 12.022600
-4.148400 10.743200
-4.131700 9.198200
-4.115000 8.203200
-4.098300 8.395300
-4.081600 9.220100
-4.064900 9.301400
-4.048200 7.722800
-4.031500 8.846300
-4.014800 10.656700
-3.998100 18.307500
-3.981400 15.363000
-3.964700 15.029800
-3.948000 15.585800
-3.931300 16.014100
-3.914600 15.937700
-3.897900 14.422000
-3.881200 15.324100
-3.864600 17.014200
-3.847900 16.399300
-3.831200 17.566700
-3.814500 19.901100
-3.797800 21.261200
-3.781100 21.708900
-3.764400 20.016300
-3.747700 16.051200
-3.731000 14.104700
-3.714300 13.584200
-3.697600 14.664900
-3.680900 14.682100
-3.664200 14.949500
-3.647500 16.953600
-3.630800 14.853400
-3.614100 13.083100
-3.597400 11.988100
-3.580700 11.646100
-3.564100 11.428900
-3.547400 9.924600
-3.530700 8.753500
-3.514000 8.180900
-3.497300 8.011000
-3.480600 10.046000
-3.463900 9.024800
-3.447200 9.480400
-3.430500 9.460800
-3.413800 9.397800
-3.397100 9.549700
-3.380400 9.478900
-3.363700 9.127400
-3.347000 8.541300
-3.330300 8.083000
-3.313600 8.449900
-3.296900 8.312400
-3.280200 9.289500
-3.263600 9.550800
-3.246900 9.800800
-3.230200 9.683900
-3.213500 9.176900
-3.196800 9.142500
-3.180100 8.706600
-3.163400 7.514200
-3.146700 6.141200
-3.130000 5.342900
-3.113300 4.856600
-3.096600 3.872800
-3.079900 3.495900
-3.063200 3.256000
-3.046500 3.071300
-3.029800 2.853400
-3.013100 2.712600
-2.996400 2.697500
-2.979700 2.692500
-2.963100 2.628900
-2.946400 2.550900
-2.929700 2.497400
-2.913000 2.446600
-2.896300 2.403600
-2.879600 2.377200
-2.862900 2.391500
-2.846200 2.463700
-2.829500 2.399700
-2.812800 2.275500
-2.796100 2.258100
-2.779400 1.641900
-2.762700 1.339800
-2.746000 1.170300
-2.729300 1.206400
-2.712600 0.961000
-2.695900 0.890600
-2.679200 0.827800
-2.662600 0.821400
-2.645900 0.738600
-2.629200 0.674500
-2.612500 0.672200
-2.595800 0.677400
-2.579100 0.683400
-2.562400 0.689900
-2.545700 0.696700
-2.529000 0.704300
-2.512300 0.712400
-2.495600 0.720500
-2.478900 0.728500
-2.462200 0.736500
-2.445500 0.744300
-2.428800 0.750000
-2.412100 0.755100
-2.395400 0.759200
-2.378700 0.763100
-2.362000 0.767900
-2.345400 0.772900
-2.328700 0.778300
-2.312000 0.784100
-2.295300 0.790200
-2.278600 0.796700
-2.261900 0.803200
-2.245200 0.809700
-2.228500 0.817000
-2.211800 0.825200
-2.195100 0.832900
-2.178400 0.840800
-2.161700 0.848700
-2.145000 0.856600
-2.128300 0.865000
-2.111600 0.873600
-2.094900 0.882300
-2.078200 0.891000
-2.061500 0.899800
-2.044900 0.909000
-2.028200 0.918900
-2.011500 0.929500
-1.994800 0.940400
-1.978100 0.950900
-1.961400 0.961900
-1.944700 0.974200
-1.928000 0.988200
-1.911300 1.003500
-1.894600 1.018900
-1.877900 1.034200
-1.861200 1.049900
-1.844500 1.065900
-1.827800 1.082200
-1.811100 1.098900
-1.794400 1.116300
-1.777700 1.134400
-1.761000 1.153500
-1.744400 1.173700
-1.727700 1.194600
-1.711000 1.216200
-1.694300 1.238500
-1.677600 1.283100
-1.660900 1.315300
-1.644200 1.348200
-1.627500 1.379900
-1.610800 1.411100
-1.594100 1.443000
-1.577400 1.510300
-1.560700 1.589600
-1.544000 1.644800
-1.527300 1.682900
-1.510600 1.726700
-1.493900 1.766100
-1.477200 1.802700
-1.460500 1.836700
-1.443900 1.928100
-1.427200 1.901900
-1.410500 1.852100
-1.393800 1.811000
-1.377100 1.805700
-1.360400 1.806200
-1.343700 1.808100
-1.327000 1.799700
-1.310300 1.799600
-1.293600 1.812200
-1.276900 1.823400
-1.260200 1.808100
-1.243500 1.809300
-1.226800 1.812000
-1.210100 1.818400
-1.193400 1.825200
-1.176700 1.823500
-1.160000 1.809100
-1.143400 1.801400
-1.126700 1.861200
-1.110000 1.912500
-1.093300 1.910700
-1.076600 1.891100
-1.059900 1.844800
-1.043200 1.802600
-1.026500 1.783100
-1.009800 1.771200
-0.993100 1.770200
-0.976400 1.778100
-0.959700 1.792100
-0.943000 1.810100
-0.926300 1.815000
-0.909600 1.835600
-0.892900 1.868700
-0.876200 1.902200
-0.859500 1.937000
-0.842800 2.013100
-0.826200 2.163500
-0.809500 2.313000
-0.792800 2.479000
-0.776100 2.638900
-0.759400 2.787200
-0.742700 3.004300
-0.726000 3.238400
-0.709300 3.501900
-0.692600 3.576800
-0.675900 3.432000
-0.659200 3.222900
-0.642500 3.193400
-0.625800 3.164600
-0.609100 3.296600
-0.592400 3.043700
-0.575700 2.966000
-0.559000 2.931300
-0.542300 2.913700
-0.525700 2.901700
-0.509000 2.923700
-0.492300 2.962000
-0.475600 3.025500
-0.458900 3.280800
-0.442200 3.213300
-0.425500 3.162700
-0.408800 3.187800
-0.392100 3.230600
-0.375400 3.260900
-0.358700 3.235100
-0.342000 3.144200
-0.325300 3.117600
-0.308600 3.095900
-0.291900 3.080000
-0.275200 3.077800
-0.258500 3.077200
-0.241800 3.038600
-0.225200 3.025900
-0.208500 2.747100
-0.191800 2.751900
-0.175100 2.758000
-0.158400 2.811800
-0.141700 2.843600
-0.125000 2.876400
-0.108300 2.878500
-0.091600 2.855800
-0.074900 2.850700
-0.058200 2.828700
-0.041500 2.807700
-0.024800 2.780500
-0.008100 2.701200
0.008600 2.606300
0.025300 2.512800
0.042000 2.457600
0.058700 2.406500
0.075300 2.379100
0.092000 2.440500
0.108700 2.503400
0.125400 2.555300
0.142100 2.535700
0.158800 2.454000
0.175500 2.370600
0.192200 2.350300
0.208900 2.349300
0.225600 2.376800
0.242300 2.462000
0.259000 2.547400
0.275700 2.646600
0.292400 2.734900
0.309100 2.858400
0.325800 3.049300
0.342500 3.273900
0.359200 3.518800
0.375800 3.824500
0.392500 4.160500
0.409200 4.624300
0.425900 4.723600
0.442600 4.678500
0.459300 4.961200
0.476000 5.119900
0.492700 4.999200
0.509400 4.861300
0.526100 4.723700
0.542800 4.676600
0.559500 4.411300
0.576200 4.368700
0.592900 4.382300
0.609600 4.479300
0.626300 4.634000
0.643000 4.824600
0.659700 4.792200
0.676400 4.963100
0.693000 4.915900
0.709700 4.476300
0.726400 4.214400
0.743100 4.227700
0.759800 4.323200
0.776500 4.631200
0.793200 5.160600
0.809900 5.867300
0.826600 7.044000
0.843300 9.634600
0.860000 10.874900
0.876700 10.975700
0.893400 8.261300
0.910100 7.840400
0.926800 7.812500
0.943500 6.251700
0.960200 5.526200
0.976900 4.883700
0.993500 4.479100
1.010200 4.100500
1.026900 4.010000
1.043600 3.845200
1.060300 3.220400
1.077000 3.056000
1.093700 2.944500
1.110400 2.934900
1.127100 2.872800
1.143800 2.828900
1.160500 2.740900
1.177200 2.640000
1.193900 2.555400
1.210600 2.548500
1.227300 2.603100
1.244000 2.938800
1.260700 3.400700
1.277400 3.563700
1.294000 3.527900
1.310700 3.155400
1.327400 3.041900
1.344100 2.995400
1.360800 2.955800
1.377500 2.955200
1.394200 3.003800
1.410900 2.965300
1.427600 2.973500
1.444300 2.949400
1.461000 2.883300
1.477700 2.820600
1.494400 2.719000
1.511100 2.614700
1.527800 2.532500
1.544500 2.481500
1.561200 2.452500
1.577900 2.438900
1.594500 2.438100
1.611200 2.423300
1.627900 2.389200
1.644600 2.384900
1.661300 2.383400
1.678000 2.365700
1.694700 2.311400
1.711400 2.252000
1.728100 2.298000
1.744800 2.153900
1.761500 2.127000
1.778200 2.078000
1.794900 2.018700
1.811600 1.955200
1.828300 1.887600
1.845000 1.816500
1.861700 1.697300
1.878400 1.559100
1.895000 1.430900
1.911700 1.378000
1.928400 1.342600
1.945100 1.302100
1.961800 1.262200
1.978500 1.221900
1.995200 1.187900
2.011900 1.108900
2.028600 1.071300
2.045300 1.047700
2.062000 1.018400
2.078700 0.992500
2.095400 0.978100
2.112100 0.966200
2.128800 0.959800
2.145500 0.955200
2.162200 0.951100
2.178900 0.947300
2.195600 0.944000
2.212200 0.941000
2.228900 0.938400
2.245600 0.935600
2.262300 0.936800
2.279000 0.934300
2.295700 0.931900
2.312400 0.929500
2.329100 0.926900
2.345800 0.924100
2.362500 0.921000
2.379200 0.917800
2.395900 0.914500
2.412600 0.911500
2.429300 0.909000
2.446000 0.904600
2.462700 0.902000
2.479400 0.900000
2.496100 0.898400
2.512700 0.897500
2.529400 0.897000
2.546100 0.896700
2.562800 0.896700
2.579500 0.896000
2.596200 0.897100
2.612900 0.899200
2.629600 0.902200
2.646300 0.904600
2.663000 0.906900
2.679700 0.910100
2.696400 0.913400
2.713100 0.916800
2.729800 0.920500
2.746500 0.924400
2.763200 0.928300
2.779900 0.932000
2.796600 0.933700
2.813200 0.935000
2.829900 0.936300
2.846600 0.937400
2.863300 0.938400
2.880000 0.939100
2.896700 0.940300
2.913400 0.941400
2.930100 0.942600
2.946800 0.943800
2.963500 0.945600
2.980200 0.949300
2.996900 0.954900
3.013600 0.981900
3.030300 0.995100
3.047000 1.003500
3.063700 1.011400
3.080400 1.018400
3.097100 1.024100
3.113700 1.029100
3.130400 1.034400
3.147100 1.040200
3.163800 1.085700
3.180500 1.048300
3.197200 1.041400
3.213900 1.033600
3.230600 1.025900
3.247300 1.018600
3.264000 1.009800
3.280700 1.002900
3.297400 0.996900
3.314100 0.992100
3.330800 0.987800
3.347500 0.984100
3.364200 0.981600
3.380900 0.979300
3.397600 0.977400
3.414200 1.011400
3.430900 0.982900
3.447600 0.966600
3.464300 0.968400
3.481000 0.978600
3.497700 0.993700
3.514400 1.012400
3.531100 1.034900
3.547800 1.068800
3.564500 1.096300
3.581200 1.125400
3.597900 1.156300
3.614600 1.181800
3.631300 1.231000
3.648000 1.220900
3.664700 1.207000
3.681400 1.360500
3.698100 1.477600
3.714800 1.981600
3.731400 1.194100
3.748100 1.181200
3.764800 1.176400
3.781500 1.173700
3.798200 1.173100
3.814900 1.173900
3.831600 1.171800
3.848300 1.161000
3.865000 1.146500
3.881700 1.130100
3.898400 1.098200
3.915100 1.059800
3.931800 1.036800
3.948500 1.020700
3.965200 0.994800
3.981900 0.970600
3.998600 0.954900
4.015300 0.942600
4.031900 0.934900
4.048600 0.930000
4.065300 0.923000
4.082000 0.917600
4.098700 0.913900
4.115400 0.911700
4.132100 0.910300
4.148800 0.906100
4.165500 0.894700
4.182200 0.885400
4.198900 0.879300
4.215600 0.876400
4.232300 0.874300
4.249000 0.874400
4.265700 0.876800
4.282400 0.881700
4.299100 0.901400
4.315800 0.866900
4.332400 0.834200
4.349100 0.809000
4.365800 0.812900
4.382500 0.814100
4.399200 0.830200
4.415900 0.863200
4.432600 0.913000
4.449300 0.980200
4.466000 1.083300
4.482700 1.222200
4.499400 1.428800
4.516100 1.856700
4.532800 2.019900
4.549500 2.074400
4.566200 1.850200
4.582900 1.759200
4.599600 1.687700
4.616300 1.570300
4.632900 1.536900
4.649600 1.509900
4.666300 1.478900
4.683000 1.457900
4.699700 1.444000
4.716400 1.429700
4.733100 1.441000
4.749800 1.398600
4.766500 1.360000
4.783200 1.355500
4.799900 1.312400
4.816600 1.273900
4.833300 1.288800
4.850000 1.216900
4.866700 1.146800
4.883400 1.158300
4.900100 1.150400
4.916800 1.154300
4.933400 1.180500
4.950100 1.206500
4.966800 1.254900
4.983500 1.267700
5.000200 1.274400
5.016900 1.276800
5.033600 1.274700
5.050300 1.255600
5.067000 1.229700
5.083700 1.207700
5.100400 1.212300
5.117100 1.217600
5.133800 1.216000
5.150500 1.204700
5.167200 1.195300
5.183900 1.192200
5.200600 1.193400
5.217300 1.196600
5.234000 1.205100
5.250600 1.212800
5.267300 1.218800
5.284000 1.227300
5.300700 1.223800
5.317400 1.231700
5.334100 1.237900
5.350800 1.246800
5.367500 1.256500
5.384200 1.262100
5.400900 1.267400
5.417600 1.274100
5.434300 1.281900
5.451000 1.289600
5.467700 1.275900
5.484400 1.268600
5.501100 1.262400
5.517800 1.256600
5.534500 1.251200
5.551100 1.245500
5.567800 1.239600
5.584500 1.218400
5.601200 1.209700
5.617900 1.198900
5.634600 1.188800
5.651300 1.179000
5.668000 1.173200
5.684700 1.173000
5.701400 1.183000
5.718100 1.196500
5.734800 1.210700
5.751500 1.224100
5.768200 1.235900
5.784900 1.246700
5.801600 1.256300
5.818300 1.264300
5.835000 1.273500
5.851600 1.283300
5.868300 1.293600
5.885000 1.305500
5.901700 1.310100
5.918400 1.314400
5.935100 1.307900
5.951800 1.297000
5.968500 1.286700
5.985200 1.279100
6.001900 1.279200
6.018600 1.280800
6.035300 1.290300
6.052000 1.290300
6.068700 1.290900
6.085400 1.295000
6.102100 1.275100
6.118800 1.259300
6.135500 1.248300
6.152100 1.242500
6.168800 1.238100
6.185500 1.225600
6.202200 1.214100
6.218900 1.208900
6.235600 1.204400
6.252300 1.200900
6.269000 1.197800
6.285700 1.190000
6.302400 1.180700
6.319100 1.173200
6.335800 1.166900
6.352500 1.160800
6.369200 1.154700
6.385900 1.148400
6.402600 1.142600
6.419300 1.137400
6.436000 1.136200
6.452600 1.140800
6.469300 1.138800
6.486000 1.130700
6.502700 1.127700
6.519400 1.128500
6.536100 1.134100
6.552800 1.148500
6.569500 1.170000
6.586200 1.183200
6.602900 1.191400
6.619600 1.194100
6.636300 1.200400
6.653000 1.208700
6.669700 1.219000
6.686400 1.230400
6.703100 1.231500
6.719800 1.232400
6.736500 1.234400
6.753100 1.237300
6.769800 1.240000
6.786500 1.241300
6.803200 1.244600
6.819900 1.250600
6.836600 1.254000
6.853300 1.257500
6.870000 1.259000
6.886700 1.257300
6.903400 1.253600
6.920100 1.248200
6.936800 1.240500
6.953500 1.228300
6.970200 1.219700
6.986900 1.213300
7.003600 1.210200
7.020300 1.211900
7.037000 1.216800
7.053700 1.222400
7.070300 1.230000
7.087000 1.239100
7.103700 1.249300
7.120400 1.260300
7.137100 1.272800
7.153800 1.285400
7.170500 1.299800
7.187200 1.318000
7.203900 1.329100
7.220600 1.343900
7.237300 1.360700
7.254000 1.379000
7.270700 1.399300
7.287400 1.420900
7.304100 1.443300
7.320800 1.466500
7.337500 1.489800
7.354200 1.514100
7.370800 1.544400
7.387500 1.576700
7.404200 1.596900
7.420900 1.605300
7.437600 1.618100
7.454300 1.639200
7.471000 1.673000
7.487700 1.707400
7.504400 1.735000
7.521100 1.747800
7.537800 1.760700
7.554500 1.763100
7.571200 1.753300
7.587900 1.733700
7.604600 1.705000
7.621300 1.670100
7.638000 1.632000
7.654700 1.589000
7.671300 1.543800
7.688000 1.500600
7.704700 1.442100
7.721400 1.381900
7.738100 1.324000
7.754800 1.264700
7.771500 1.210200
7.788200 1.163200
7.804900 1.121800
7.821600 1.083700
7.838300 1.046000
7.855000 0.999200
7.871700 0.972700
7.888400 0.954200
7.905100 0.934300
7.921800 0.903800
7.938500 0.873700
7.955200 0.844400
7.971800 0.825100
7.988500 0.808000
8.005200 0.791100
8.021900 0.767000
8.038600 0.758200
8.055300 0.752700
8.072000 0.748800
8.088700 0.746000
8.105400 0.744400
8.122100 0.743900
8.138800 0.746500
8.155500 0.757200
8.172200 0.773100
8.188900 0.789200
8.205600 0.825200
8.222300 0.877600
8.239000 0.919600
8.255700 0.962100
8.272300 1.001400
8.289000 1.041200
8.305700 1.077400
8.322400 1.110000
8.339100 1.140100
8.355800 1.169800
8.372500 1.200100
8.389200 1.226700
8.405900 1.251300
8.422600 1.275300
8.439300 1.311200
8.456000 1.351500
8.472700 1.394600
8.489400 1.433800
8.506100 1.463900
8.522800 1.492000
8.539500 1.520400
8.556200 1.544400
8.572900 1.555100
8.589500 1.544400
8.606200 1.551100
8.622900 1.555700
8.639600 1.559900
8.656300 1.564600
8.673000 1.571100
8.689700 1.578700
8.706400 1.585700
8.723100 1.592000
8.739800 1.596300
8.756500 1.600300
8.773200 1.610900
8.789900 1.639900
8.806600 1.634000
8.823300 1.645600
8.840000 1.658400
8.856700 1.670700
8.873400 1.673000
8.890000 1.666700
8.906700 1.658600
8.923400 1.677900
8.940100 1.660600
8.956800 1.626500
8.973500 1.594800
8.990200 1.562600
9.006900 1.529400
9.023600 1.495000
9.040300 1.457100
9.057000 1.427500
9.073700 1.401500
9.090400 1.397000
9.107100 1.347400
9.123800 1.270000
9.140500 1.194700
9.157200 1.157700
9.173900 1.138100
9.190500 1.127900
9.207200 1.123100
9.223900 1.123800
9.240600 1.124300
9.257300 1.150400
9.274000 1.171400
9.290700 1.191600
9.307400 1.224000
9.324100 1.254000
9.340800 1.276200
9.357500 1.296500
9.374200 1.318300
9.390900 1.342300
9.407600 1.366600
9.424300 1.348300
9.441000 1.414600
9.457700 1.371800
9.474400 1.386900
9.491000 1.411700
9.507700 1.435400
9.524400 1.458400
9.541100 1.480600
9.557800 1.493300
9.574500 1.488300
9.591200 1.476900
9.607900 1.469400
9.624600 1.466500
9.641300 1.464700
9.658000 1.465200
9.674700 1.472200
9.691400 1.480900
9.708100 1.486900
9.724800 1.490200
9.741500 1.490600
9.758200 1.487800
9.774900 1.483500
9.791500 1.478700
9.808200 1.472900
9.824900 1.464300
9.841600 1.451700
9.858300 1.436000
9.875000 1.418000
9.891700 1.397300
9.908400 1.375000
9.925100 1.360900
9.941800 1.320900
9.958500 1.302500
9.975200 1.289300
9.991900 1.274400
10.008600 1.258400
10.025300 1.240900
10.042000 1.222200
10.058700 1.203000
10.075400 1.183500
10.092100 1.163900
10.108700 1.144300
10.125400 1.126800
10.142100 1.115300
