set title 'mp-972351 - Density of States'
set xlabel 'Energy (eV)'
set ylabel 'DOS (states/eV)'
set grid
set xrange [-10:10]
set yrange [0:79.113]
set xzeroaxis lt -1
set terminal png size 800,600
set output 'mp-972351_dos_gnuplot.png'
plot '-' using 1:2 with lines title 'DOS'
-7.952900 0.000000
-7.933700 0.000000
-7.914400 0.000000
-7.895100 0.000000
-7.875900 0.000000
-7.856600 0.000000
-7.837400 0.000000
-7.818100 0.000000
-7.798900 0.000000
-7.779600 0.000000
-7.760300 0.000000
-7.741100 0.000000
-7.721800 0.000000
-7.702600 0.000000
-7.683300 0.000000
-7.664100 0.000000
-7.644800 0.000000
-7.625500 0.000000
-7.606300 0.000000
-7.587000 0.000000
-7.567800 0.000000
-7.548500 0.000000
-7.529300 0.000000
-7.510000 0.000000
-7.490800 0.000000
-7.471500 0.000000
-7.452200 0.000000
-7.433000 0.000000
-7.413700 0.000000
-7.394500 0.000000
-7.375200 0.000000
-7.356000 0.000000
-7.336700 0.000000
-7.317400 0.000000
-7.298200 0.000000
-7.278900 0.000000
-7.259700 0.000000
-7.240400 0.000000
-7.221200 0.000000
-7.201900 0.000000
-7.182600 0.000000
-7.163400 0.000000
-7.144100 0.000000
-7.124900 0.000000
-7.105600 0.000000
-7.086400 0.000000
-7.067100 0.000000
-7.047800 0.000000
-7.028600 0.000000
-7.009300 0.000000
-6.990100 0.000000
-6.970800 0.000000
-6.951600 0.000000
-6.932300 0.000000
-6.913000 0.000000
-6.893800 0.000000
-6.874500 0.000000
-6.855300 0.000000
-6.836000 0.000000
-6.816800 0.000000
-6.797500 0.000000
-6.778200 0.000000
-6.759000 0.000000
-6.739700 0.000000
-6.720500 0.000000
-6.701200 0.000000
-6.682000 0.000000
-6.662700 0.000000
-6.643500 0.000000
-6.624200 0.000000
-6.604900 0.000000
-6.585700 0.000000
-6.566400 0.000000
-6.547200 0.000000
-6.527900 0.000000
-6.508700 0.000000
-6.489400 0.000000
-6.470100 0.000000
-6.450900 0.000000
-6.431600 0.000000
-6.412400 0.000000
-6.393100 0.000000
-6.373900 0.000000
-6.354600 0.000000
-6.335300 0.000000
-6.316100 0.000000
-6.296800 0.000000
-6.277600 0.000000
-6.258300 0.000000
-6.239100 0.000000
-6.219800 0.000000
-6.200500 0.118100
-6.181300 3.892900
-6.162000 8.246600
-6.142800 21.801700
-6.123500 34.262000
-6.104300 32.545300
-6.085000 47.899600
-6.065700 39.550900
-6.046500 33.732200
-6.027200 46.420800
-6.008000 49.246400
-5.988700 71.921200
-5.969500 48.323000
-5.950200 49.191200
-5.931000 57.882000
-5.911700 71.516800
-5.892400 26.130200
-5.873200 36.423900
-5.853900 49.968800
-5.834700 50.918900
-5.815400 25.764600
-5.796200 37.272200
-5.776900 42.279900
-5.757600 49.085800
-5.738400 43.193600
-5.719100 51.718100
-5.699900 60.653300
-5.680600 44.978400
-5.661400 45.556700
-5.642100 55.278900
-5.622800 60.507300
-5.603600 57.389000
-5.584300 65.440700
-5.565100 38.615000
-5.545800 51.708900
-5.526600 53.872000
-5.507300 10.663700
-5.488000 0.000000
-5.468800 0.000000
-5.449500 0.000000
-5.430300 0.000000
-5.411000 0.000000
-5.391800 0.000000
-5.372500 0.000000
-5.353200 0.000000
-5.334000 0.000000
-5.314700 0.000000
-5.295500 0.000000
-5.276200 0.000000
-5.257000 0.000000
-5.237700 0.000000
-5.218400 0.000000
-5.199200 0.000000
-5.179900 0.000000
-5.160700 0.000000
-5.141400 0.000000
-5.122200 0.000000
-5.102900 0.000000
-5.083700 0.000000
-5.064400 0.000000
-5.045100 0.000000
-5.025900 0.000000
-5.006600 0.000000
-4.987400 0.000000
-4.968100 0.000000
-4.948900 0.000000
-4.929600 0.000000
-4.910300 0.000000
-4.891100 0.000000
-4.871800 0.000000
-4.852600 0.000000
-4.833300 0.000000
-4.814100 0.000000
-4.794800 0.000000
-4.775500 0.000000
-4.756300 0.000000
-4.737000 0.000000
-4.717800 0.000000
-4.698500 0.000000
-4.679300 0.000000
-4.660000 0.000000
-4.640700 0.000000
-4.621500 0.000000
-4.602200 0.000000
-4.583000 0.000000
-4.563700 0.000000
-4.544500 0.000000
-4.525200 0.000000
-4.505900 0.000000
-4.486700 0.000000
-4.467400 0.000000
-4.448200 0.000000
-4.428900 0.000000
-4.409700 0.000000
-4.390400 0.000000
-4.371100 0.000000
-4.351900 0.000000
-4.332600 0.000000
-4.313400 0.000000
-4.294100 0.000000
-4.274900 0.000000
-4.255600 0.000000
-4.236400 0.000000
-4.217100 0.000000
-4.197800 0.000000
-4.178600 0.000000
-4.159300 0.000000
-4.140100 0.000000
-4.120800 0.000000
-4.101600 0.000000
-4.082300 0.000000
-4.063000 0.000000
-4.043800 0.000000
-4.024500 0.000000
-4.005300 0.000000
-3.986000 0.000000
-3.966800 0.000000
-3.947500 0.000000
-3.928200 0.000000
-3.909000 0.000000
-3.889700 0.000000
-3.870500 0.000000
-3.851200 0.000000
-3.832000 0.000000
-3.812700 0.000000
-3.793400 0.000000
-3.774200 0.007000
-3.754900 0.024000
-3.735700 0.048100
-3.716400 0.076600
-3.697200 0.108100
-3.677900 0.142600
-3.658600 0.180200
-3.639400 0.220600
-3.620100 0.236200
-3.600900 0.224800
-3.581600 0.232200
-3.562400 0.240300
-3.543100 0.248100
-3.523900 0.257600
-3.504600 0.269400
-3.485300 0.281300
-3.466100 0.292500
-3.446800 0.303000
-3.427600 0.312900
-3.408300 0.323400
-3.389100 0.334700
-3.369800 0.346500
-3.350500 0.358600
-3.331300 0.370900
-3.312000 0.386200
-3.292800 0.402700
-3.273500 0.416700
-3.254300 0.428000
-3.235000 0.436700
-3.215700 0.443100
-3.196500 0.446800
-3.177200 0.447100
-3.158000 0.443900
-3.138700 0.437400
-3.119500 0.427900
-3.100200 0.420600
-3.080900 0.421600
-3.061700 0.422800
-3.042400 0.424100
-3.023200 0.425500
-3.003900 0.435100
-2.984700 0.453800
-2.965400 0.469700
-2.946100 0.482800
-2.926900 0.493200
-2.907600 0.500800
-2.888400 0.506400
-2.869100 0.512200
-2.849900 0.518200
-2.830600 0.524300
-2.811300 0.530300
-2.792100 0.535700
-2.772800 0.541600
-2.753600 0.547700
-2.734300 0.553200
-2.715100 0.558200
-2.695800 0.563600
-2.676600 0.569500
-2.657300 0.576100
-2.638000 0.583200
-2.618800 0.587100
-2.599500 0.591400
-2.580300 0.597200
-2.561000 0.603100
-2.541800 0.609100
-2.522500 0.615300
-2.503200 0.621100
-2.484000 0.625900
-2.464700 0.630600
-2.445500 0.635400
-2.426200 0.640000
-2.407000 0.644400
-2.387700 0.648700
-2.368400 0.652900
-2.349200 0.657100
-2.329900 0.661400
-2.310700 0.665600
-2.291400 0.669800
-2.272200 0.674200
-2.252900 0.678700
-2.233600 0.683300
-2.214400 0.687900
-2.195100 0.692500
-2.175900 0.697200
-2.156600 0.701800
-2.137400 0.706300
-2.118100 0.710800
-2.098800 0.715300
-2.079600 0.720800
-2.060300 0.726300
-2.041100 0.731800
-2.021800 0.737300
-2.002600 0.742700
-1.983300 0.748100
-1.964100 0.753600
-1.944800 0.759100
-1.925500 0.764800
-1.906300 0.770300
-1.887000 0.775400
-1.867800 0.780500
-1.848500 0.785800
-1.829300 0.791100
-1.810000 0.796700
-1.790700 0.802000
-1.771500 0.807100
-1.752200 0.812100
-1.733000 0.816900
-1.713700 0.821700
-1.694500 0.826300
-1.675200 0.830900
-1.655900 0.835400
-1.636700 0.840100
-1.617400 0.845100
-1.598200 0.850100
-1.578900 0.855300
-1.559700 0.860600
-1.540400 0.865900
-1.521100 0.874500
-1.501900 0.883200
-1.482600 0.891400
-1.463400 0.898900
-1.444100 0.905700
-1.424900 0.911900
-1.405600 0.917400
-1.386300 0.922200
-1.367100 0.926300
-1.347800 0.929800
-1.328600 0.932300
-1.309300 0.934200
-1.290100 0.935400
-1.270800 0.936000
-1.251500 0.935900
-1.232300 0.938600
-1.213000 0.943600
-1.193800 0.948400
-1.174500 0.952900
-1.155300 0.957300
-1.136000 0.961400
-1.116800 0.965200
-1.097500 0.968700
-1.078200 0.971800
-1.059000 0.974500
-1.039700 0.976500
-1.020500 0.977900
-1.001200 1.207300
-0.982000 1.022100
-0.962700 1.027200
-0.943400 1.032800
-0.924200 1.038700
-0.904900 1.045000
-0.885700 1.051800
-0.866400 1.058900
-0.847200 1.066400
-0.827900 1.074300
-0.808600 1.082600
-0.789400 1.091400
-0.770100 1.100600
-0.750900 1.110700
-0.731600 1.121900
-0.712400 1.133600
-0.693100 1.145700
-0.673800 1.158100
-0.654600 1.170600
-0.635300 1.183100
-0.616100 1.195700
-0.596800 1.208300
-0.577600 1.220900
-0.558300 1.233600
-0.539000 1.246500
-0.519800 1.260000
-0.500500 1.273900
-0.481300 1.301600
-0.462000 1.350500
-0.442800 1.425600
-0.423500 1.483500
-0.404200 1.524000
-0.385000 1.547900
-0.365700 1.564000
-0.346500 1.576300
-0.327200 1.586300
-0.308000 1.594500
-0.288700 1.600800
-0.269500 1.604500
-0.250200 1.605500
-0.230900 1.603700
-0.211700 1.585400
-0.192400 1.569900
-0.173200 1.553800
-0.153900 1.536800
-0.134700 1.507700
-0.115400 1.464600
-0.096100 1.411300
-0.076900 1.366100
-0.057600 1.332300
-0.038400 1.306500
-0.019100 1.288900
0.000100 1.281600
0.019400 1.279500
0.038700 1.277900
0.057900 1.276900
0.077200 1.276400
0.096400 1.276400
0.115700 1.277000
0.134900 1.278300
0.154200 1.281100
0.173500 1.296400
0.192700 1.328300
0.212000 1.369200
0.231200 1.417600
0.250500 1.472100
0.269700 1.524600
0.289000 1.599100
0.308300 1.659400
0.327500 1.667600
0.346800 1.627500
0.366000 1.626700
0.385300 1.658900
0.404500 1.662800
0.423800 1.630600
0.443000 1.563100
0.462300 1.465100
0.481600 1.390700
0.500800 1.365800
0.520100 1.348400
0.539300 1.335300
0.558600 1.325800
0.577800 1.319900
0.597100 1.325800
0.616400 1.335000
0.635600 1.345000
0.654900 1.357700
0.674100 1.426800
0.693400 1.474000
0.712600 1.490900
0.731900 1.496500
0.751200 1.501400
0.770400 1.509500
0.789700 1.510100
0.808900 1.510100
0.828200 1.492700
0.847400 1.471700
0.866700 1.454700
0.886000 1.485000
0.905200 1.503800
0.924500 1.506800
0.943700 1.836400
0.963000 1.479600
0.982200 1.443700
1.001500 1.429600
1.020800 1.456600
1.040000 1.494900
1.059300 1.518900
1.078500 1.533000
1.097800 1.532100
1.117000 1.531600
1.136300 1.590400
1.155600 2.051700
1.174800 1.852900
1.194100 1.865600
1.213300 1.956100
1.232600 2.193400
1.251800 4.693600
1.271100 4.140000
1.290300 4.162900
1.309600 3.249100
1.328900 2.749800
1.348100 2.624700
1.367400 2.499000
1.386600 2.362300
1.405900 2.211200
1.425100 1.947200
1.444400 1.849500
1.463700 1.773000
1.482900 1.711400
1.502200 1.657100
1.521400 1.603900
1.540700 1.547900
1.559900 1.491000
1.579200 1.447500
1.598500 1.415200
1.617700 1.347900
1.637000 1.289200
1.656200 1.254600
1.675500 1.258000
1.694700 1.287400
1.714000 1.257000
1.733300 1.114800
1.752500 0.945900
1.771800 0.778000
1.791000 0.618500
1.810300 0.466700
1.829500 0.317100
1.848800 0.166700
1.868100 0.000000
1.887300 0.000000
1.906600 0.000000
1.925800 0.000000
1.945100 0.000000
1.964300 0.000000
1.983600 0.000000
2.002900 0.000000
2.022100 0.000000
2.041400 0.000000
2.060600 0.000000
2.079900 0.000000
2.099100 0.000000
2.118400 0.000000
2.137600 0.000000
2.156900 0.000000
2.176200 0.000000
2.195400 0.000000
2.214700 0.000000
2.233900 0.000000
2.253200 0.000000
2.272400 0.000000
2.291700 0.000000
2.311000 0.000000
2.330200 0.000000
2.349500 0.000000
2.368700 0.000000
2.388000 0.000000
2.407200 0.000000
2.426500 0.000000
2.445800 0.000000
2.465000 0.000000
2.484300 0.000000
2.503500 0.000000
2.522800 0.000000
2.542000 0.000000
2.561300 0.000000
2.580600 0.000000
2.599800 0.000000
2.619100 0.000000
2.638300 0.000000
2.657600 0.000000
2.676800 0.000000
2.696100 0.000000
2.715400 0.000000
2.734600 0.000000
2.753900 0.000000
2.773100 0.000000
2.792400 0.000000
2.811600 0.000000
2.830900 0.000000
2.850100 0.000000
2.869400 0.000000
2.888700 0.000000
2.907900 0.000000
2.927200 0.000000
2.946400 0.000000
2.965700 0.000000
2.984900 0.000000
3.004200 0.000000
3.023500 0.000000
3.042700 0.000000
3.062000 0.000000
3.081200 0.000000
3.100500 0.000000
3.119700 0.000000
3.139000 0.000000
3.158300 0.000000
3.177500 0.000000
3.196800 0.000000
3.216000 0.000000
3.235300 0.000000
3.254500 0.000000
3.273800 0.000000
3.293100 0.000000
3.312300 0.000000
3.331600 0.000000
3.350800 0.001600
3.370100 0.005100
3.389300 0.009500
3.408600 0.014700
3.427900 0.027200
3.447100 0.044100
3.466400 0.060700
3.485600 0.081300
3.504900 0.106100
3.524100 0.133000
3.543400 0.161900
3.562700 0.192800
3.581900 0.225700
3.601200 0.261800
3.620400 0.301100
3.639700 0.343700
3.658900 0.390600
3.678200 0.455300
3.697400 0.531400
3.716700 0.610300
3.736000 0.694600
3.755200 0.740700
3.774500 0.751100
3.793700 0.756900
3.813000 0.760200
3.832200 0.760800
3.851500 0.758900
3.870800 0.754300
3.890000 0.748800
3.909300 0.747600
3.928500 0.746200
3.947800 0.749400
3.967000 0.751700
3.986300 0.753600
4.005600 0.758400
4.024800 0.766200
4.044100 0.817600
4.063300 0.873000
4.082600 0.921400
4.101800 0.964800
4.121100 1.001500
4.140400 1.031600
4.159600 1.056500
4.178900 1.087200
4.198100 1.123600
4.217400 1.159200
4.236600 1.194900
4.255900 1.231600
4.275200 1.269900
4.294400 1.308600
4.313700 1.347100
4.332900 1.385300
4.352200 1.424800
4.371400 1.466400
4.390700 1.564600
4.410000 1.634200
4.429200 1.692200
4.448500 1.746100
4.467700 1.796200
4.487000 1.848100
4.506200 1.901500
4.525500 1.954800
4.544700 2.041200
4.564000 2.117900
4.583300 2.111300
4.602500 1.995800
4.621800 1.794200
4.641000 1.788600
4.660300 1.819400
4.679500 1.863200
4.698800 1.930800
4.718100 2.027700
4.737300 2.215400
4.756600 2.427700
4.775800 2.613500
4.795100 2.765000
4.814300 2.852400
4.833600 2.903200
4.852900 2.532700
4.872100 2.436800
4.891400 2.275400
4.910600 2.170400
4.929900 2.117300
4.949100 2.081800
4.968400 2.062300
4.987700 2.038700
5.006900 1.988800
5.026200 1.938700
5.045400 1.898900
5.064700 1.863800
5.083900 1.825700
5.103200 1.784300
5.122500 1.737200
5.141700 1.683700
5.161000 1.626700
5.180200 1.566300
5.199500 1.506000
5.218700 1.471700
5.238000 1.451300
5.257200 1.431000
5.276500 1.416200
5.295800 1.408000
5.315000 1.406200
5.334300 1.405300
5.353500 1.393200
5.372800 1.367900
5.392000 1.336400
5.411300 1.311200
5.430600 1.291400
5.449800 1.279000
5.469100 1.275100
5.488300 1.273900
5.507600 1.275200
5.526800 1.279100
5.546100 1.285100
5.565400 1.299500
5.584600 1.323300
5.603900 1.387900
5.623100 1.439200
5.642400 1.460500
5.661600 1.450900
5.680900 1.450600
5.700200 1.467800
5.719400 1.483200
5.738700 1.496400
5.757900 1.509400
5.777200 1.527700
5.796400 1.547500
5.815700 1.565500
5.835000 1.588200
5.854200 1.650700
5.873500 1.762000
5.892700 1.772800
5.912000 1.819900
5.931200 1.958600
5.950500 2.104100
5.969800 2.209300
5.989000 2.263200
6.008300 2.267800
6.027500 2.243300
6.046800 2.153400
6.066000 2.028600
6.085300 1.883000
6.104500 1.702500
6.123800 1.619400
6.143100 1.557800
6.162300 1.511800
6.181600 1.480300
6.200800 1.454900
6.220100 1.435900
6.239300 1.420700
6.258600 1.408600
6.277900 1.398900
6.297100 1.390000
6.316400 1.380900
6.335600 1.371400
6.354900 1.360300
6.374100 1.348300
6.393400 1.333900
6.412700 1.316800
6.431900 1.296700
6.451200 1.274300
6.470400 1.253600
6.489700 1.248800
6.508900 1.247900
6.528200 1.249200
6.547500 1.252000
6.566700 1.256000
6.586000 1.255600
6.605200 1.252900
6.624500 1.259000
6.643700 1.268800
6.663000 1.283300
6.682300 1.297500
6.701500 1.310100
6.720800 1.321100
6.740000 1.330500
6.759300 1.338300
6.778500 1.357100
6.797800 1.393600
6.817000 1.447700
6.836300 1.518100
6.855600 1.556600
6.874800 1.559800
6.894100 1.569900
6.913300 1.581600
6.932600 1.594100
6.951800 1.607300
6.971100 1.620400
6.990400 1.636200
7.009600 1.680500
7.028900 1.763500
7.048100 1.781100
7.067400 1.755100
7.086600 1.777600
7.105900 1.801900
7.125200 1.835000
7.144400 1.863900
7.163700 1.881200
7.182900 1.887100
7.202200 1.883500
7.221400 1.870300
7.240700 1.852100
7.260000 1.833400
7.279200 1.814100
7.298500 1.794200
7.317700 1.773400
7.337000 1.752500
7.356200 1.734500
7.375500 1.715600
7.394800 1.695100
7.414000 1.672700
7.433300 1.649000
7.452500 1.632700
7.471800 1.623400
7.491000 1.615800
7.510300 1.609600
7.529600 1.604900
7.548800 1.602700
7.568100 1.602700
7.587300 1.604200
7.606600 1.606300
7.625800 1.610600
7.645100 1.616000
7.664300 1.622000
7.683600 1.628900
7.702900 1.636400
7.722100 1.644100
7.741400 1.652100
7.760600 1.662300
7.779900 1.684200
7.799100 1.723300
7.818400 1.760300
7.837700 1.782400
7.856900 1.797200
7.876200 1.804100
7.895400 1.803400
7.914700 1.795100
7.933900 1.801700
7.953200 1.806600
7.972500 1.808000
7.991700 1.805300
8.011000 1.802700
8.030200 1.824600
8.049500 1.824300
8.068700 1.775200
8.088000 1.702500
8.107300 1.687400
8.126500 1.691400
8.145800 1.694800
8.165000 1.696200
8.184300 1.697400
8.203500 1.701100
8.222800 1.706900
8.242100 1.712000
8.261300 1.717300
8.280600 1.729100
8.299800 1.748400
8.319100 1.775600
8.338300 1.823100
8.357600 1.890900
8.376900 1.886900
8.396100 1.858800
8.415400 1.806600
8.434600 1.797900
8.453900 1.797000
8.473100 1.798500
8.492400 1.802300
8.511600 1.808600
8.530900 1.817300
8.550200 1.828000
8.569400 1.841400
8.588700 1.855700
8.607900 1.869600
8.627200 1.893300
8.646400 1.939100
8.665700 1.980300
8.685000 2.016900
8.704200 2.048900
8.723500 2.076400
8.742700 2.099200
8.762000 2.116700
8.781200 2.124500
8.800500 2.122900
8.819800 2.110900
8.839000 2.099700
8.858300 2.091100
8.877500 2.083900
8.896800 2.075900
8.916000 2.066900
8.935300 2.057400
8.954600 2.047700
8.973800 2.039200
8.993100 2.364700
9.012300 2.202100
9.031600 2.092300
9.050800 2.081100
9.070100 2.082100
9.089400 2.081500
9.108600 2.079300
9.127900 2.075700
9.147100 2.074700
9.166400 2.071400
9.185600 2.065500
9.204900 2.058000
9.224100 2.049100
9.243400 2.040200
9.262700 2.033100
9.281900 2.025400
9.301200 2.013600
9.320400 1.998200
9.339700 1.985000
9.358900 1.975100
9.378200 1.969800
9.397500 1.969800
9.416700 1.974300
9.436000 1.984200
9.455200 1.997400
9.474500 2.013100
9.493700 2.031400
9.513000 2.052500
9.532300 2.076100
9.551500 2.103900
9.570800 2.135900
9.590000 2.171900
9.609300 2.268500
9.628500 2.296200
9.647800 2.537400
9.667100 2.270200
9.686300 2.173800
9.705600 2.061100
9.724800 1.938500
9.744100 1.911600
9.763300 1.880400
9.782600 1.848800
9.801900 1.820700
9.821100 1.795900
9.840400 1.774500
9.859600 1.756600
9.878900 1.742100
9.898100 1.729600
9.917400 1.798500
9.936700 1.924100
9.955900 1.937700
9.975200 1.833900
9.994400 1.832100
10.013700 1.837100
10.032900 1.840900
10.052200 1.841400
10.071400 1.835400
10.090700 1.818700
10.110000 1.792200
10.129200 1.773500
10.148500 1.761500
10.167700 1.746100
10.187000 1.731400
10.206200 1.726000
10.225500 1.729300
10.244800 1.735400
10.264000 1.743900
10.283300 1.764900
10.302500 1.788900
10.321800 1.806200
10.341000 1.816700
10.360300 1.820900
10.379600 1.819300
10.398800 1.812400
10.418100 1.804800
10.437300 1.790700
10.456600 1.777500
10.475800 1.765000
10.495100 1.774000
10.514400 1.787600
10.533600 1.794200
10.552900 1.798000
10.572100 1.812700
10.591400 1.835000
10.610600 1.900000
10.629900 2.011700
10.649200 2.101100
10.668400 2.157100
10.687700 2.162500
10.706900 2.174500
10.726200 2.181600
10.745400 2.199600
10.764700 2.233800
10.784000 2.271700
10.803200 2.333700
10.822500 2.355100
10.841700 2.357200
10.861000 2.353700
10.880200 2.342800
10.899500 2.337000
10.918700 2.338600
10.938000 2.333800
10.957300 2.324400
10.976500 2.316100
10.995800 2.366200
11.015000 2.438400
11.034300 2.450200
11.053500 2.431300
11.072800 2.399900
11.092100 2.343100
11.111300 2.150600
11.130600 2.118700
11.149800 2.092600
11.169100 2.066200
11.188300 2.041200
11.207600 2.015500
11.226900 1.989100
11.246100 1.962100
11.265400 1.935500
11.284600 1.909600
11.303900 1.884500
11.323100 1.860500
11.342400 1.841100
11.361700 1.836600
11.380900 1.833600
11.400200 1.832600
11.419400 1.833100
11.438700 1.834600
11.457900 1.837500
11.477200 1.841800
11.496500 1.849400
11.515700 1.859300
11.535000 1.871700
11.554200 1.886100
11.573500 1.898900
11.592700 1.912400
11.612000 1.928600
11.631200 1.940400
11.650500 1.950300
11.669800 1.954800
11.689000 1.955000
11.708300 1.956100
11.727500 1.958500
11.746800 2.010000
11.766000 2.055800
11.785300 2.095200
11.804600 2.129100
11.823800 2.058300
11.843100 2.035500
11.862300 2.034000
11.881600 2.024200
11.900800 2.004400
11.920100 1.999100
11.939400 2.001000
11.958600 2.002500
11.977900 2.003700
11.997100 2.004300
12.016400 2.003800
12.035600 2.001900
12.054900 1.998600
12.074200 1.994500
12.093400 1.989800
12.112700 1.977400
12.131900 1.943500
12.151200 1.905300
12.170400 1.877600
12.189700 1.866600
12.209000 1.863600
12.228200 1.868500
12.247500 1.879700
12.266700 1.899400
12.286000 1.931700
12.305200 1.968700
12.324500 1.981000
12.343800 1.989700
12.363000 1.994900
12.382300 1.994500
12.401500 1.988700
12.420800 1.982500
12.440000 1.976100
12.459300 1.970200
12.478500 1.965000
12.497800 1.955700
