set title 'mp-1592 - Density of States'
set xlabel 'Energy (eV)'
set ylabel 'DOS (states/eV)'
set grid
set xrange [-10:10]
set yrange [0:77.804]
set xzeroaxis lt -1
set terminal png size 800,600
set output 'mp-1592_dos_gnuplot.png'
plot '-' using 1:2 with lines title 'DOS'
-9.167300 0.000000
-9.149600 0.000000
-9.131900 0.000000
-9.114200 0.000000
-9.096500 0.000000
-9.078900 0.000000
-9.061200 0.000000
-9.043500 0.000000
-9.025800 0.000000
-9.008100 0.000000
-8.990400 0.000000
-8.972700 0.000000
-8.955000 0.000000
-8.937300 0.000000
-8.919600 0.000000
-8.901900 0.000000
-8.884200 0.000000
-8.866500 0.000000
-8.848800 0.000000
-8.831100 0.000000
-8.813500 0.000000
-8.795800 0.000000
-8.778100 0.000000
-8.760400 0.000000
-8.742700 0.000000
-8.725000 0.000000
-8.707300 0.000000
-8.689600 0.000000
-8.671900 0.000000
-8.654200 0.000000
-8.636500 0.000000
-8.618800 0.000000
-8.601100 0.000000
-8.583400 0.000000
-8.565800 0.000000
-8.548100 0.000000
-8.530400 0.000000
-8.512700 0.000000
-8.495000 0.000000
-8.477300 0.000000
-8.459600 0.000000
-8.441900 0.000000
-8.424200 0.000000
-8.406500 0.000000
-8.388800 0.000000
-8.371100 0.000000
-8.353400 0.000000
-8.335700 0.000000
-8.318100 0.000000
-8.300400 0.000000
-8.282700 0.000000
-8.265000 0.000000
-8.247300 0.000000
-8.229600 0.000000
-8.211900 0.000000
-8.194200 0.000000
-8.176500 0.000000
-8.158800 0.000000
-8.141100 0.000000
-8.123400 0.000000
-8.105700 0.000000
-8.088000 0.000000
-8.070400 0.000000
-8.052700 0.000000
-8.035000 0.000000
-8.017300 0.000000
-7.999600 0.000000
-7.981900 0.000000
-7.964200 0.000000
-7.946500 0.000000
-7.928800 0.000000
-7.911100 0.000000
-7.893400 0.000000
-7.875700 0.000000
-7.858000 0.000000
-7.840300 0.000000
-7.822700 0.000000
-7.805000 0.000000
-7.787300 0.000000
-7.769600 0.000000
-7.751900 0.000000
-7.734200 0.000000
-7.716500 0.000000
-7.698800 0.000000
-7.681100 0.000000
-7.663400 0.000000
-7.645700 0.000000
-7.628000 0.000000
-7.610300 0.000000
-7.592600 0.000000
-7.575000 0.000000
-7.557300 0.000300
-7.539600 0.039500
-7.521900 0.145000
-7.504200 0.316900
-7.486500 0.555200
-7.468800 0.859800
-7.451100 1.228600
-7.433400 1.653500
-7.415700 2.195800
-7.398000 2.744400
-7.380300 3.312400
-7.362600 3.868400
-7.344900 4.284100
-7.327300 4.536300
-7.309600 4.681900
-7.291900 4.704900
-7.274200 4.646300
-7.256500 4.531900
-7.238800 4.361800
-7.221100 4.136000
-7.203400 3.860300
-7.185700 3.632400
-7.168000 3.566500
-7.150300 4.509500
-7.132600 6.275600
-7.114900 7.545800
-7.097200 8.438900
-7.079600 9.087600
-7.061900 10.325400
-7.044200 11.417600
-7.026500 12.687000
-7.008800 14.224700
-6.991100 15.585200
-6.973400 19.592000
-6.955700 22.976400
-6.938000 23.781100
-6.920300 22.492800
-6.902600 16.585200
-6.884900 12.393900
-6.867200 15.931700
-6.849500 19.184500
-6.831900 25.749900
-6.814200 43.289200
-6.796500 44.926500
-6.778800 26.214300
-6.761100 0.000000
-6.743400 0.000000
-6.725700 0.000000
-6.708000 0.000000
-6.690300 0.000000
-6.672600 0.000000
-6.654900 0.000000
-6.637200 0.000000
-6.619500 0.000000
-6.601800 0.000000
-6.584200 0.000000
-6.566500 0.000000
-6.548800 0.000000
-6.531100 0.000000
-6.513400 0.000000
-6.495700 0.000000
-6.478000 0.000000
-6.460300 0.000000
-6.442600 0.000000
-6.424900 0.000000
-6.407200 0.000000
-6.389500 0.000000
-6.371800 0.000000
-6.354100 0.000000
-6.336500 0.000000
-6.318800 0.000000
-6.301100 0.000000
-6.283400 0.000000
-6.265700 0.000000
-6.248000 0.000000
-6.230300 0.000000
-6.212600 0.000000
-6.194900 0.000000
-6.177200 0.000000
-6.159500 0.000000
-6.141800 0.000000
-6.124100 0.000000
-6.106400 0.000000
-6.088800 0.000000
-6.071100 0.000000
-6.053400 0.000000
-6.035700 0.000000
-6.018000 0.000000
-6.000300 0.000000
-5.982600 0.000000
-5.964900 0.000000
-5.947200 0.000000
-5.929500 0.000000
-5.911800 0.000000
-5.894100 0.000000
-5.876400 0.000000
-5.858700 0.000000
-5.841100 0.000000
-5.823400 0.000000
-5.805700 0.000000
-5.788000 0.000000
-5.770300 0.000000
-5.752600 0.000000
-5.734900 0.000000
-5.717200 0.000000
-5.699500 0.000000
-5.681800 0.000000
-5.664100 0.000000
-5.646400 0.000000
-5.628700 0.000000
-5.611000 0.000000
-5.593400 0.000000
-5.575700 0.000000
-5.558000 0.000000
-5.540300 0.000000
-5.522600 0.000000
-5.504900 0.000000
-5.487200 0.000000
-5.469500 0.000000
-5.451800 0.000000
-5.434100 0.000000
-5.416400 0.000000
-5.398700 0.000000
-5.381000 0.000000
-5.363300 0.000000
-5.345700 0.000000
-5.328000 0.000000
-5.310300 0.000000
-5.292600 0.000000
-5.274900 0.000000
-5.257200 0.000000
-5.239500 0.000000
-5.221800 0.000000
-5.204100 0.000000
-5.186400 0.000000
-5.168700 0.000000
-5.151000 0.000000
-5.133300 0.000000
-5.115600 0.000000
-5.098000 0.000000
-5.080300 0.000000
-5.062600 0.000000
-5.044900 0.000000
-5.027200 0.000000
-5.009500 0.000000
-4.991800 0.000000
-4.974100 0.000000
-4.956400 0.000000
-4.938700 0.000000
-4.921000 0.000000
-4.903300 0.000000
-4.885600 0.000000
-4.867900 0.000000
-4.850300 0.000000
-4.832600 0.000000
-4.814900 0.000000
-4.797200 0.000000
-4.779500 0.000000
-4.761800 0.000000
-4.744100 0.000000
-4.726400 0.000000
-4.708700 0.000000
-4.691000 0.000000
-4.673300 0.000000
-4.655600 0.000000
-4.637900 0.000000
-4.620200 0.000000
-4.602500 0.000000
-4.584900 0.000000
-4.567200 0.000000
-4.549500 0.000000
-4.531800 0.000000
-4.514100 0.000000
-4.496400 0.000000
-4.478700 0.000000
-4.461000 0.000000
-4.443300 0.000000
-4.425600 0.000000
-4.407900 0.000000
-4.390200 0.000000
-4.372500 0.000000
-4.354800 0.000000
-4.337200 0.000000
-4.319500 0.000000
-4.301800 0.000000
-4.284100 0.000000
-4.266400 0.000000
-4.248700 0.000000
-4.231000 0.000000
-4.213300 0.000000
-4.195600 0.000000
-4.177900 0.000000
-4.160200 0.000000
-4.142500 0.000000
-4.124800 0.000000
-4.107100 0.000000
-4.089500 0.000000
-4.071800 0.000000
-4.054100 0.000000
-4.036400 0.000000
-4.018700 0.000000
-4.001000 0.000000
-3.983300 0.000000
-3.965600 0.000000
-3.947900 0.000000
-3.930200 0.000000
-3.912500 0.000000
-3.894800 0.000000
-3.877100 0.000000
-3.859400 0.000000
-3.841800 0.000000
-3.824100 0.000000
-3.806400 0.000000
-3.788700 0.000000
-3.771000 0.000000
-3.753300 0.000000
-3.735600 0.000000
-3.717900 0.000000
-3.700200 0.000000
-3.682500 0.000000
-3.664800 0.000000
-3.647100 0.000000
-3.629400 0.000000
-3.611700 0.000000
-3.594100 0.000000
-3.576400 0.000000
-3.558700 0.000000
-3.541000 0.000000
-3.523300 0.000000
-3.505600 0.000000
-3.487900 0.000000
-3.470200 0.000000
-3.452500 0.000000
-3.434800 0.000000
-3.417100 0.000000
-3.399400 0.000000
-3.381700 0.000000
-3.364000 0.000000
-3.346400 0.000000
-3.328700 0.000000
-3.311000 0.000000
-3.293300 0.000000
-3.275600 0.000000
-3.257900 0.000000
-3.240200 0.000000
-3.222500 0.000000
-3.204800 0.000000
-3.187100 0.000000
-3.169400 0.000000
-3.151700 0.000000
-3.134000 0.000000
-3.116300 0.000000
-3.098700 0.000000
-3.081000 0.000000
-3.063300 0.000000
-3.045600 0.000000
-3.027900 0.000000
-3.010200 0.000000
-2.992500 0.000000
-2.974800 0.000000
-2.957100 0.000000
-2.939400 0.000000
-2.921700 0.000000
-2.904000 0.000000
-2.886300 0.000000
-2.868600 0.000000
-2.851000 0.000000
-2.833300 0.000000
-2.815600 0.000000
-2.797900 0.000000
-2.780200 0.000000
-2.762500 0.000000
-2.744800 0.000000
-2.727100 0.000000
-2.709400 0.000000
-2.691700 0.000000
-2.674000 0.000000
-2.656300 0.000000
-2.638600 0.000000
-2.620900 0.000000
-2.603300 0.000000
-2.585600 0.000000
-2.567900 0.000000
-2.550200 0.000000
-2.532500 0.000000
-2.514800 0.000000
-2.497100 0.000000
-2.479400 0.000000
-2.461700 0.000000
-2.444000 0.000000
-2.426300 0.000000
-2.408600 0.000000
-2.390900 0.000000
-2.373200 0.000000
-2.355600 0.000000
-2.337900 0.000000
-2.320200 0.000000
-2.302500 0.000000
-2.284800 0.000000
-2.267100 0.000000
-2.249400 0.000000
-2.231700 0.000000
-2.214000 0.000000
-2.196300 0.000000
-2.178600 0.000000
-2.160900 0.000000
-2.143200 0.000000
-2.125500 0.000000
-2.107900 0.000000
-2.090200 0.000000
-2.072500 0.000000
-2.054800 0.000000
-2.037100 0.000000
-2.019400 0.000000
-2.001700 0.000000
-1.984000 0.000000
-1.966300 0.000000
-1.948600 0.000000
-1.930900 0.000000
-1.913200 0.000000
-1.895500 0.000000
-1.877800 0.000000
-1.860200 0.000000
-1.842500 0.000000
-1.824800 0.000000
-1.807100 0.000000
-1.789400 0.000000
-1.771700 0.000000
-1.754000 0.000000
-1.736300 0.000000
-1.718600 0.000000
-1.700900 0.000000
-1.683200 0.000000
-1.665500 0.000000
-1.647800 0.000000
-1.630100 0.000000
-1.612500 0.000000
-1.594800 0.000000
-1.577100 0.000000
-1.559400 0.097000
-1.541700 1.524800
-1.524000 8.746000
-1.506300 12.488800
-1.488600 23.268500
-1.470900 17.553100
-1.453200 10.499000
-1.435500 12.021100
-1.417800 18.442600
-1.400100 28.198600
-1.382400 27.987900
-1.364800 25.683800
-1.347100 20.756500
-1.329400 16.457500
-1.311700 10.255700
-1.294000 10.532500
-1.276300 19.087400
-1.258600 27.445800
-1.240900 26.556600
-1.223200 24.976400
-1.205500 19.505300
-1.187800 17.968800
-1.170100 16.167000
-1.152400 16.678700
-1.134700 14.800800
-1.117100 13.903000
-1.099400 6.550200
-1.081700 1.732400
-1.064000 16.175400
-1.046300 30.780300
-1.028600 27.390100
-1.010900 32.357200
-0.993200 56.554500
-0.975500 43.225200
-0.957800 26.667900
-0.940100 21.621000
-0.922400 26.753100
-0.904700 26.944700
-0.887000 53.139200
-0.869400 36.276500
-0.851700 33.477300
-0.834000 40.836500
-0.816300 35.248300
-0.798600 30.129500
-0.780900 29.385500
-0.763200 32.522500
-0.745500 38.764200
-0.727800 32.719700
-0.710100 28.107000
-0.692400 31.779300
-0.674700 31.877900
-0.657000 37.862300
-0.639300 37.126000
-0.621700 37.182300
-0.604000 30.275900
-0.586300 30.291800
-0.568600 26.382700
-0.550900 21.729700
-0.533200 22.700100
-0.515500 30.621100
-0.497800 45.423900
-0.480100 43.545700
-0.462400 43.902300
-0.444700 30.074600
-0.427000 29.796400
-0.409300 33.232400
-0.391600 30.329000
-0.374000 37.155400
-0.356300 29.961200
-0.338600 32.625300
-0.320900 34.528300
-0.303200 26.731600
-0.285500 41.634300
-0.267800 70.730800
-0.250100 19.499500
-0.232400 20.551500
-0.214700 33.165100
-0.197000 35.710300
-0.179300 49.879400
-0.161600 39.666100
-0.143900 33.639600
-0.126200 7.771600
-0.108600 24.060700
-0.090900 50.645600
-0.073200 64.850900
-0.055500 46.888600
-0.037800 46.241700
-0.020100 6.338900
-0.002400 58.627100
0.015300 43.972800
0.033000 70.612000
0.050700 38.659500
0.068400 11.701400
0.086100 17.290900
0.103800 41.363500
0.121500 40.385000
0.139100 33.442400
0.156800 37.280900
0.174500 40.884800
0.192200 34.889200
0.209900 48.074000
0.227600 32.330600
0.245300 27.238700
0.263000 38.564600
0.280700 29.773200
0.298400 22.331600
0.316100 32.446400
0.333800 64.548000
0.351500 48.830500
0.369200 39.383000
0.386800 33.439500
0.404500 31.456600
0.422200 48.502000
0.439900 62.849000
0.457600 39.442500
0.475300 35.531200
0.493000 33.620600
0.510700 65.331700
0.528400 62.242700
0.546100 40.722800
0.563800 34.026000
0.581500 27.852000
0.599200 52.183000
0.616900 61.739800
0.634500 33.796700
0.652200 35.691800
0.669900 48.490500
0.687600 60.788100
0.705300 53.991800
0.723000 43.365300
0.740700 58.770700
0.758400 27.728600
0.776100 53.515900
0.793800 48.447700
0.811500 30.630000
0.829200 21.999600
0.846900 19.727400
0.864600 16.510300
0.882200 2.837000
0.899900 1.209600
0.917600 5.855700
0.935300 9.737100
0.953000 12.855000
0.970700 15.984900
0.988400 19.833700
1.006100 25.003300
1.023800 24.099400
1.041500 22.857900
1.059200 16.108100
1.076900 10.598700
1.094600 8.674300
1.112300 8.405900
1.129900 9.243200
1.147600 9.965700
1.165300 11.187400
1.183000 12.643600
1.200700 14.473700
1.218400 15.289600
1.236100 15.497500
1.253800 15.459400
1.271500 14.956000
1.289200 13.071900
1.306900 14.864200
1.324600 9.950200
1.342300 10.061700
1.360000 9.182700
1.377600 8.342200
1.395300 7.225200
1.413000 5.015800
1.430700 3.311800
1.448400 2.890800
1.466100 2.983700
1.483800 3.094800
1.501500 3.212700
1.519200 3.303100
1.536900 3.365900
1.554600 3.411100
1.572300 3.563300
1.590000 3.553600
1.607700 4.042100
1.625300 4.578000
1.643000 5.132500
1.660700 5.681400
1.678400 6.653400
1.696100 7.058200
1.713800 7.375000
1.731500 7.621600
1.749200 7.890600
1.766900 7.912300
1.784600 7.444900
1.802300 7.086900
1.820000 6.904000
1.837700 6.942500
1.855400 7.047200
1.873000 7.185600
1.890700 7.357700
1.908400 7.666100
1.926100 11.744100
1.943800 10.622200
1.961500 7.606100
1.979200 5.741600
1.996900 5.717800
2.014600 5.715300
2.032300 5.687200
2.050000 5.603400
2.067700 5.485500
2.085400 5.337800
2.103100 5.160300
2.120700 5.033600
2.138400 4.908400
2.156100 4.894800
2.173800 4.984700
2.191500 5.219100
2.209200 5.506900
2.226900 5.821400
2.244600 6.095100
2.262300 6.253200
2.280000 6.487500
2.297700 10.112600
2.315400 10.179700
2.333100 10.601700
2.350800 10.408700
2.368400 9.823900
2.386100 9.657200
2.403800 9.145600
2.421500 8.120600
2.439200 7.191000
2.456900 6.840600
2.474600 6.659000
2.492300 6.488000
2.510000 6.301900
2.527700 6.109100
2.545400 5.968400
2.563100 5.761900
2.580800 5.595200
2.598500 5.559500
2.616100 5.555100
2.633800 5.562700
2.651500 5.621200
2.669200 5.546800
2.686900 5.423800
2.704600 5.338600
2.722300 5.310400
2.740000 5.578400
2.757700 6.290600
2.775400 6.936300
2.793100 7.496000
2.810800 8.402000
2.828500 8.928200
2.846200 9.688400
2.863800 9.695000
2.881500 9.039600
2.899200 9.233200
2.916900 9.418800
2.934600 8.431400
2.952300 8.042600
2.970000 7.891700
2.987700 7.654100
3.005400 7.784300
3.023100 8.313500
3.040800 8.154000
3.058500 7.803800
3.076200 7.458900
3.093900 7.310300
3.111500 7.255200
3.129200 7.106600
3.146900 7.033300
3.164600 7.075400
3.182300 7.167100
3.200000 7.124900
3.217700 6.912300
3.235400 6.623800
3.253100 6.245400
3.270800 5.763900
3.288500 5.178800
3.306200 4.530000
3.323900 4.622000
3.341600 5.176800
3.359200 6.174700
3.376900 6.356600
3.394600 6.982500
3.412300 7.438300
3.430000 7.871800
3.447700 8.282800
3.465400 8.671400
3.483100 9.037100
3.500800 9.376000
3.518500 9.984600
3.536200 11.166300
3.553900 8.702900
3.571600 7.170300
3.589300 6.210500
3.606900 5.941300
3.624600 5.749900
3.642300 5.639300
3.660000 5.615000
3.677700 5.562500
3.695400 5.497800
3.713100 5.407700
3.730800 5.012100
3.748500 4.884300
3.766200 4.779500
3.783900 4.692900
3.801600 4.996400
3.819300 5.788900
3.837000 6.455500
3.854600 6.815500
3.872300 6.777000
3.890000 6.258100
3.907700 5.625200
3.925400 5.067300
3.943100 4.811700
3.960800 4.624200
3.978500 4.421400
3.996200 4.195200
4.013900 3.918900
4.031600 3.621800
4.049300 3.307200
4.067000 2.992400
4.084700 2.673400
4.102400 2.349900
4.120000 2.018700
4.137700 1.560500
4.155400 0.748400
4.173100 0.221100
4.190800 0.000400
4.208500 0.001200
4.226200 0.002500
4.243900 0.004300
4.261600 0.006600
4.279300 0.009300
4.297000 0.012500
4.314700 0.016200
4.332400 0.020400
4.350100 0.025100
4.367700 0.030200
4.385400 0.035900
4.403100 0.042000
4.420800 0.048500
4.438500 0.055600
4.456200 0.063100
4.473900 0.071200
4.491600 0.079700
4.509300 0.088600
4.527000 0.098100
4.544700 0.108000
4.562400 0.118500
4.580100 0.129400
4.597800 0.140700
4.615400 0.152600
4.633100 0.164900
4.650800 0.177800
4.668500 0.191100
4.686200 0.204800
4.703900 0.219100
4.721600 0.233800
4.739300 0.249300
4.757000 0.270200
4.774700 0.307400
4.792400 0.350800
4.810100 0.400300
4.827800 0.456000
4.845500 0.517900
4.863100 0.585900
4.880800 0.660100
4.898500 0.743500
4.916200 0.835900
4.933900 0.934600
4.951600 1.039700
4.969300 1.151000
4.987000 1.268600
5.004700 1.392600
5.022400 1.522800
5.040100 1.659400
5.057800 1.802200
5.075500 1.959400
5.093200 2.526400
5.110800 2.968300
5.128500 3.196400
5.146200 3.360300
5.163900 3.459900
5.181600 3.495400
5.199300 3.466700
5.217000 3.555300
5.234700 3.649600
5.252400 3.755300
5.270100 3.825800
5.287800 3.852400
5.305500 3.872000
5.323200 3.979000
5.340900 4.101300
5.358500 4.197900
5.376200 4.268600
5.393900 4.374000
5.411600 4.481800
5.429300 4.573400
5.447000 4.677600
5.464700 4.788800
5.482400 4.896700
5.500100 5.002100
5.517800 4.623900
5.535500 4.573200
5.553200 4.516000
5.570900 4.452000
5.588600 4.381500
5.606200 4.345000
5.623900 4.321000
5.641600 4.293800
5.659300 4.267900
5.677000 4.314400
5.694700 4.447900
5.712400 4.525300
5.730100 4.518200
5.747800 4.516800
5.765500 4.520900
5.783200 4.530200
5.800900 4.542100
5.818600 4.551000
5.836300 4.553800
5.853900 4.562100
5.871600 4.575900
5.889300 4.595100
5.907000 4.645200
5.924700 4.799000
5.942400 5.026800
5.960100 5.277800
5.977800 5.667200
5.995500 5.887700
6.013200 5.739200
6.030900 5.956500
6.048600 5.860800
6.066300 5.729600
6.084000 5.669100
6.101600 5.796600
6.119300 6.619400
6.137000 10.653200
6.154700 7.659500
6.172400 7.328600
6.190100 7.116700
6.207800 6.968800
6.225500 6.736400
6.243200 6.362100
6.260900 6.032000
6.278600 5.769300
6.296300 5.570900
6.314000 5.413600
6.331700 5.292200
6.349300 5.206400
6.367000 5.140400
6.384700 5.114700
6.402400 5.049500
6.420100 5.034800
6.437800 5.070400
6.455500 5.140800
6.473200 5.235800
6.490900 5.638300
6.508600 5.698000
6.526300 5.779500
6.544000 5.894400
6.561700 6.009000
6.579400 5.802000
6.597000 5.507300
6.614700 5.226100
6.632400 5.131300
6.650100 5.013400
6.667800 4.849800
6.685500 4.718600
6.703200 4.621700
6.720900 4.556400
6.738600 4.522400
6.756300 4.555100
6.774000 4.639900
6.791700 4.663800
6.809400 4.711500
6.827100 4.766100
6.844700 4.827000
6.862400 4.894200
6.880100 4.971200
6.897800 5.079600
6.915500 5.223100
6.933200 5.392500
6.950900 5.253500
6.968600 5.450700
6.986300 5.612700
7.004000 5.711000
7.021700 5.736000
7.039400 5.644700
7.057100 5.474500
7.074800 5.232700
7.092400 5.096700
7.110100 5.048300
7.127800 5.059900
7.145500 5.008700
7.163200 4.922300
7.180900 4.805600
7.198600 4.689700
7.216300 4.938100
7.234000 5.031000
7.251700 5.188000
7.269400 5.433200
7.287100 5.645500
7.304800 5.667700
7.322500 5.551900
7.340100 5.760700
7.357800 6.013000
7.375500 6.308700
7.393200 7.413200
7.410900 7.552000
7.428600 7.690400
7.446300 7.740200
7.464000 7.951000
7.481700 7.547900
7.499400 7.106000
7.517100 6.525100
7.534800 5.825600
7.552500 5.388500
7.570200 5.189800
7.587800 5.052700
7.605500 4.978200
7.623200 4.923300
7.640900 4.874200
7.658600 5.340200
7.676300 6.442600
7.694000 7.483500
7.711700 7.550800
7.729400 5.747300
7.747100 5.689400
7.764800 5.645800
7.782500 5.537400
7.800200 4.915100
7.817900 4.577500
7.835500 4.329700
7.853200 4.165200
7.870900 4.081200
7.888600 4.029800
7.906300 4.001600
7.924000 4.031600
7.941700 4.070400
7.959400 4.113600
7.977100 4.156300
7.994800 4.184200
8.012500 4.192700
8.030200 4.181700
8.047900 4.151200
8.065600 4.166300
8.083200 4.292600
8.100900 4.458100
8.118600 4.286400
8.136300 4.249500
8.154000 4.296800
8.171700 4.366300
8.189400 4.454100
8.207100 4.560400
8.224800 4.685100
8.242500 4.938100
8.260200 5.830800
8.277900 6.030000
8.295600 5.872700
8.313300 5.502500
8.330900 5.348100
8.348600 5.316300
8.366300 5.282400
8.384000 5.231400
8.401700 5.156900
8.419400 5.058900
8.437100 4.946600
8.454800 5.017600
8.472500 5.699600
8.490200 4.032900
8.507900 3.176900
8.525600 3.570700
8.543300 4.003700
8.561000 4.445000
8.578700 4.935000
8.596300 5.675000
8.614000 6.186200
8.631700 6.517600
8.649400 6.654600
8.667100 6.603900
8.684800 6.521800
8.702500 6.440500
8.720200 6.359900
8.737900 6.279800
8.755600 6.199700
8.773300 6.122100
8.791000 5.773800
8.808700 5.327700
8.826400 4.763800
8.844000 3.800000
8.861700 5.057400
8.879400 6.944600
8.897100 8.762500
8.914800 8.186800
8.932500 5.437200
8.950200 5.045100
8.967900 4.698500
8.985600 4.527400
9.003300 4.432900
9.021000 4.359500
9.038700 4.307200
9.056400 4.275900
9.074100 4.272600
9.091700 4.303800
9.109400 4.327700
9.127100 4.336600
9.144800 4.319800
9.162500 4.286400
9.180200 4.162500
9.197900 4.006900
9.215600 3.856300
9.233300 3.716500
9.251000 3.610300
9.268700 4.752200
9.286400 6.697600
9.304100 7.293300
9.321800 7.169800
9.339400 6.745300
9.357100 6.606000
9.374800 6.434500
9.392500 6.231000
9.410200 5.995300
9.427900 5.741800
9.445600 5.523600
9.463300 5.262400
9.481000 5.061200
9.498700 4.972900
9.516400 4.999300
