set title 'mp-1183208 - Density of States'
set xlabel 'Energy (eV)'
set ylabel 'DOS (states/eV)'
set grid
set xrange [-10:10]
set yrange [0:7.053]
set xzeroaxis lt -1
set terminal png size 800,600
set output 'mp-1183208_dos_gnuplot.png'
plot '-' using 1:2 with lines title 'DOS'
-12.526300 0.000000
-12.503300 0.000000
-12.480300 0.000000
-12.457300 0.000000
-12.434400 0.000000
-12.411400 0.000000
-12.388400 0.000000
-12.365400 0.000000
-12.342400 0.000000
-12.319400 0.000000
-12.296400 0.000000
-12.273400 0.000000
-12.250400 0.000000
-12.227500 0.000000
-12.204500 0.000000
-12.181500 0.000000
-12.158500 0.000000
-12.135500 0.000000
-12.112500 0.000000
-12.089500 0.000000
-12.066500 0.000000
-12.043500 0.000000
-12.020600 0.000000
-11.997600 0.000000
-11.974600 0.000000
-11.951600 0.000000
-11.928600 0.000000
-11.905600 0.000000
-11.882600 0.000000
-11.859600 0.000000
-11.836600 0.000000
-11.813600 0.000000
-11.790700 0.000000
-11.767700 0.000000
-11.744700 0.000000
-11.721700 0.000000
-11.698700 0.000000
-11.675700 0.000000
-11.652700 0.000000
-11.629700 0.000000
-11.606700 0.000000
-11.583800 0.000000
-11.560800 0.000000
-11.537800 0.000000
-11.514800 0.000000
-11.491800 0.000000
-11.468800 0.000000
-11.445800 0.000000
-11.422800 0.000000
-11.399800 0.000000
-11.376800 0.000000
-11.353900 0.000000
-11.330900 0.000000
-11.307900 0.000000
-11.284900 0.000000
-11.261900 0.000000
-11.238900 0.000000
-11.215900 0.000000
-11.192900 0.000000
-11.169900 0.000000
-11.147000 0.000000
-11.124000 0.000000
-11.101000 0.000000
-11.078000 0.000000
-11.055000 0.000000
-11.032000 0.000000
-11.009000 0.000000
-10.986000 0.000000
-10.963000 0.000000
-10.940000 0.000000
-10.917100 0.000000
-10.894100 0.000000
-10.871100 0.000000
-10.848100 0.000000
-10.825100 0.000000
-10.802100 0.000000
-10.779100 0.000000
-10.756100 0.000000
-10.733100 0.000000
-10.710200 0.000000
-10.687200 0.000000
-10.664200 0.000000
-10.641200 0.000000
-10.618200 0.000000
-10.595200 0.000000
-10.572200 0.000000
-10.549200 0.000000
-10.526200 0.000000
-10.503200 0.000000
-10.480300 0.000000
-10.457300 0.000000
-10.434300 0.406800
-10.411300 7.863200
-10.388300 16.080800
-10.365300 43.829900
-10.342300 86.311700
-10.319300 83.904800
-10.296300 74.097000
-10.273400 118.780900
-10.250400 92.833900
-10.227400 113.358900
-10.204400 130.750900
-10.181400 133.560500
-10.158400 95.545000
-10.135400 70.302300
-10.112400 93.585400
-10.089400 126.256200
-10.066400 36.749300
-10.043500 31.598200
-10.020500 8.521400
-9.997500 6.411600
-9.974500 5.270400
-9.951500 0.000000
-9.928500 0.000000
-9.905500 0.000000
-9.882500 0.000000
-9.859500 0.000000
-9.836600 0.000000
-9.813600 0.000000
-9.790600 0.000000
-9.767600 0.000000
-9.744600 0.000000
-9.721600 0.000000
-9.698600 0.000000
-9.675600 0.000000
-9.652600 0.000000
-9.629600 0.000000
-9.606700 0.000000
-9.583700 0.000000
-9.560700 0.000000
-9.537700 0.000000
-9.514700 0.000000
-9.491700 0.000000
-9.468700 0.000000
-9.445700 0.000000
-9.422700 0.000000
-9.399800 0.000000
-9.376800 0.000000
-9.353800 0.000000
-9.330800 0.000000
-9.307800 0.000000
-9.284800 0.000000
-9.261800 0.000000
-9.238800 0.000000
-9.215800 0.000000
-9.192800 0.000000
-9.169900 0.000000
-9.146900 0.000000
-9.123900 0.000000
-9.100900 0.000000
-9.077900 0.000000
-9.054900 0.000000
-9.031900 0.000000
-9.008900 0.000000
-8.985900 0.000000
-8.963000 0.000000
-8.940000 0.000000
-8.917000 0.000000
-8.894000 0.000000
-8.871000 0.000000
-8.848000 0.000000
-8.825000 0.000000
-8.802000 0.000000
-8.779000 0.000000
-8.756000 0.000000
-8.733100 0.000000
-8.710100 0.000000
-8.687100 0.000000
-8.664100 0.000000
-8.641100 0.000000
-8.618100 0.000000
-8.595100 0.000000
-8.572100 0.000000
-8.549100 0.000000
-8.526200 0.000000
-8.503200 0.000000
-8.480200 0.000000
-8.457200 0.000000
-8.434200 0.000000
-8.411200 0.000000
-8.388200 0.000000
-8.365200 0.000000
-8.342200 0.000000
-8.319200 0.000000
-8.296300 0.000000
-8.273300 0.000000
-8.250300 0.000000
-8.227300 0.000000
-8.204300 0.000000
-8.181300 0.000000
-8.158300 0.000000
-8.135300 0.000000
-8.112300 0.000000
-8.089400 0.000000
-8.066400 0.000000
-8.043400 0.000000
-8.020400 0.000000
-7.997400 0.000000
-7.974400 0.000000
-7.951400 0.000000
-7.928400 0.000000
-7.905400 0.000000
-7.882400 0.000000
-7.859500 0.000000
-7.836500 0.000000
-7.813500 0.000000
-7.790500 0.000000
-7.767500 0.000000
-7.744500 0.000000
-7.721500 0.000000
-7.698500 0.000000
-7.675500 0.000000
-7.652600 0.000000
-7.629600 0.000000
-7.606600 0.000000
-7.583600 0.000000
-7.560600 0.000000
-7.537600 0.000000
-7.514600 0.000000
-7.491600 0.000000
-7.468600 0.000000
-7.445600 0.000000
-7.422700 0.000000
-7.399700 0.000000
-7.376700 0.000000
-7.353700 0.000000
-7.330700 0.000000
-7.307700 0.000000
-7.284700 0.000000
-7.261700 0.000000
-7.238700 0.000000
-7.215800 0.000000
-7.192800 0.000000
-7.169800 0.000000
-7.146800 0.000000
-7.123800 0.000000
-7.100800 0.000000
-7.077800 0.000000
-7.054800 0.000000
-7.031800 0.000000
-7.008800 0.000000
-6.985900 0.000000
-6.962900 0.000000
-6.939900 0.000000
-6.916900 0.000000
-6.893900 0.000000
-6.870900 0.000000
-6.847900 0.000000
-6.824900 0.000000
-6.801900 0.000000
-6.779000 0.000000
-6.756000 0.000000
-6.733000 0.000000
-6.710000 0.000000
-6.687000 0.000000
-6.664000 0.000000
-6.641000 0.000000
-6.618000 0.000000
-6.595000 0.000000
-6.572000 0.000000
-6.549100 0.000000
-6.526100 0.000000
-6.503100 0.004100
-6.480100 0.026500
-6.457100 0.068200
-6.434100 0.112400
-6.411100 0.145300
-6.388100 0.155100
-6.365100 0.166600
-6.342200 0.180000
-6.319200 0.195400
-6.296200 0.204000
-6.273200 0.217300
-6.250200 0.232700
-6.227200 0.248700
-6.204200 0.264900
-6.181200 0.277500
-6.158200 0.285300
-6.135200 0.289300
-6.112300 0.297300
-6.089300 0.306600
-6.066300 0.314500
-6.043300 0.321100
-6.020300 0.328100
-5.997300 0.334900
-5.974300 0.341800
-5.951300 0.349800
-5.928300 0.358300
-5.905400 0.367000
-5.882400 0.375900
-5.859400 0.385300
-5.836400 0.395300
-5.813400 0.405600
-5.790400 0.413000
-5.767400 0.418800
-5.744400 0.423400
-5.721400 0.427200
-5.698400 0.430900
-5.675500 0.435100
-5.652500 0.440300
-5.629500 0.446000
-5.606500 0.451700
-5.583500 0.457300
-5.560500 0.462900
-5.537500 0.468400
-5.514500 0.473800
-5.491500 0.480000
-5.468600 0.486200
-5.445600 0.492600
-5.422600 0.499400
-5.399600 0.506300
-5.376600 0.513400
-5.353600 0.519700
-5.330600 0.525200
-5.307600 0.531500
-5.284600 0.537900
-5.261600 0.543500
-5.238700 0.548000
-5.215700 0.551300
-5.192700 0.554600
-5.169700 0.558700
-5.146700 0.563200
-5.123700 0.567900
-5.100700 0.572900
-5.077700 0.577900
-5.054700 0.583100
-5.031800 0.588600
-5.008800 0.594300
-4.985800 0.600100
-4.962800 0.605900
-4.939800 0.614500
-4.916800 0.623700
-4.893800 0.632100
-4.870800 0.639600
-4.847800 0.646100
-4.824800 0.652400
-4.801900 0.657800
-4.778900 0.670500
-4.755900 0.679300
-4.732900 0.684200
-4.709900 0.685300
-4.686900 0.682300
-4.663900 0.678400
-4.640900 0.671900
-4.617900 0.672300
-4.595000 0.672900
-4.572000 0.673300
-4.549000 0.673500
-4.526000 0.673400
-4.503000 0.673300
-4.480000 0.673400
-4.457000 0.673600
-4.434000 0.674800
-4.411000 0.676500
-4.388000 0.678800
-4.365100 0.686200
-4.342100 0.704900
-4.319100 0.700700
-4.296100 0.709200
-4.273100 0.718000
-4.250100 0.728600
-4.227100 0.745400
-4.204100 0.768400
-4.181100 0.783100
-4.158200 0.795300
-4.135200 0.805900
-4.112200 0.815800
-4.089200 0.824700
-4.066200 0.832800
-4.043200 0.839700
-4.020200 0.845300
-3.997200 0.872600
-3.974200 0.876700
-3.951200 0.870300
-3.928300 0.859600
-3.905300 0.857300
-3.882300 0.858800
-3.859300 0.859300
-3.836300 0.864300
-3.813300 0.869600
-3.790300 0.875200
-3.767300 0.880800
-3.744300 0.922500
-3.721400 0.977500
-3.698400 0.909800
-3.675400 0.826100
-3.652400 0.786400
-3.629400 0.770900
-3.606400 0.755800
-3.583400 0.741300
-3.560400 0.727100
-3.537400 0.716700
-3.514400 0.708500
-3.491500 0.699500
-3.468500 0.689700
-3.445500 0.706400
-3.422500 0.698000
-3.399500 0.619600
-3.376500 0.618400
-3.353500 0.626600
-3.330500 0.644400
-3.307500 0.666000
-3.284600 0.688700
-3.261600 0.711900
-3.238600 0.735800
-3.215600 0.764200
-3.192600 0.798300
-3.169600 0.824200
-3.146600 0.841100
-3.123600 0.853300
-3.100600 0.869100
-3.077600 0.885200
-3.054700 0.902600
-3.031700 0.916700
-3.008700 0.934200
-2.985700 0.949800
-2.962700 0.963200
-2.939700 0.974000
-2.916700 0.981900
-2.893700 0.976300
-2.870700 0.972100
-2.847800 0.968900
-2.824800 0.955100
-2.801800 0.946000
-2.778800 0.947800
-2.755800 0.953900
-2.732800 0.959300
-2.709800 0.954300
-2.686800 0.948400
-2.663800 0.943400
-2.640900 0.942100
-2.617900 0.940300
-2.594900 0.934500
-2.571900 0.925500
-2.548900 0.918000
-2.525900 0.974700
-2.502900 1.029200
-2.479900 0.930600
-2.456900 0.934400
-2.433900 0.938000
-2.411000 0.941900
-2.388000 0.946700
-2.365000 0.952100
-2.342000 0.957900
-2.319000 0.964200
-2.296000 0.969700
-2.273000 0.975800
-2.250000 0.979800
-2.227000 0.982500
-2.204100 0.987500
-2.181100 0.992200
-2.158100 0.999300
-2.135100 0.986400
-2.112100 0.993400
-2.089100 0.985700
-2.066100 0.992300
-2.043100 1.002200
-2.020100 1.011200
-1.997100 1.017700
-1.974200 1.023100
-1.951200 1.027600
-1.928200 1.031100
-1.905200 1.034400
-1.882200 1.035400
-1.859200 1.039200
-1.836200 1.050200
-1.813200 1.060100
-1.790200 1.065700
-1.767300 1.077500
-1.744300 1.079600
-1.721300 1.081800
-1.698300 1.083800
-1.675300 1.083200
-1.652300 1.081800
-1.629300 1.080000
-1.606300 1.077700
-1.583300 1.075800
-1.560300 1.078800
-1.537400 1.081600
-1.514400 1.098400
-1.491400 1.094400
-1.468400 1.089800
-1.445400 1.085100
-1.422400 1.080400
-1.399400 1.076000
-1.376400 1.071800
-1.353400 1.068000
-1.330500 1.074800
-1.307500 1.082900
-1.284500 1.093100
-1.261500 1.132900
-1.238500 1.137200
-1.215500 1.144100
-1.192500 1.157100
-1.169500 1.167300
-1.146500 1.171200
-1.123500 1.168700
-1.100600 1.165300
-1.077600 1.160900
-1.054600 1.157400
-1.031600 1.159700
-1.008600 1.174300
-0.985600 1.182400
-0.962600 1.134800
-0.939600 1.138300
-0.916600 1.140300
-0.893700 1.143100
-0.870700 1.147800
-0.847700 1.149800
-0.824700 1.148200
-0.801700 1.146900
-0.778700 1.146200
-0.755700 1.146300
-0.732700 1.147000
-0.709700 1.148600
-0.686700 1.150900
-0.663800 1.153900
-0.640800 1.157500
-0.617800 1.162100
-0.594800 1.168200
-0.571800 1.175800
-0.548800 1.185600
-0.525800 1.196500
-0.502800 1.219100
-0.479800 1.230400
-0.456900 1.241700
-0.433900 1.252900
-0.410900 1.265100
-0.387900 1.289400
-0.364900 1.329100
-0.341900 1.314200
-0.318900 1.343300
-0.295900 1.370300
-0.272900 1.396000
-0.249900 1.421000
-0.227000 1.438600
-0.204000 1.403800
-0.181000 1.410000
-0.158000 1.439100
-0.135000 1.461500
-0.112000 1.465800
-0.089000 1.435500
-0.066000 1.416500
-0.043000 1.397300
-0.020100 1.380600
0.002900 1.366700
0.025900 1.352500
0.048900 1.339800
0.071900 1.325900
0.094900 1.313900
0.117900 1.303200
0.140900 1.290300
0.163900 1.274200
0.186900 1.257400
0.209800 1.242400
0.232800 1.286000
0.255800 1.231900
0.278800 1.164900
0.301800 1.128800
0.324800 1.072000
0.347800 1.027000
0.370800 0.990000
0.393800 0.958400
0.416700 0.932200
0.439700 0.900900
0.462700 0.894800
0.485700 0.900900
0.508700 0.901900
0.531700 0.904400
0.554700 0.894700
0.577700 0.906300
0.600700 0.913000
0.623700 0.923200
0.646600 0.934700
0.669600 0.947000
0.692600 0.959700
0.715600 0.978500
0.738600 1.037200
0.761600 1.096700
0.784600 1.158300
0.807600 1.221900
0.830600 1.264300
0.853500 1.279200
0.876500 1.290000
0.899500 1.308500
0.922500 1.334000
0.945500 1.342200
0.968500 1.342400
0.991500 1.337100
1.014500 1.309700
1.037500 1.312500
1.060500 1.317200
1.083400 1.321200
1.106400 1.325700
1.129400 1.355900
1.152400 1.387800
1.175400 1.402800
1.198400 1.403400
1.221400 1.400800
1.244400 1.395700
1.267400 1.407600
1.290300 1.425200
1.313300 1.444000
1.336300 1.642900
1.359300 1.522200
1.382300 1.492900
1.405300 1.465900
1.428300 1.442200
1.451300 1.439700
1.474300 1.457100
1.497300 1.471500
1.520200 1.482400
1.543200 1.480400
1.566200 1.502200
1.589200 1.469500
1.612200 1.442500
1.635200 1.426800
1.658200 1.409400
1.681200 1.375500
1.704200 1.354400
1.727100 1.333400
1.750100 1.318500
1.773100 1.322800
1.796100 1.335300
1.819100 1.350000
1.842100 1.348800
1.865100 1.350800
1.888100 1.365400
1.911100 1.385000
1.934100 1.402400
1.957000 1.345400
1.980000 1.346500
2.003000 1.354000
2.026000 1.364300
2.049000 1.376700
2.072000 1.388000
2.095000 1.399900
2.118000 1.412700
2.141000 1.420200
2.163900 1.422000
2.186900 1.423500
2.209900 1.426500
2.232900 1.449200
2.255900 1.452400
2.278900 1.458400
2.301900 1.467000
2.324900 1.472500
2.347900 1.468100
2.370900 1.472900
2.393800 1.462900
2.416800 1.472700
2.439800 1.484300
2.462800 1.498500
2.485800 1.461200
2.508800 1.449900
2.531800 1.436400
2.554800 1.439500
2.577800 1.440200
2.600700 1.438300
2.623700 1.436400
2.646700 1.410300
2.669700 1.416800
2.692700 1.423300
2.715700 1.402200
2.738700 1.400200
2.761700 1.399900
2.784700 1.416000
2.807700 1.397600
2.830600 1.397900
2.853600 1.398400
2.876600 1.407100
2.899600 1.417500
2.922600 1.432000
2.945600 1.421100
2.968600 1.429600
2.991600 1.438100
3.014600 1.447000
3.037500 1.455500
3.060500 1.461200
3.083500 1.459300
3.106500 1.447000
3.129500 1.447700
3.152500 1.445200
3.175500 1.440200
3.198500 1.436700
3.221500 1.436300
3.244500 1.438200
3.267400 1.448000
3.290400 1.451200
3.313400 1.458600
3.336400 1.467500
3.359400 1.475700
3.382400 1.486700
3.405400 1.506000
3.428400 1.517800
3.451400 1.532200
3.474300 1.545200
3.497300 1.569000
3.520300 1.598600
3.543300 1.635800
3.566300 1.658400
3.589300 1.671500
3.612300 1.677100
3.635300 1.675100
3.658300 1.666500
3.681300 1.671500
3.704200 1.694500
3.727200 1.733800
3.750200 1.710500
3.773200 1.690800
3.796200 1.695700
3.819200 1.693700
3.842200 1.699500
3.865200 1.706900
3.888200 1.713300
3.911100 1.708500
3.934100 1.734500
3.957100 1.753900
3.980100 1.774600
4.003100 1.748300
4.026100 1.705400
4.049100 1.690300
4.072100 1.661400
4.095100 1.634400
4.118100 1.623200
4.141000 1.601700
4.164000 1.581200
4.187000 1.561700
4.210000 1.543500
4.233000 1.527300
4.256000 1.512900
4.279000 1.499700
4.302000 1.487600
4.325000 1.476400
4.347900 1.468200
4.370900 1.465500
4.393900 1.465800
4.416900 1.469100
4.439900 1.474900
4.462900 1.482800
4.485900 1.493200
4.508900 1.507200
4.531900 1.523300
4.554900 1.548700
4.577800 1.582100
4.600800 1.574800
4.623800 1.574200
4.646800 1.579700
4.669800 1.592100
4.692800 1.609500
4.715800 1.631800
4.738800 1.657300
4.761800 1.691300
4.784700 1.728500
4.807700 1.788300
4.830700 1.849400
4.853700 1.905700
4.876700 1.828800
4.899700 1.836700
4.922700 1.820400
4.945700 1.801400
4.968700 1.779400
4.991700 1.756900
5.014600 1.738500
5.037600 1.735500
5.060600 1.738500
5.083600 1.705600
5.106600 1.695300
5.129600 1.675600
5.152600 1.697100
5.175600 1.685500
5.198600 1.680300
5.221500 1.678800
5.244500 1.677000
5.267500 1.676300
5.290500 1.675900
5.313500 1.679400
5.336500 1.683300
5.359500 1.693900
5.382500 1.710400
5.405500 1.722300
5.428500 1.726600
5.451400 1.728200
5.474400 1.718300
5.497400 1.744300
5.520400 1.772100
5.543400 1.786700
5.566400 1.755000
5.589400 1.749500
5.612400 1.741800
5.635400 1.736700
5.658300 1.735100
5.681300 1.749800
5.704300 1.758100
5.727300 1.741500
5.750300 1.713800
5.773300 1.698000
5.796300 1.695000
5.819300 1.695100
5.842300 1.699100
5.865300 1.702700
5.888200 1.706400
5.911200 1.712300
5.934200 1.717700
5.957200 1.721800
5.980200 1.726600
6.003200 1.736200
6.026200 1.746000
6.049200 1.757700
6.072200 1.773900
6.095100 1.792100
6.118100 1.818400
6.141100 1.782900
6.164100 1.780500
6.187100 1.778500
6.210100 1.778200
6.233100 1.768600
6.256100 1.761900
6.279100 1.746700
6.302100 1.696500
6.325000 1.616400
6.348000 1.550900
6.371000 1.510800
6.394000 1.480200
6.417000 1.451100
6.440000 1.421800
6.463000 1.422400
6.486000 1.402200
6.509000 1.390400
6.531900 1.426500
6.554900 1.349200
6.577900 1.347600
6.600900 1.370900
6.623900 1.399000
6.646900 1.426600
6.669900 1.461400
6.692900 1.490300
6.715900 1.515400
6.738800 1.553900
6.761800 1.536000
6.784800 1.561800
6.807800 1.591600
6.830800 1.614800
6.853800 1.666300
6.876800 1.689500
6.899800 1.718500
6.922800 1.747500
6.945800 1.771200
6.968700 1.792000
6.991700 1.854800
7.014700 1.871100
7.037700 1.870600
7.060700 1.889600
7.083700 1.903200
7.106700 1.964300
7.129700 1.950700
7.152700 1.978000
7.175600 2.009700
7.198600 2.077800
7.221600 2.153600
7.244600 2.213200
7.267600 2.244300
7.290600 2.231300
7.313600 2.207300
7.336600 2.194000
7.359600 2.196200
7.382600 2.169900
7.405500 2.132600
7.428500 2.081300
7.451500 2.053800
7.474500 2.050900
7.497500 2.056600
7.520500 2.038600
7.543500 2.039200
7.566500 2.030500
7.589500 2.005400
7.612400 1.997600
7.635400 1.994000
7.658400 1.992400
7.681400 1.993200
7.704400 1.991400
7.727400 1.987000
7.750400 1.984300
7.773400 1.981000
7.796400 1.976600
7.819400 1.964600
7.842300 1.948700
7.865300 1.931900
7.888300 1.912500
7.911300 1.885700
7.934300 1.863500
7.957300 1.850700
7.980300 1.839500
8.003300 1.826800
8.026300 1.813900
8.049200 1.804800
8.072200 1.798300
8.095200 1.800500
8.118200 1.817000
8.141200 1.854700
8.164200 1.966100
8.187200 2.012700
8.210200 2.065600
8.233200 2.098800
8.256200 2.123300
8.279100 2.132800
8.302100 2.132400
8.325100 2.127200
8.348100 2.119300
8.371100 2.115000
8.394100 2.115100
8.417100 2.113400
8.440100 2.113000
8.463100 2.174400
8.486000 2.170400
8.509000 2.155500
8.532000 2.152200
8.555000 2.158300
8.578000 2.155200
8.601000 2.137200
8.624000 2.133100
8.647000 2.123500
8.670000 2.072300
8.693000 2.046700
8.715900 2.020700
8.738900 2.005700
8.761900 1.992000
8.784900 1.969800
8.807900 1.953400
8.830900 1.953600
8.853900 1.960200
8.876900 1.974900
8.899900 1.997500
8.922800 2.024300
8.945800 2.054500
8.968800 2.086400
8.991800 2.119900
9.014800 2.155100
9.037800 2.190900
9.060800 2.190600
9.083800 2.172900
9.106800 2.149500
9.129800 2.131500
9.152700 2.120800
9.175700 2.108700
9.198700 2.082300
9.221700 2.075000
9.244700 2.087800
9.267700 2.099900
9.290700 2.123000
9.313700 2.153400
9.336700 2.172400
9.359600 2.189000
9.382600 2.209800
9.405600 2.239900
9.428600 2.254600
9.451600 2.225400
9.474600 2.202400
9.497600 2.180200
9.520600 2.155900
9.543600 2.124100
9.566600 2.087600
9.589500 2.049200
9.612500 2.166900
9.635500 2.166700
9.658500 2.174700
9.681500 2.206000
9.704500 2.253600
9.727500 2.145600
9.750500 2.088600
9.773500 2.132000
9.796400 2.151700
9.819400 2.077500
9.842400 2.042500
9.865400 2.047300
9.888400 2.065800
9.911400 2.094000
9.934400 2.137900
9.957400 2.194700
9.980400 2.266700
10.003400 2.245500
10.026300 2.229700
10.049300 2.232500
10.072300 2.220900
10.095300 2.225100
10.118300 2.238900
10.141300 2.253200
10.164300 2.268800
10.187300 2.285900
10.210300 2.307500
10.233200 2.322800
10.256200 2.301900
10.279200 2.279300
10.302200 2.266300
10.325200 2.264500
10.348200 2.267900
10.371200 2.257400
10.394200 2.246000
10.417200 2.236500
10.440200 2.230300
10.463100 2.232500
10.486100 2.207100
10.509100 2.210500
10.532100 2.169400
10.555100 2.161300
10.578100 2.152600
10.601100 2.141500
10.624100 2.131300
10.647100 2.118400
10.670000 2.103300
10.693000 2.095000
10.716000 2.097900
10.739000 2.103200
10.762000 2.111100
10.785000 2.126700
10.808000 2.144300
10.831000 2.188200
10.854000 2.222000
10.877000 2.219500
10.899900 2.151200
10.922900 2.145100
10.945900 2.138500
10.968900 2.161100
10.991900 2.122800
11.014900 2.116100
11.037900 2.111000
11.060900 2.103700
11.083900 2.102200
11.106800 2.091700
11.129800 2.188600
11.152800 2.141400
11.175800 2.194000
11.198800 2.210600
11.221800 2.236700
11.244800 2.244100
11.267800 2.236100
11.290800 2.188900
11.313800 2.196400
11.336700 2.194700
11.359700 2.183600
11.382700 2.183400
11.405700 2.181600
11.428700 2.197800
11.451700 2.126800
11.474700 2.092100
11.497700 2.109600
11.520700 2.085000
11.543600 2.057000
11.566600 2.032900
11.589600 2.018600
11.612600 2.012000
11.635600 2.012900
11.658600 2.003800
