set title 'mp-1223675 - Density of States'
set xlabel 'Energy (eV)'
set ylabel 'DOS (states/eV)'
set grid
set xrange [-10:10]
set yrange [0:6.318]
set xzeroaxis lt -1
set terminal png size 800,600
set output 'mp-1223675_dos_gnuplot.png'
plot '-' using 1:2 with lines title 'DOS'
-4.973300 0.000000
-4.938600 0.000000
-4.904000 0.000000
-4.869400 0.000000
-4.834700 0.000000
-4.800100 0.000000
-4.765400 0.000000
-4.730800 0.000000
-4.696200 0.000000
-4.661500 0.000000
-4.626900 0.000000
-4.592200 0.000000
-4.557600 0.000000
-4.522900 0.000000
-4.488300 0.000000
-4.453700 0.000000
-4.419000 0.000000
-4.384400 0.000000
-4.349700 0.000000
-4.315100 0.000000
-4.280500 0.000000
-4.245800 0.000000
-4.211200 0.000000
-4.176500 0.000000
-4.141900 0.000000
-4.107300 0.000000
-4.072600 0.000000
-4.038000 0.000000
-4.003300 0.000000
-3.968700 0.000000
-3.934100 0.000000
-3.899400 0.000000
-3.864800 0.000000
-3.830100 0.000000
-3.795500 0.000000
-3.760900 0.000000
-3.726200 0.000000
-3.691600 0.000000
-3.656900 0.000000
-3.622300 0.000000
-3.587600 0.000000
-3.553000 0.000000
-3.518400 0.000000
-3.483700 0.000000
-3.449100 0.000000
-3.414400 0.000000
-3.379800 0.000000
-3.345200 0.000000
-3.310500 0.000000
-3.275900 0.000000
-3.241200 0.000000
-3.206600 0.000000
-3.172000 0.000000
-3.137300 0.000000
-3.102700 0.000000
-3.068000 0.000000
-3.033400 0.000000
-2.998800 0.000000
-2.964100 0.000000
-2.929500 0.000000
-2.894800 0.000000
-2.860200 0.000000
-2.825500 0.000000
-2.790900 0.000000
-2.756300 0.000000
-2.721600 0.000000
-2.687000 0.000000
-2.652300 0.000000
-2.617700 0.000000
-2.583100 0.000000
-2.548400 0.000000
-2.513800 0.000000
-2.479100 0.000000
-2.444500 0.000000
-2.409900 0.000000
-2.375200 0.000000
-2.340600 0.000000
-2.305900 0.000000
-2.271300 0.000000
-2.236700 0.000000
-2.202000 0.000000
-2.167400 0.000000
-2.132700 0.000000
-2.098100 0.000000
-2.063500 0.000000
-2.028800 0.000000
-1.994200 0.000000
-1.959500 0.000000
-1.924900 0.000000
-1.890200 0.000000
-1.855600 0.000000
-1.821000 0.000500
-1.786300 0.009100
-1.751700 0.022800
-1.717000 0.039300
-1.682400 0.052900
-1.647800 0.052300
-1.613100 0.058400
-1.578500 0.063400
-1.543800 0.068500
-1.509200 0.074500
-1.474600 0.080700
-1.439900 0.087100
-1.405300 0.092700
-1.370600 0.097600
-1.336000 0.101800
-1.301400 0.105500
-1.266700 0.109100
-1.232100 0.113200
-1.197400 0.117300
-1.162800 0.121700
-1.128100 0.126300
-1.093500 0.131100
-1.058900 0.136000
-1.024200 0.141000
-0.989600 0.146100
-0.954900 0.151600
-0.920300 0.157200
-0.885700 0.162900
-0.851000 0.167200
-0.816400 0.172300
-0.781700 0.177900
-0.747100 0.184900
-0.712500 0.192300
-0.677800 0.199900
-0.643200 0.211000
-0.608500 0.221900
-0.573900 0.230700
-0.539300 0.232200
-0.504600 0.226900
-0.470000 0.230500
-0.435300 0.234000
-0.400700 0.237500
-0.366100 0.240800
-0.331400 0.244000
-0.296800 0.246900
-0.262100 0.249600
-0.227500 0.251600
-0.192800 0.253300
-0.158200 0.255400
-0.123600 0.258300
-0.088900 0.262200
-0.054300 0.266300
-0.019600 0.270700
0.015000 0.275100
0.049600 0.279700
0.084300 0.284600
0.118900 0.289800
0.153600 0.295200
0.188200 0.301000
0.222800 0.306900
0.257500 0.312900
0.292100 0.319700
0.326800 0.326900
0.361400 0.334700
0.396000 0.342800
0.430700 0.351300
0.465300 0.360800
0.500000 0.376700
0.534600 0.396900
0.569300 0.425200
0.603900 0.571600
0.638500 0.754900
0.673200 0.938200
0.707800 1.009400
0.742500 1.036300
0.777100 0.990200
0.811700 0.990200
0.846400 1.006100
0.881000 1.027700
0.915700 1.059200
0.950300 1.084400
0.984900 1.108900
1.019600 1.179200
1.054200 1.340700
1.088900 1.460500
1.123500 1.567000
1.158100 1.623400
1.192800 1.697100
1.227400 1.784300
1.262100 1.881900
1.296700 2.030100
1.331300 2.037800
1.366000 1.997200
1.400600 1.915300
1.435300 1.914200
1.469900 2.042500
1.504600 2.246100
1.539200 2.335600
1.573800 2.448200
1.608500 2.545700
1.643100 2.618000
1.677800 2.708300
1.712400 2.821500
1.747000 2.999000
1.781700 3.036200
1.816300 3.124100
1.851000 3.324000
1.885600 3.388100
1.920200 3.384300
1.954900 3.326000
1.989500 3.280100
2.024200 3.257500
2.058800 3.270700
2.093400 3.246700
2.128100 3.219700
2.162700 3.258400
2.197400 3.257300
2.232000 3.331900
2.266700 3.292800
2.301300 3.218100
2.335900 3.059900
2.370600 3.067800
2.405200 3.096100
2.439900 2.811600
2.474500 2.594500
2.509100 2.489300
2.543800 2.542200
2.578400 2.521900
2.613100 2.176100
2.647700 1.887100
2.682300 1.893100
2.717000 1.863100
2.751600 1.817200
2.786300 2.080300
2.820900 2.113100
2.855500 2.246300
2.890200 2.600200
2.924800 3.072300
2.959500 3.545200
2.994100 3.433900
3.028700 2.957600
3.063400 2.952400
3.098000 2.727700
3.132700 2.694700
3.167300 2.762300
3.202000 2.790500
3.236600 2.811800
3.271200 2.838100
3.305900 2.613600
3.340500 2.736000
3.375200 2.789500
3.409800 2.781500
3.444400 2.827100
3.479100 2.944800
3.513700 3.100600
3.548400 3.190700
3.583000 3.289100
3.617600 3.323400
3.652300 3.287900
3.686900 3.255400
3.721600 3.247100
3.756200 3.283000
3.790800 3.362800
3.825500 3.496600
3.860100 3.599900
3.894800 3.532700
3.929400 3.506600
3.964100 3.348000
3.998700 3.527400
4.033300 3.782700
4.068000 3.894700
4.102600 4.157900
4.137300 4.458400
4.171900 4.740900
4.206500 5.189800
4.241200 5.450100
4.275800 5.717200
4.310500 5.744000
4.345100 5.527600
4.379700 4.607000
4.414400 4.533200
4.449000 4.032900
4.483700 3.833500
4.518300 3.468300
4.552900 3.416200
4.587600 3.138800
4.622200 2.979400
4.656900 2.795500
4.691500 2.635800
4.726100 2.626600
4.760800 2.680500
4.795400 2.614100
4.830100 2.436600
4.864700 2.350800
4.899400 2.344600
4.934000 2.352000
4.968600 2.444400
5.003300 2.563900
5.037900 2.705100
5.072600 2.906200
5.107200 3.267200
5.141800 3.392200
5.176500 3.211800
5.211100 3.062300
5.245800 2.810600
5.280400 2.755200
5.315000 2.687700
5.349700 2.837600
5.384300 2.941100
5.419000 3.241400
5.453600 3.064400
5.488200 3.214800
5.522900 2.665500
5.557500 2.099200
5.592200 2.015900
5.626800 2.070600
5.661500 2.157800
5.696100 2.232700
5.730700 2.531600
5.765400 2.901300
5.800000 3.107600
5.834700 3.373800
5.869300 3.317800
5.903900 3.374600
5.938600 3.164300
5.973200 3.276000
6.007900 3.327800
6.042500 3.306300
6.077100 2.996400
6.111800 2.833100
6.146400 2.679900
6.181100 2.540000
6.215700 2.453600
6.250300 2.383500
6.285000 2.326600
6.319600 2.295900
6.354300 2.268800
6.388900 2.244800
6.423600 2.224700
6.458200 2.201000
6.492800 2.174900
6.527500 2.173400
6.562100 2.181000
6.596800 2.218500
6.631400 2.221500
6.666000 2.251300
6.700700 2.312500
6.735300 2.394000
6.770000 2.509300
6.804600 2.814700
6.839200 3.365900
6.873900 3.869500
6.908500 3.440100
6.943200 3.308300
6.977800 3.264100
7.012400 3.428900
7.047100 3.472200
7.081700 3.410600
7.116400 3.184200
7.151000 2.608000
7.185600 2.408600
7.220300 2.406000
7.254900 2.495700
7.289600 2.490200
7.324200 2.507300
7.358900 2.576200
7.393500 2.621200
7.428100 2.750500
7.462800 2.918500
7.497400 2.946000
7.532100 2.976700
7.566700 3.067700
7.601300 3.201000
7.636000 3.117800
7.670600 2.976000
7.705300 2.808300
7.739900 2.040200
7.774500 1.817100
7.809200 1.735800
7.843800 1.683700
7.878500 1.649400
7.913100 1.547300
7.947700 1.411300
7.982400 1.299700
8.017000 1.499000
8.051700 0.981000
8.086300 0.819800
8.121000 0.777600
8.155600 0.757500
8.190200 0.731300
8.224900 0.721900
8.259500 0.716200
8.294200 0.714600
8.328800 0.712900
8.363400 0.709900
8.398100 0.696300
8.432700 0.679000
8.467400 0.658400
8.502000 0.639800
8.536600 0.621700
8.571300 0.604400
8.605900 0.607200
8.640600 0.610100
8.675200 0.610200
8.709800 0.609600
8.744500 0.607900
8.779100 0.605700
8.813800 0.602000
8.848400 0.592200
8.883000 0.583800
8.917700 0.577000
8.952300 0.570600
8.987000 0.566200
9.021600 0.563000
9.056300 0.562600
9.090900 0.563200
9.125500 0.564100
9.160200 0.565100
9.194800 0.565300
9.229500 0.564600
9.264100 0.564800
9.298700 0.565000
9.333400 0.565300
9.368000 0.565500
9.402700 0.565800
9.437300 0.566100
9.471900 0.566200
9.506600 0.566300
9.541200 0.566500
9.575900 0.566700
9.610500 0.567000
9.645100 0.567300
9.679800 0.567500
9.714400 0.567700
9.749100 0.567900
9.783700 0.568100
9.818400 0.568700
9.853000 0.573400
9.887600 0.575200
9.922300 0.576500
9.956900 0.577100
9.991600 0.579200
10.026200 0.586100
10.060800 0.607800
10.095500 0.605900
10.130100 0.555300
10.164800 0.546200
10.199400 0.545000
10.234000 0.543400
10.268700 0.541500
10.303300 0.539600
10.338000 0.537500
10.372600 0.535100
10.407200 0.532100
10.441900 0.529000
10.476500 0.525900
10.511200 0.522900
10.545800 0.520000
10.580400 0.517400
10.615100 0.515000
10.649700 0.512900
10.684400 0.511000
10.719000 0.508400
10.753700 0.505500
10.788300 0.503200
10.822900 0.500600
10.857600 0.498400
10.892200 0.496800
10.926900 0.495500
10.961500 0.495100
10.996100 0.495200
11.030800 0.495700
11.065400 0.497800
11.100100 0.500000
11.134700 0.505500
11.169300 0.518700
11.204000 0.597500
11.238600 0.515600
11.273300 0.492300
11.307900 0.482800
11.342500 0.479300
11.377200 0.477600
11.411800 0.477700
11.446500 0.478500
11.481100 0.479500
11.515800 0.480800
11.550400 0.482500
11.585000 0.486600
11.619700 0.490800
11.654300 0.493900
11.689000 0.495500
11.723600 0.503300
11.758200 0.503400
11.792900 0.503800
11.827500 0.503700
11.862200 0.503000
11.896800 0.500300
11.931400 0.496400
11.966100 0.498700
12.000700 0.502800
12.035400 0.513100
12.070000 0.502700
12.104600 0.481800
12.139300 0.463200
12.173900 0.447000
12.208600 0.435000
12.243200 0.428400
12.277800 0.423700
12.312500 0.419300
12.347100 0.415100
12.381800 0.411000
12.416400 0.406800
12.451100 0.401400
12.485700 0.395400
12.520300 0.389400
12.555000 0.383500
12.589600 0.382300
12.624300 0.397000
12.658900 0.407600
12.693500 0.388700
12.728200 0.376600
12.762800 0.369200
12.797500 0.362800
12.832100 0.359400
12.866700 0.358600
12.901400 0.358500
12.936000 0.359300
12.970700 0.360900
13.005300 0.362700
13.039900 0.365000
13.074600 0.367500
13.109200 0.370400
13.143900 0.374000
13.178500 0.378300
13.213200 0.425100
13.247800 0.466200
13.282400 0.439000
13.317100 0.423500
13.351700 0.418700
13.386400 0.411100
13.421000 0.400300
13.455600 0.386700
13.490300 0.368700
13.524900 0.349600
13.559600 0.331300
13.594200 0.318600
13.628800 0.306600
13.663500 0.296600
13.698100 0.288400
13.732800 0.279500
13.767400 0.269900
13.802000 0.264700
13.836700 0.277500
13.871300 0.312900
13.906000 0.339000
13.940600 0.352500
13.975200 0.373800
14.009900 0.418300
14.044500 0.429800
14.079200 0.447600
14.113800 0.488700
14.148500 0.568600
14.183100 0.646900
14.217700 0.700400
14.252400 0.887200
14.287000 0.983500
14.321700 0.985200
14.356300 0.926500
14.390900 0.878000
14.425600 0.821000
14.460200 0.766800
14.494900 0.734200
14.529500 0.712500
14.564100 0.698100
14.598800 0.686500
14.633400 0.686000
14.668100 0.700500
14.702700 0.684000
14.737300 0.669200
14.772000 0.657100
14.806600 0.647000
14.841300 0.637400
14.875900 0.628100
14.910600 0.620400
14.945200 0.614100
14.979800 0.609200
15.014500 0.605700
15.049100 0.602300
15.083800 0.598800
15.118400 0.596300
15.153000 0.593100
15.187700 0.590300
15.222300 0.588800
15.257000 0.589300
15.291600 0.593000
15.326200 0.599200
15.360900 0.608200
15.395500 0.614700
15.430200 0.618200
15.464800 0.622300
15.499400 0.625800
15.534100 0.627500
15.568700 0.628500
15.603400 0.628100
15.638000 0.627200
15.672600 0.628100
15.707300 0.629700
15.741900 0.628400
15.776600 0.623900
15.811200 0.621300
15.845900 0.623200
15.880500 0.625400
15.915100 0.626500
15.949800 0.626900
15.984400 0.626900
16.019100 0.621300
16.053700 0.608800
16.088300 0.583200
16.123000 0.552300
16.157600 0.521200
16.192300 0.496200
16.226900 0.474400
16.261500 0.460700
16.296200 0.452700
16.330800 0.448500
16.365500 0.448800
16.400100 0.451600
16.434700 0.454900
16.469400 0.458600
16.504000 0.462900
16.538700 0.467200
16.573300 0.471700
16.608000 0.476700
16.642600 0.483700
16.677200 0.492100
16.711900 0.500400
16.746500 0.509000
16.781200 0.519700
16.815800 0.531100
16.850400 0.542500
16.885100 0.555600
16.919700 0.572500
16.954400 0.589200
16.989000 0.621200
17.023600 0.648600
17.058300 0.663800
17.092900 0.679700
17.127600 0.699300
17.162200 0.722800
17.196800 0.779500
17.231500 0.777300
17.266100 0.774400
17.300800 0.770800
17.335400 0.766800
17.370000 0.756400
17.404700 0.739300
17.439300 0.743900
17.474000 0.711800
17.508600 0.677400
17.543300 0.659300
17.577900 0.654200
17.612500 0.656300
17.647200 0.659200
17.681800 0.653300
17.716500 0.634900
17.751100 0.623500
17.785700 0.648000
17.820400 0.626600
17.855000 0.605400
17.889700 0.593600
17.924300 0.588400
17.958900 0.596200
17.993600 0.621400
18.028200 0.660200
18.062900 0.701000
18.097500 0.739200
18.132100 0.768300
18.166800 0.786900
18.201400 0.795200
18.236100 0.826300
18.270700 0.773800
18.305400 0.769900
18.340000 0.769400
18.374600 0.770800
18.409300 0.769600
18.443900 0.766600
18.478600 0.763600
18.513200 0.760300
18.547800 0.761000
18.582500 0.782600
18.617100 0.809500
18.651800 0.833900
18.686400 0.854400
18.721000 0.843300
18.755700 0.841800
18.790300 0.838800
18.825000 0.836000
18.859600 0.826800
18.894200 0.821800
18.928900 0.815600
18.963500 0.809600
18.998200 0.806100
19.032800 0.803400
19.067500 0.800700
19.102100 0.797900
19.136700 0.794700
19.171400 0.792500
19.206000 0.790900
19.240700 0.788900
19.275300 0.809800
19.309900 0.817300
19.344600 0.827000
19.379200 0.819600
19.413900 0.819500
19.448500 0.849800
19.483100 0.882300
19.517800 0.907400
19.552400 0.926900
19.587100 0.931600
19.621700 0.931500
19.656300 0.921700
19.691000 0.914400
19.725600 0.930000
19.760300 0.964700
19.794900 0.992800
19.829500 1.014600
19.864200 1.030500
19.898800 1.040800
19.933500 1.048600
19.968100 1.060100
20.002800 1.067500
20.037400 1.073900
20.072000 1.075400
20.106700 1.067700
20.141300 1.056100
20.176000 1.047700
20.210600 1.043700
20.245200 1.041900
20.279900 1.041300
20.314500 1.040900
20.349200 1.040400
20.383800 1.040500
20.418400 1.041300
20.453100 1.041600
20.487700 1.042700
20.522400 1.043600
20.557000 1.046200
20.591600 1.050800
20.626300 1.055400
20.660900 1.060600
20.695600 1.069100
20.730200 1.080700
20.764900 1.115100
20.799500 1.097000
20.834100 1.098900
20.868800 1.105300
20.903400 1.091100
20.938100 1.074200
20.972700 1.073300
21.007300 1.056400
21.042000 1.033700
21.076600 1.020400
21.111300 1.015300
21.145900 1.013600
21.180500 1.011800
21.215200 1.011600
21.249800 1.012800
21.284500 1.013900
21.319100 1.013600
21.353700 1.011400
21.388400 1.008300
21.423000 1.008000
21.457700 1.010200
21.492300 1.013900
21.526900 1.023900
21.561600 1.029200
21.596200 1.035200
21.630900 1.043600
21.665500 1.051900
21.700200 1.052800
21.734800 1.054400
21.769400 1.053500
21.804100 1.052100
21.838700 1.050500
21.873400 1.046000
21.908000 1.037200
21.942600 1.029400
21.977300 1.022700
22.011900 1.019100
22.046600 1.025200
22.081200 1.043400
22.115800 1.053900
22.150500 1.031600
22.185100 1.017600
22.219800 1.000400
22.254400 0.996700
22.289000 1.009900
22.323700 1.012900
22.358300 1.005300
22.393000 0.994600
22.427600 0.985700
22.462300 0.989900
22.496900 0.987300
22.531500 0.986000
22.566200 0.989700
22.600800 0.989100
22.635500 0.982500
22.670100 0.977000
22.704700 0.971000
22.739400 0.967000
22.774000 0.965000
22.808700 0.962900
22.843300 0.961100
22.877900 0.970000
22.912600 1.004000
22.947200 1.052100
22.981900 1.115000
23.016500 1.218400
23.051100 1.359400
23.085800 1.446000
23.120400 1.402700
23.155100 1.418100
23.189700 1.423900
23.224300 1.459800
23.259000 1.539300
23.293600 1.652400
23.328300 1.707600
23.362900 1.696800
23.397600 1.655800
23.432200 1.552600
23.466800 1.481300
23.501500 1.459800
23.536100 1.452800
23.570800 1.452000
23.605400 1.429800
23.640000 1.400300
23.674700 1.374100
23.709300 1.340800
23.744000 1.315700
23.778600 1.299800
23.813200 1.290800
23.847900 1.289600
23.882500 1.308600
23.917200 1.347600
23.951800 1.354200
23.986400 1.354300
24.021100 1.333400
24.055700 1.326700
24.090400 1.294800
24.125000 1.259900
24.159700 1.240700
24.194300 1.225500
24.228900 1.224000
24.263600 1.232000
24.298200 1.239300
24.332900 1.237000
24.367500 1.262200
24.402100 1.233800
24.436800 1.203100
24.471400 1.165800
24.506100 1.136100
24.540700 1.119500
24.575300 1.112400
24.610000 1.115600
24.644600 1.124200
24.679300 1.124000
24.713900 1.108500
24.748500 1.108100
24.783200 1.117000
24.817800 1.126100
24.852500 1.117900
24.887100 1.127400
24.921700 1.138800
24.956400 1.162400
24.991000 1.219800
25.025700 1.224800
25.060300 1.244700
25.095000 1.162100
25.129600 1.109200
25.164200 1.076400
25.198900 1.061200
25.233500 1.055100
25.268200 1.062100
25.302800 1.069400
25.337400 1.077300
25.372100 1.093200
25.406700 1.121100
25.441400 1.110600
25.476000 1.125400
25.510600 1.055500
25.545300 0.998200
25.579900 0.949500
25.614600 0.909900
25.649200 0.889200
25.683800 0.873700
25.718500 0.852200
25.753100 0.826700
25.787800 0.803000
25.822400 0.792000
25.857100 0.785500
25.891700 0.781700
25.926300 0.751400
25.961000 0.687700
25.995600 0.664100
26.030300 0.650300
26.064900 0.637000
26.099500 0.631700
26.134200 0.612600
26.168800 0.606800
26.203500 0.606500
26.238100 0.597500
26.272700 0.586800
26.307400 0.591500
26.342000 0.603200
26.376700 0.614000
26.411300 0.628800
26.445900 0.644400
26.480600 0.663200
26.515200 0.682700
26.549900 0.702700
26.584500 0.724700
26.619100 0.746200
26.653800 0.737900
26.688400 0.752700
26.723100 0.762200
26.757700 0.771500
26.792400 0.784200
26.827000 0.797800
26.861600 0.810500
26.896300 0.823400
26.930900 0.837600
26.965600 0.859100
27.000200 0.894800
27.034800 0.937400
27.069500 0.978100
27.104100 1.019900
27.138800 1.061900
27.173400 1.106700
27.208000 1.147700
27.242700 1.172300
27.277300 1.198000
27.312000 1.230700
27.346600 1.247200
27.381200 1.252100
27.415900 1.263700
27.450500 1.282200
27.485200 1.304100
27.519800 1.324600
27.554500 1.343300
27.589100 1.361100
27.623700 1.374200
27.658400 1.383900
27.693000 1.393700
27.727700 1.407600
27.762300 1.443100
27.796900 1.472300
27.831600 1.484200
27.866200 1.479800
27.900900 1.496900
27.935500 1.501500
27.970100 1.515700
28.004800 1.526800
28.039400 1.542600
28.074100 1.542900
28.108700 1.568600
28.143300 1.586500
28.178000 1.628900
28.212600 1.690000
28.247300 1.802500
28.281900 1.945500
28.316500 2.111200
28.351200 2.247900
28.385800 2.389700
28.420500 2.564100
28.455100 2.771700
28.489800 3.082100
28.524400 3.628400
28.559000 4.674800
28.593700 7.732000
28.628300 10.126400
28.663000 8.826800
28.697600 8.613200
28.732200 9.295800
28.766900 90.704700
28.801500 6.185400
28.836200 3.969500
28.870800 3.199700
28.905400 2.735200
28.940100 2.405900
28.974700 2.164300
29.009400 1.967100
29.044000 1.790900
29.078600 1.663200
29.113300 1.569900
29.147900 1.484800
29.182600 1.405600
29.217200 1.332500
29.251900 1.272600
29.286500 1.225600
29.321100 1.197200
29.355800 1.189800
29.390400 1.179400
29.425100 1.166800
29.459700 1.157600
29.494300 1.148800
29.529000 1.142300
29.563600 1.134300
29.598300 1.124800
29.632900 1.117500
29.667500 1.116700
29.702200 1.120400
29.736800 1.128000
29.771500 1.132600
29.806100 1.133500
29.840700 1.131300
29.875400 1.164300
29.910000 1.133500
29.944700 1.157500
29.979300 1.146900
30.014000 1.113400
30.048600 1.069200
30.083200 1.036200
30.117900 1.012300
30.152500 0.999300
30.187200 0.991400
30.221800 0.982200
30.256400 0.951100
30.291100 0.938800
30.325700 0.922800
30.360400 0.902000
30.395000 0.883800
30.429600 0.872000
30.464300 0.863300
30.498900 0.844600
30.533600 0.829300
30.568200 0.813100
30.602800 0.789800
30.637500 0.765200
30.672100 0.743100
30.706800 0.722800
30.741400 0.702100
30.776000 0.681000
30.810700 0.659900
30.845300 0.638300
30.880000 0.617700
30.914600 0.595600
30.949300 0.575900
30.983900 0.559500
31.018500 0.551200
31.053200 0.534400
31.087800 0.515600
31.122500 0.500600
31.157100 0.489200
31.191700 0.480500
31.226400 0.473800
31.261000 0.486900
31.295700 0.490200
31.330300 0.484100
31.364900 0.476100
31.399600 0.482900
31.434200 0.489900
31.468900 0.500800
