set title 'mp-1219462 - Density of States'
set xlabel 'Energy (eV)'
set ylabel 'DOS (states/eV)'
set grid
set xrange [-10:10]
set yrange [0:6.424]
set xzeroaxis lt -1
set terminal png size 800,600
set output 'mp-1219462_dos_gnuplot.png'
plot '-' using 1:2 with lines title 'DOS'
-8.576500 0.000000
-8.555500 0.000000
-8.534600 0.000000
-8.513600 0.000000
-8.492600 0.000000
-8.471700 0.000000
-8.450700 0.000000
-8.429700 0.000000
-8.408800 0.000000
-8.387800 0.000000
-8.366800 0.000000
-8.345900 0.000000
-8.324900 0.000000
-8.303900 0.000000
-8.283000 0.000000
-8.262000 0.000000
-8.241000 0.000000
-8.220100 0.000000
-8.199100 0.000000
-8.178100 0.000000
-8.157200 0.000000
-8.136200 0.000000
-8.115200 0.000000
-8.094300 0.000000
-8.073300 0.000000
-8.052300 0.000000
-8.031400 0.000000
-8.010400 0.000000
-7.989400 0.000000
-7.968500 0.000000
-7.947500 0.000000
-7.926500 0.000000
-7.905600 0.000000
-7.884600 0.000000
-7.863600 0.000000
-7.842700 0.000000
-7.821700 0.000000
-7.800700 0.000000
-7.779800 0.000000
-7.758800 0.000000
-7.737800 0.000000
-7.716900 0.000000
-7.695900 0.000000
-7.674900 0.000000
-7.654000 0.000000
-7.633000 0.000000
-7.612000 0.000000
-7.591100 0.000000
-7.570100 0.000000
-7.549100 0.000000
-7.528200 0.000000
-7.507200 0.000000
-7.486200 0.000000
-7.465300 0.000000
-7.444300 0.000000
-7.423300 0.000000
-7.402400 0.000000
-7.381400 0.000000
-7.360500 0.000000
-7.339500 0.000000
-7.318500 0.000000
-7.297600 0.000000
-7.276600 0.000000
-7.255600 0.000000
-7.234700 0.000000
-7.213700 0.000000
-7.192700 0.000000
-7.171800 0.000000
-7.150800 0.000000
-7.129800 0.000000
-7.108900 0.000000
-7.087900 0.000000
-7.066900 0.000000
-7.046000 0.000000
-7.025000 0.000000
-7.004000 0.000000
-6.983100 0.000000
-6.962100 0.000000
-6.941100 0.000000
-6.920200 0.000000
-6.899200 0.000000
-6.878200 0.000000
-6.857300 0.000000
-6.836300 0.000000
-6.815300 0.000000
-6.794400 0.000000
-6.773400 0.000000
-6.752400 0.000000
-6.731500 0.000000
-6.710500 0.000000
-6.689500 0.000000
-6.668600 0.000200
-6.647600 0.026900
-6.626600 0.098800
-6.605700 0.206800
-6.584700 0.249300
-6.563700 0.258100
-6.542800 0.276100
-6.521800 0.311600
-6.500800 0.348500
-6.479900 0.386700
-6.458900 0.421900
-6.437900 0.444600
-6.417000 0.454600
-6.396000 0.467000
-6.375000 0.483700
-6.354100 0.504300
-6.333100 0.525900
-6.312100 0.547500
-6.291200 0.569000
-6.270200 0.590900
-6.249200 0.614300
-6.228300 0.638700
-6.207300 0.659900
-6.186300 0.672600
-6.165400 0.685500
-6.144400 0.702200
-6.123400 0.718500
-6.102500 0.734300
-6.081500 0.749800
-6.060500 0.765600
-6.039600 0.783200
-6.018600 0.802700
-5.997700 0.822600
-5.976700 0.843000
-5.955700 0.863700
-5.934800 0.884900
-5.913800 0.934900
-5.892800 1.018900
-5.871900 1.093400
-5.850900 1.025100
-5.829900 1.035500
-5.809000 1.047600
-5.788000 1.060600
-5.767000 1.073600
-5.746100 1.080600
-5.725100 1.079500
-5.704100 1.080800
-5.683200 1.089500
-5.662200 1.100000
-5.641200 1.110800
-5.620300 1.121700
-5.599300 1.132800
-5.578300 1.143900
-5.557400 1.155000
-5.536400 1.161000
-5.515400 1.172600
-5.494500 1.202500
-5.473500 1.301600
-5.452500 1.407100
-5.431600 1.374000
-5.410600 1.410400
-5.389600 1.448400
-5.368700 1.490600
-5.347700 1.535500
-5.326700 1.576400
-5.305800 1.613700
-5.284800 1.656900
-5.263800 1.710600
-5.242900 1.769300
-5.221900 1.871100
-5.200900 1.998300
-5.180000 2.088400
-5.159000 2.139400
-5.138000 2.176600
-5.117100 2.204000
-5.096100 2.220200
-5.075100 2.249000
-5.054200 2.579000
-5.033200 2.465600
-5.012200 2.468900
-4.991300 2.540700
-4.970300 2.580900
-4.949300 2.388500
-4.928400 2.062900
-4.907400 1.935700
-4.886400 1.889500
-4.865500 1.832000
-4.844500 1.716500
-4.823500 1.636700
-4.802600 1.611900
-4.781600 1.813700
-4.760600 1.554900
-4.739700 1.471200
-4.718700 1.422800
-4.697800 1.410600
-4.676800 1.494200
-4.655800 1.378900
-4.634900 1.538100
-4.613900 1.703200
-4.592900 1.962500
-4.572000 2.524500
-4.551000 3.174800
-4.530000 5.840200
-4.509100 5.644000
-4.488100 5.117600
-4.467100 4.063600
-4.446200 3.497000
-4.425200 3.033500
-4.404200 2.705500
-4.383300 2.319700
-4.362300 2.143800
-4.341300 2.011500
-4.320400 1.905900
-4.299400 1.811800
-4.278400 1.725800
-4.257500 1.688100
-4.236500 1.589000
-4.215500 1.489100
-4.194600 1.391400
-4.173600 1.307900
-4.152600 1.237700
-4.131700 1.176600
-4.110700 1.124900
-4.089700 1.079700
-4.068800 1.040900
-4.047800 1.051500
-4.026800 1.171100
-4.005900 1.165100
-3.984900 1.094200
-3.963900 0.945600
-3.943000 0.814300
-3.922000 0.695100
-3.901000 0.575400
-3.880100 0.445100
-3.859100 0.298200
-3.838100 0.071800
-3.817200 0.000000
-3.796200 0.000000
-3.775200 0.000000
-3.754300 0.000000
-3.733300 0.000000
-3.712300 0.000000
-3.691400 0.000000
-3.670400 0.000000
-3.649400 0.000000
-3.628500 0.000000
-3.607500 0.000000
-3.586500 0.000000
-3.565600 0.000000
-3.544600 0.000000
-3.523600 0.000000
-3.502700 0.000000
-3.481700 0.000000
-3.460700 0.000000
-3.439800 0.000000
-3.418800 0.000000
-3.397900 0.000000
-3.376900 0.000000
-3.355900 0.000000
-3.335000 0.000000
-3.314000 0.000000
-3.293000 0.000000
-3.272100 0.000000
-3.251100 0.000000
-3.230100 0.000000
-3.209200 0.000000
-3.188200 0.000000
-3.167200 0.000000
-3.146300 0.000000
-3.125300 0.000000
-3.104300 0.000000
-3.083400 0.000000
-3.062400 0.000000
-3.041400 0.000000
-3.020500 0.000000
-2.999500 0.000000
-2.978500 0.313200
-2.957600 0.455400
-2.936600 0.586900
-2.915600 0.846500
-2.894700 1.041500
-2.873700 1.263500
-2.852700 1.494300
-2.831800 2.168700
-2.810800 2.242200
-2.789800 2.129100
-2.768900 2.058500
-2.747900 1.990600
-2.726900 1.926100
-2.706000 1.908400
-2.685000 1.878100
-2.664000 1.832100
-2.643100 1.800300
-2.622100 1.783000
-2.601100 1.760000
-2.580200 1.732000
-2.559200 1.707400
-2.538200 1.703100
-2.517300 1.717500
-2.496300 1.736400
-2.475300 1.713300
-2.454400 1.676300
-2.433400 1.628200
-2.412400 1.559900
-2.391500 1.492400
-2.370500 1.396600
-2.349500 1.298800
-2.328600 1.254600
-2.307600 1.222800
-2.286600 1.196400
-2.265700 1.175500
-2.244700 1.175900
-2.223700 1.171100
-2.202800 1.155500
-2.181800 1.137600
-2.160800 1.119800
-2.139900 1.103000
-2.118900 1.086400
-2.097900 1.062200
-2.077000 1.047500
-2.056000 1.054800
-2.035100 1.066700
-2.014100 1.058600
-1.993100 1.043300
-1.972200 1.036900
-1.951200 1.085700
-1.930200 1.130000
-1.909300 1.067700
-1.888300 1.018800
-1.867300 0.970700
-1.846400 0.922400
-1.825400 0.876200
-1.804400 0.832400
-1.783500 0.788300
-1.762500 0.739900
-1.741500 0.694800
-1.720600 0.648800
-1.699600 0.610500
-1.678600 0.592500
-1.657700 0.574800
-1.636700 0.556700
-1.615700 0.538100
-1.594800 0.519800
-1.573800 0.501800
-1.552800 0.484100
-1.531900 0.466700
-1.510900 0.448700
-1.489900 0.430600
-1.469000 0.414000
-1.448000 0.400100
-1.427000 0.389600
-1.406100 0.379000
-1.385100 0.368300
-1.364100 0.357600
-1.343200 0.346800
-1.322200 0.336100
-1.301200 0.325600
-1.280300 0.314900
-1.259300 0.304000
-1.238300 0.293300
-1.217400 0.282800
-1.196400 0.272500
-1.175400 0.262700
-1.154500 0.254100
-1.133500 0.246700
-1.112500 0.239300
-1.091600 0.231800
-1.070600 0.224300
-1.049600 0.216600
-1.028700 0.209000
-1.007700 0.201300
-0.986700 0.193600
-0.965800 0.185900
-0.944800 0.178100
-0.923800 0.170000
-0.902900 0.161900
-0.881900 0.153900
-0.860900 0.148400
-0.840000 0.144000
-0.819000 0.139000
-0.798000 0.133400
-0.777100 0.127200
-0.756100 0.120300
-0.735200 0.112900
-0.714200 0.105200
-0.693200 0.097700
-0.672300 0.090300
-0.651300 0.083100
-0.630300 0.076000
-0.609400 0.087600
-0.588400 0.073700
-0.567400 0.060700
-0.546500 0.048700
-0.525500 0.037600
-0.504500 0.027400
-0.483600 0.018100
-0.462600 0.009800
-0.441600 0.002400
-0.420700 0.000000
-0.399700 0.000000
-0.378700 0.000000
-0.357800 0.000000
-0.336800 0.000000
-0.315800 0.000000
-0.294900 0.000000
-0.273900 0.000000
-0.252900 0.000000
-0.232000 0.000000
-0.211000 0.000000
-0.190000 0.000000
-0.169100 0.000000
-0.148100 0.000000
-0.127100 0.000000
-0.106200 0.000000
-0.085200 0.000000
-0.064200 0.000000
-0.043300 0.000000
-0.022300 0.000000
-0.001300 0.000000
0.019600 0.000000
0.040600 0.000000
0.061600 0.000000
0.082500 0.000000
0.103500 0.000000
0.124500 0.000000
0.145400 0.000000
0.166400 0.000000
0.187400 0.000000
0.208300 0.000000
0.229300 0.000000
0.250300 0.000000
0.271200 0.000000
0.292200 0.000000
0.313200 0.000000
0.334100 0.000000
0.355100 0.000000
0.376100 0.000000
0.397000 0.000000
0.418000 0.000000
0.439000 0.000000
0.459900 0.000000
0.480900 0.000000
0.501900 0.000000
0.522800 0.000000
0.543800 0.000000
0.564700 0.000000
0.585700 0.000000
0.606700 0.000000
0.627600 0.000000
0.648600 0.000000
0.669600 0.000000
0.690500 0.000000
0.711500 0.000000
0.732500 0.000000
0.753400 0.000000
0.774400 0.000000
0.795400 0.000000
0.816300 0.012600
0.837300 0.103400
0.858300 0.207900
0.879200 0.277100
0.900200 0.314400
0.921200 0.326000
0.942100 0.374400
0.963100 0.437400
0.984100 0.515100
1.005000 0.603900
1.026000 0.614600
1.047000 0.628600
1.067900 0.645800
1.088900 0.667300
1.109900 0.697500
1.130800 0.725900
1.151800 0.758400
1.172800 0.797000
1.193700 0.841700
1.214700 0.887600
1.235700 1.028800
1.256600 1.067000
1.277600 1.105500
1.298600 1.127300
1.319500 1.131100
1.340500 1.116900
1.361500 1.150000
1.382400 1.108100
1.403400 1.074900
1.424400 1.036300
1.445300 1.010700
1.466300 1.012000
1.487300 1.016300
1.508200 1.216300
1.529200 1.225300
1.550200 1.227000
1.571100 1.230600
1.592100 1.249700
1.613100 1.261300
1.634000 1.247800
1.655000 1.254700
1.676000 1.267200
1.696900 1.287100
1.717900 1.314600
1.738900 1.344500
1.759800 1.372000
1.780800 1.459700
1.801800 1.490700
1.822700 1.519500
1.843700 1.550300
1.864600 1.579700
1.885600 1.620600
1.906600 1.663200
1.927500 1.706900
1.948500 1.730400
1.969500 1.759400
1.990400 1.793900
2.011400 1.836600
2.032400 1.885700
2.053300 1.917000
2.074300 1.940800
2.095300 1.979600
2.116200 1.988500
2.137200 1.994900
2.158200 1.999100
2.179100 2.001900
2.200100 1.995200
2.221100 2.015100
2.242000 2.033400
2.263000 2.062500
2.284000 2.105200
2.304900 2.161800
2.325900 2.233400
2.346900 2.314500
2.367800 2.409800
2.388800 2.443300
2.409800 2.486900
2.430700 2.569500
2.451700 2.665200
2.472700 2.762900
2.493600 2.875400
2.514600 2.928600
2.535600 2.946600
2.556500 2.923000
2.577500 2.925100
2.598500 2.961900
2.619400 2.944200
2.640400 2.942800
2.661400 2.928800
2.682300 2.912100
2.703300 2.863900
2.724300 2.817000
2.745200 2.767800
2.766200 2.719300
2.787200 2.675100
2.808100 2.636200
2.829100 2.617600
2.850100 2.598700
2.871000 2.583700
2.892000 2.576100
2.913000 2.575200
2.933900 2.579800
2.954900 2.588700
2.975900 2.585400
2.996800 2.607900
3.017800 2.631400
3.038800 2.650000
3.059700 2.670200
3.080700 2.854600
3.101700 2.969400
3.122600 2.853400
3.143600 2.802800
3.164600 2.815000
3.185500 2.828400
3.206500 2.842300
3.227400 2.856600
3.248400 2.874200
3.269400 2.906300
3.290300 2.927300
3.311300 2.938700
3.332300 2.915600
3.353200 2.879300
3.374200 2.856800
3.395200 2.846500
3.416100 2.841300
3.437100 2.840200
3.458100 2.861500
3.479000 2.829700
3.500000 2.750800
3.521000 2.622000
3.541900 2.474000
3.562900 2.355600
3.583900 2.254500
3.604800 2.147100
3.625800 2.108900
3.646800 2.093300
3.667700 2.060900
3.688700 2.061000
3.709700 2.057100
3.730600 2.054400
3.751600 2.025200
3.772600 1.939400
3.793500 1.939700
3.814500 1.944400
3.835500 1.957600
3.856400 1.989200
3.877400 2.048400
3.898400 2.129500
3.919300 2.212500
3.940300 2.295300
3.961300 2.375600
3.982200 2.449600
4.003200 2.503400
4.024200 2.546200
4.045100 2.606300
4.066100 2.619600
4.087100 2.617200
4.108000 2.612600
4.129000 2.592500
4.150000 2.555500
4.170900 2.520300
4.191900 2.452700
4.212900 2.364800
4.233800 2.277600
4.254800 2.204800
4.275800 2.158200
4.296700 2.105400
4.317700 2.043500
4.338700 2.029300
4.359600 2.025700
4.380600 2.002300
4.401600 1.933600
4.422500 1.910000
4.443500 1.888400
4.464500 1.868100
4.485400 1.851000
4.506400 1.838000
4.527300 1.833600
4.548300 1.841600
4.569300 1.857600
4.590200 1.879300
4.611200 1.906200
4.632200 1.938400
4.653100 1.972600
4.674100 2.005200
4.695100 2.038500
4.716000 2.072000
4.737000 2.105900
4.758000 2.135400
4.778900 2.160900
4.799900 2.183000
4.820900 2.191800
4.841800 2.193600
4.862800 2.198400
4.883800 2.201300
4.904700 2.200100
4.925700 2.199200
4.946700 2.191700
4.967600 2.174600
4.988600 2.150600
5.009600 2.126700
5.030500 2.103100
5.051500 2.082100
5.072500 2.062900
5.093400 2.044800
5.114400 2.031200
5.135400 2.021700
5.156300 2.013500
5.177300 2.004400
5.198300 1.994300
5.219200 1.983700
5.240200 1.974300
5.261200 1.967000
5.282100 1.960500
5.303100 1.955100
5.324100 1.950400
5.345000 1.946200
5.366000 1.943600
5.387000 1.940200
5.407900 1.935300
5.428900 1.927700
5.449900 1.922600
5.470800 1.926400
5.491800 1.926700
5.512800 1.918800
5.533700 1.906800
5.554700 1.899100
5.575700 1.900400
5.596600 1.903100
5.617600 1.901600
5.638600 1.904200
5.659500 1.917000
5.680500 1.934800
5.701500 1.965500
5.722400 1.994600
5.743400 2.018900
5.764400 2.040600
5.785300 2.060500
5.806300 2.078700
5.827200 2.095900
5.848200 2.112700
5.869200 2.128900
5.890100 2.142200
5.911100 2.155900
5.932100 2.173500
5.953000 2.192500
5.974000 2.202400
5.995000 2.213000
6.015900 2.194900
6.036900 2.202800
6.057900 2.169700
6.078800 2.165500
6.099800 2.155400
6.120800 2.147000
6.141700 2.144700
6.162700 2.138200
6.183700 2.128500
6.204600 2.120700
6.225600 2.078400
6.246600 2.065100
6.267500 2.048900
6.288500 2.035400
6.309500 2.021200
6.330400 2.026200
6.351400 2.033200
6.372400 2.038800
6.393300 2.037100
6.414300 2.023200
6.435300 1.996600
6.456200 1.959000
6.477200 1.912100
6.498200 1.878800
6.519100 1.870700
6.540100 1.892500
6.561100 1.793900
6.582000 1.789900
6.603000 1.539500
6.624000 1.468700
6.644900 1.400600
6.665900 1.337100
6.686900 1.276200
6.707800 1.287900
6.728800 1.138000
6.749800 1.050000
6.770700 0.992600
6.791700 0.942600
6.812700 0.891900
6.833600 0.844800
6.854600 0.803400
6.875600 0.755100
6.896500 0.702900
6.917500 0.643600
6.938500 0.577100
6.959400 0.461400
6.980400 0.383800
7.001400 0.368200
7.022300 0.358600
7.043300 0.348600
7.064300 0.344300
7.085200 0.349000
7.106200 0.364200
7.127100 0.281500
7.148100 0.303300
7.169100 0.325600
7.190000 0.349500
7.211000 0.388700
7.232000 0.426100
7.252900 0.460200
7.273900 0.490500
7.294900 0.517000
7.315800 0.541100
7.336800 0.568400
7.357800 0.590900
7.378700 0.608100
7.399700 0.622700
7.420700 0.648200
7.441600 0.681500
7.462600 0.726400
7.483600 0.781400
7.504500 0.837400
7.525500 0.893700
7.546500 0.950700
7.567400 1.015100
7.588400 1.084400
7.609400 1.149800
7.630300 1.207900
7.651300 1.267300
7.672300 1.334900
7.693200 1.407000
7.714200 1.487100
7.735200 1.582600
7.756100 1.684500
7.777100 1.779700
7.798100 1.837200
7.819000 1.871700
7.840000 1.897400
7.861000 1.921900
7.881900 1.942100
7.902900 1.959000
7.923900 1.976000
7.944800 1.994300
7.965800 2.007900
7.986800 2.039000
8.007700 2.071700
8.028700 2.112600
8.049700 2.172700
8.070600 2.252300
8.091600 2.327800
8.112600 2.399400
8.133500 2.467000
8.154500 2.386100
8.175500 2.381500
8.196400 2.385800
8.217400 2.391900
8.238400 2.403800
8.259300 2.418800
8.280300 2.453400
8.301300 2.490400
8.322200 2.507700
8.343200 2.518300
8.364200 2.511000
8.385100 2.506500
8.406100 2.522400
8.427100 2.553700
8.448000 2.595100
8.469000 3.135200
8.489900 2.631000
8.510900 2.634100
8.531900 2.629900
8.552800 2.611600
8.573800 2.580500
8.594800 2.540900
8.615700 2.513500
8.636700 2.495000
8.657700 2.476700
8.678600 2.458600
8.699600 2.439300
8.720600 2.417200
8.741500 2.392200
8.762500 2.393400
8.783500 2.373400
8.804400 2.350400
8.825400 2.323900
8.846400 2.297800
8.867300 2.274700
8.888300 2.259200
8.909300 2.259100
8.930200 2.272200
8.951200 2.267600
8.972200 2.263400
8.993100 2.270000
9.014100 2.288000
9.035100 2.326300
9.056000 2.370200
9.077000 2.413900
9.098000 2.451300
9.118900 2.487800
9.139900 2.519000
9.160900 2.535400
9.181800 2.518100
9.202800 2.467000
9.223800 2.449600
9.244700 2.424500
9.265700 2.390200
9.286700 2.357000
9.307600 2.315600
9.328600 2.278800
9.349600 2.252500
9.370500 2.235700
9.391500 2.230100
9.412500 2.235700
9.433400 2.249100
9.454400 2.279300
9.475400 2.302300
9.496300 2.317600
9.517300 2.340400
9.538300 2.337400
9.559200 2.263100
9.580200 2.165500
9.601200 1.986100
9.622100 1.968400
9.643100 2.021100
9.664100 2.077500
9.685000 2.136500
9.706000 2.198100
9.727000 2.260200
9.747900 2.318500
9.768900 2.493800
9.789800 2.467400
9.810800 2.402900
9.831800 2.318100
9.852700 2.216100
9.873700 2.148100
9.894700 2.108800
9.915600 2.074500
9.936600 2.061700
9.957600 1.995700
9.978500 1.885300
9.999500 1.871700
10.020500 1.860100
10.041400 1.856400
10.062400 1.844200
10.083400 1.813600
10.104300 1.782100
10.125300 1.776300
10.146300 1.786300
10.167200 1.780200
10.188200 1.784000
10.209200 1.803300
10.230100 1.850800
10.251100 1.883900
10.272100 1.871400
10.293000 1.863800
10.314000 1.794000
10.335000 1.794100
10.355900 1.785400
10.376900 1.770000
10.397900 1.744600
10.418800 1.714600
10.439800 1.675100
10.460800 1.629000
10.481700 1.586500
10.502700 1.552000
10.523700 1.542500
10.544600 1.538800
10.565600 1.589800
10.586600 1.563700
10.607500 1.570400
10.628500 1.587500
10.649500 1.613300
10.670400 1.643700
10.691400 1.678500
10.712400 1.688300
10.733300 1.776600
10.754300 1.889300
10.775300 2.026400
10.796200 2.345700
10.817200 2.074700
10.838200 2.096800
10.859100 2.142300
10.880100 2.157600
10.901100 2.113500
10.922000 2.056200
10.943000 2.001600
10.964000 1.942500
10.984900 1.864200
11.005900 1.791300
11.026900 1.706300
11.047800 1.624800
11.068800 1.577800
11.089700 1.508700
11.110700 1.452800
11.131700 1.415500
11.152600 1.390100
11.173600 1.365000
11.194600 1.343200
11.215500 1.342300
11.236500 1.409100
11.257500 1.413900
11.278400 1.403800
11.299400 1.386200
11.320400 1.366000
11.341300 1.293100
11.362300 1.292700
11.383300 1.281000
11.404200 1.260900
11.425200 1.236800
11.446200 1.214200
11.467100 1.191600
11.488100 1.171900
11.509100 1.158600
11.530000 1.154100
11.551000 1.154900
11.572000 1.160400
11.592900 1.162500
11.613900 1.159700
11.634900 1.165700
11.655800 1.176300
11.676800 1.188100
11.697800 1.200300
11.718700 1.214100
11.739700 1.229300
11.760700 1.245200
11.781600 1.261500
11.802600 1.275000
11.823600 1.286700
11.844500 1.298000
11.865500 1.352400
11.886500 1.356500
11.907400 1.361200
11.928400 1.364800
11.949400 1.342200
11.970300 1.358700
11.991300 1.378800
12.012300 1.398100
12.033200 1.456800
12.054200 1.479000
12.075200 1.503000
12.096100 1.529200
12.117100 1.553600
12.138100 1.536300
12.159000 1.547100
12.180000 1.552800
12.201000 1.567300
12.221900 1.549500
12.242900 1.564100
12.263900 1.577200
12.284800 1.582700
12.305800 1.576700
12.326800 1.535900
12.347700 1.519100
12.368700 1.497400
12.389600 1.477000
12.410600 1.453000
12.431600 1.435800
12.452500 1.419200
12.473500 1.402900
12.494500 1.395000
12.515400 1.393100
12.536400 1.395300
12.557400 1.406300
12.578300 1.418000
12.599300 1.436400
12.620300 1.462900
12.641200 1.505000
12.662200 1.525100
12.683200 1.523000
12.704100 1.508600
12.725100 1.510300
12.746100 1.562200
12.767000 1.618200
12.788000 1.465100
12.809000 1.408300
12.829900 1.350700
12.850900 1.302300
12.871900 1.307500
12.892800 1.332300
12.913800 1.382100
12.934800 1.464200
12.955700 1.506400
12.976700 1.526500
12.997700 1.544800
13.018600 1.561000
13.039600 1.575200
13.060600 1.587100
13.081500 1.599100
13.102500 1.614600
13.123500 1.632000
13.144400 1.657400
13.165400 1.694500
13.186400 1.768200
13.207300 1.812900
13.228300 1.829600
13.249300 1.837900
13.270200 1.837700
13.291200 1.868500
13.312200 1.902300
13.333100 1.938500
13.354100 1.975200
13.375100 1.927500
13.396000 1.948200
13.417000 1.970400
13.438000 1.981800
13.458900 1.989200
13.479900 1.997700
13.500900 2.013600
13.521800 2.030200
13.542800 2.045600
13.563800 2.058700
13.584700 2.067900
13.605700 2.076600
13.626700 2.098000
13.647600 2.131200
13.668600 2.154800
13.689600 2.263900
