set title 'mp-7245 - Density of States'
set xlabel 'Energy (eV)'
set ylabel 'DOS (states/eV)'
set grid
set xrange [-10:10]
set yrange [0:1.504]
set xzeroaxis lt -1
set terminal png size 800,600
set output 'mp-7245_dos_gnuplot.png'
plot '-' using 1:2 with lines title 'DOS'
-11.283500 0.000000
-11.241300 0.000000
-11.199100 0.000000
-11.156900 0.000000
-11.114700 0.000000
-11.072500 0.000000
-11.030300 0.000000
-10.988100 0.000000
-10.945900 0.000000
-10.903700 0.000000
-10.861500 0.000000
-10.819300 0.000000
-10.777100 0.000000
-10.734900 0.000000
-10.692700 0.000000
-10.650500 0.000000
-10.608300 0.000000
-10.566100 0.000000
-10.523900 0.000000
-10.481700 0.000000
-10.439500 0.000000
-10.397300 0.000000
-10.355100 0.000000
-10.312900 0.000000
-10.270700 0.000000
-10.228500 0.000000
-10.186300 0.000000
-10.144100 0.000000
-10.101900 0.000000
-10.059700 0.000000
-10.017500 0.000000
-9.975300 0.000000
-9.933100 0.000000
-9.890900 0.000000
-9.848700 0.000000
-9.806500 0.000000
-9.764300 0.000000
-9.722100 0.000000
-9.679900 0.000000
-9.637700 0.000000
-9.595500 0.000000
-9.553300 0.000000
-9.511100 0.000000
-9.468900 0.000000
-9.426700 0.000000
-9.384500 0.000000
-9.342300 0.000000
-9.300100 0.000000
-9.257900 0.000000
-9.215700 0.000000
-9.173500 0.000000
-9.131300 0.000000
-9.089100 0.000000
-9.046900 0.000000
-9.004700 0.000000
-8.962500 0.000000
-8.920300 0.000000
-8.878100 0.000000
-8.835900 0.000000
-8.793700 0.000000
-8.751500 0.000000
-8.709300 0.000000
-8.667100 0.000000
-8.624900 0.000000
-8.582700 0.000000
-8.540500 0.000000
-8.498300 0.000000
-8.456100 0.000000
-8.413900 0.000000
-8.371700 0.000000
-8.329500 0.000000
-8.287300 0.000000
-8.245100 0.000000
-8.202900 0.000000
-8.160700 0.000000
-8.118500 0.000000
-8.076300 0.000000
-8.034100 0.000000
-7.991900 0.000000
-7.949700 0.000000
-7.907500 0.000000
-7.865300 0.000000
-7.823100 0.000000
-7.780900 0.000000
-7.738700 0.000000
-7.696500 0.000000
-7.654300 0.000000
-7.612100 0.000000
-7.569900 0.000000
-7.527700 0.000000
-7.485500 0.000000
-7.443300 0.000200
-7.401100 0.029300
-7.358900 0.067100
-7.316700 0.083100
-7.274500 0.106700
-7.232300 0.125700
-7.190100 0.131700
-7.147900 0.141900
-7.105700 0.154200
-7.063500 0.167600
-7.021300 0.179000
-6.979100 0.187700
-6.936900 0.194700
-6.894700 0.201900
-6.852500 0.209500
-6.810300 0.219500
-6.768100 0.229200
-6.725900 0.237900
-6.683700 0.244700
-6.641500 0.251500
-6.599300 0.258200
-6.557100 0.264700
-6.514900 0.272100
-6.472700 0.279800
-6.430500 0.287200
-6.388300 0.294000
-6.346100 0.301000
-6.303900 0.307800
-6.261700 0.314200
-6.219500 0.321100
-6.177300 0.328200
-6.135100 0.334600
-6.092900 0.340900
-6.050700 0.347300
-6.008500 0.353800
-5.966300 0.360600
-5.924100 0.368000
-5.881900 0.375300
-5.839700 0.381900
-5.797500 0.388400
-5.755300 0.395100
-5.713100 0.402000
-5.670900 0.409300
-5.628700 0.417200
-5.586500 0.425000
-5.544300 0.432400
-5.502100 0.440100
-5.459900 0.448100
-5.417700 0.456300
-5.375500 0.464700
-5.333300 0.473500
-5.291100 0.482500
-5.248900 0.492400
-5.206700 0.503500
-5.164500 0.515600
-5.122300 0.528700
-5.080100 0.543000
-5.037900 0.558600
-4.995700 0.579800
-4.953500 0.610200
-4.911300 0.634900
-4.869100 0.652000
-4.826900 0.666000
-4.784700 0.662700
-4.742500 0.657900
-4.700300 0.652100
-4.658100 0.651400
-4.615900 0.650600
-4.573700 0.654300
-4.531500 0.650700
-4.489300 0.651100
-4.447100 0.651300
-4.404900 0.650500
-4.362700 0.650300
-4.320500 0.652300
-4.278300 0.655700
-4.236100 0.661900
-4.193900 0.671000
-4.151700 0.674800
-4.109500 0.681700
-4.067300 0.698000
-4.025100 0.749900
-3.982900 0.717000
-3.940700 0.696200
-3.898500 0.654300
-3.856300 0.643200
-3.814100 0.631200
-3.771900 0.627700
-3.729700 0.628000
-3.687500 0.633200
-3.645300 0.648900
-3.603100 0.656100
-3.560900 0.651600
-3.518700 0.634400
-3.476500 0.620600
-3.434300 0.603800
-3.392100 0.583500
-3.349900 0.562200
-3.307700 0.560200
-3.265500 0.559300
-3.223300 0.540200
-3.181100 0.481000
-3.138900 0.368300
-3.096700 0.261000
-3.054500 0.227700
-3.012300 0.204700
-2.970100 0.206000
-2.927900 0.179300
-2.885700 0.162600
-2.843500 0.151600
-2.801300 0.138500
-2.759100 0.137100
-2.716900 0.141400
-2.674700 0.155100
-2.632500 0.165500
-2.590300 0.178700
-2.548100 0.200500
-2.505900 0.226300
-2.463700 0.243600
-2.421500 0.255800
-2.379300 0.262200
-2.337100 0.270300
-2.294900 0.282600
-2.252700 0.318000
-2.210500 0.398000
-2.168300 0.409100
-2.126100 0.424500
-2.083900 0.458500
-2.041700 0.513700
-1.999500 0.523500
-1.957300 0.542600
-1.915100 0.572700
-1.872900 0.610400
-1.830700 0.646000
-1.788500 0.709500
-1.746300 0.840500
-1.704100 0.822500
-1.661900 0.816900
-1.619600 0.815800
-1.577400 0.804100
-1.535200 0.789600
-1.493000 0.785000
-1.450800 0.778700
-1.408600 0.777800
-1.366400 0.782400
-1.324200 0.796400
-1.282000 0.803100
-1.239800 0.823400
-1.197600 0.819900
-1.155400 0.806900
-1.113200 0.751500
-1.071000 0.680400
-1.028800 0.638700
-0.986600 0.615200
-0.944400 0.595900
-0.902200 0.578000
-0.860000 0.561600
-0.817800 0.545700
-0.775600 0.529800
-0.733400 0.516300
-0.691200 0.503100
-0.649000 0.489600
-0.606800 0.476000
-0.564600 0.465500
-0.522400 0.455600
-0.480200 0.445900
-0.438000 0.436100
-0.395800 0.426300
-0.353600 0.416500
-0.311400 0.407600
-0.269200 0.399300
-0.227000 0.391500
-0.184800 0.384000
-0.142600 0.377300
-0.100400 0.370700
-0.058200 0.362500
-0.016000 0.356500
0.026200 0.350300
0.068400 0.343500
0.110600 0.336800
0.152800 0.330100
0.195000 0.323400
0.237200 0.316700
0.279400 0.310200
0.321600 0.303500
0.363800 0.296700
0.406000 0.291700
0.448200 0.290400
0.490400 0.290200
0.532600 0.295800
0.574800 0.277800
0.617000 0.265300
0.659200 0.270400
0.701400 0.303100
0.743600 0.307300
0.785800 0.297700
0.828000 0.292200
0.870200 0.289000
0.912400 0.287500
0.954600 0.289000
0.996800 0.297100
1.039000 0.291400
1.081200 0.286500
1.123400 0.285700
1.165600 0.285400
1.207800 0.408500
1.250000 0.459600
1.292200 0.513600
1.334400 0.578100
1.376600 0.661600
1.418800 0.745400
1.461000 0.838700
1.503200 0.906900
1.545400 0.809100
1.587600 0.783000
1.629800 0.765700
1.672000 0.753500
1.714200 0.744700
1.756400 0.732600
1.798600 0.721000
1.840800 0.707600
1.883000 0.694000
1.925200 0.688200
1.967400 0.685000
2.009600 0.683700
2.051800 0.700600
2.094000 0.706300
2.136200 0.730300
2.178400 0.721000
2.220600 0.714300
2.262800 0.709300
2.305000 0.708700
2.347200 0.707700
2.389400 0.711400
2.431600 0.716800
2.473800 0.722800
2.516000 0.728500
2.558200 0.735900
2.600400 0.743800
2.642600 0.747700
2.684800 0.760900
2.727000 0.769100
2.769200 0.775700
2.811400 0.783100
2.853600 0.789900
2.895800 0.796900
2.938000 0.804500
2.980200 0.812400
3.022400 0.820600
3.064600 0.828600
3.106800 0.841000
3.149000 0.850400
3.191200 0.864500
3.233400 0.880400
3.275600 0.898500
3.317800 0.930800
3.360000 0.954400
3.402200 0.979500
3.444400 1.016400
3.486600 1.057700
3.528800 1.097900
3.571000 1.105900
3.613200 1.106500
3.655400 1.112500
3.697600 1.111900
3.739800 1.118100
3.782000 1.120600
3.824200 1.118600
3.866400 1.118900
3.908600 1.112300
3.950800 1.109900
3.993000 1.101400
4.035200 1.098200
4.077400 1.094600
4.119600 1.091900
4.161800 1.087600
4.204000 1.085000
4.246200 1.085300
4.288400 1.087200
4.330600 1.086700
4.372800 1.085200
4.415000 1.081200
4.457200 1.076100
4.499400 1.075600
4.541600 1.077900
4.583800 1.074500
4.626000 1.070100
4.668200 1.065800
4.710400 1.062400
4.752600 1.062700
4.794800 1.065800
4.837000 1.070700
4.879200 1.076700
4.921400 1.081300
4.963600 1.078800
5.005800 1.076900
5.048000 1.077200
5.090200 1.078300
5.132400 1.075200
5.174600 1.073400
5.216800 1.072000
5.259000 1.072300
5.301200 1.070100
5.343400 1.066800
5.385600 1.064700
5.427800 1.063900
5.470000 1.104900
5.512200 1.131200
5.554400 1.147800
5.596600 1.102900
5.638800 1.050500
5.681000 1.029300
5.723200 1.012800
5.765400 0.996500
5.807600 0.973900
5.849800 0.964300
5.892000 0.970200
5.934200 0.975600
5.976400 0.973100
6.018600 0.966200
6.060800 0.951500
6.103000 0.938800
6.145200 0.940400
6.187400 0.936900
6.229600 0.926300
6.271800 0.865100
6.314000 0.834800
6.356200 0.833800
6.398400 0.829200
6.440600 0.834700
6.482800 0.841000
6.525000 0.842300
6.567200 0.819000
6.609400 0.781000
6.651600 0.769100
6.693800 0.737000
6.736000 0.688200
6.778200 0.660000
6.820400 0.647300
6.862600 0.644800
6.904800 0.654700
6.947000 0.670900
6.989200 0.677700
7.031400 0.693500
7.073600 0.706500
7.115800 0.709500
7.158000 0.727900
7.200200 0.757400
7.242400 0.800600
7.284600 0.849200
7.326800 0.881500
7.369000 0.898700
7.411200 0.937700
7.453400 0.950000
7.495600 0.907500
7.537800 0.855500
7.580000 0.810800
7.622200 0.759500
7.664400 0.725300
7.706600 0.708400
7.748800 0.694100
7.791000 0.677900
7.833200 0.670300
7.875400 0.672800
7.917600 0.610100
7.959800 0.581500
8.002000 0.557500
8.044200 0.522600
8.086400 0.473700
8.128600 0.424100
8.170800 0.377800
8.213000 0.331200
8.255200 0.286000
8.297400 0.245300
8.339600 0.204200
8.381800 0.170800
8.424000 0.141800
8.466200 0.120800
8.508400 0.104600
8.550600 0.091600
8.592800 0.080100
8.635000 0.069800
8.677200 0.060700
8.719400 0.053100
8.761600 0.050900
8.803800 0.060400
8.846000 0.075100
8.888200 0.094300
8.930400 0.118500
8.972600 0.168400
9.014800 0.215300
9.057000 0.271000
9.099200 0.341000
9.141400 0.423200
9.183600 0.511700
9.225800 0.598800
9.268000 0.673000
9.310200 0.745100
9.352400 0.811000
9.394600 0.872900
9.436800 0.890900
9.479000 0.941300
9.521200 0.989800
9.563400 1.041200
9.605600 1.093100
9.647800 1.159500
9.690000 1.165200
9.732200 1.199300
9.774400 1.243600
9.816600 1.295800
9.858800 1.339000
9.901000 1.363900
9.943200 1.367200
9.985400 1.360800
10.027600 1.372800
10.069800 1.390800
10.112000 1.402500
10.154200 1.423800
10.196400 1.444400
10.238600 1.477900
10.280800 1.513500
10.323000 1.535200
10.365200 1.583600
10.407400 1.654200
10.449600 1.742800
10.491800 1.807600
10.534000 1.763100
10.576200 1.653900
10.618400 1.552200
10.660600 1.481300
10.702800 1.442700
10.745000 1.463700
10.787200 1.425200
10.829400 1.368000
10.871600 1.294700
10.913800 1.289400
10.956000 1.263700
10.998200 1.229500
11.040400 1.168200
11.082600 1.125200
11.124800 1.088300
11.167000 1.052900
11.209200 1.006700
11.251400 0.978800
11.293600 0.960200
11.335800 0.951000
11.378000 0.950200
11.420200 0.946100
11.462400 0.943300
11.504600 0.930200
11.546800 0.920600
11.589000 0.892400
11.631200 0.882800
11.673400 0.873800
11.715600 0.869000
11.757800 0.873100
11.800000 0.890400
11.842200 0.920100
11.884400 0.954000
11.926600 0.965400
11.968800 0.990600
12.011000 1.021200
12.053200 1.059800
12.095400 1.106800
12.137600 1.141600
12.179800 1.180600
12.222000 1.209700
12.264200 1.234400
12.306400 1.261800
12.348600 1.275000
12.390800 1.251500
12.433000 1.198200
12.475200 1.169900
12.517400 1.158400
12.559600 1.173800
12.601800 1.178100
12.644000 1.178900
12.686200 1.171100
12.728400 1.162000
12.770600 1.152700
12.812800 1.145100
12.855000 1.125500
12.897200 1.073200
12.939400 1.031200
12.981600 0.992300
13.023800 0.955800
13.066000 0.928000
13.108200 0.899700
13.150400 0.869300
13.192600 0.843600
13.234800 0.823900
13.277000 0.830500
13.319200 0.879700
13.361400 0.913400
13.403600 0.935200
13.445800 0.986200
13.488000 1.090700
13.530200 1.005300
13.572400 0.993000
13.614600 0.992000
13.656800 1.002100
13.699000 1.002000
13.741200 0.995700
13.783400 1.020900
13.825600 1.043100
13.867800 1.015500
13.910000 0.967100
13.952200 0.956900
13.994400 0.956900
14.036600 0.955100
14.078800 0.962400
14.121000 0.978200
14.163200 1.010300
14.205400 1.042200
14.247700 1.065400
14.289900 1.092100
14.332100 1.135900
14.374300 1.135600
14.416500 1.142800
14.458700 1.153600
14.500900 1.167100
14.543100 1.185200
14.585300 1.186400
14.627500 1.206400
14.669700 1.228700
14.711900 1.250900
14.754100 1.371500
14.796300 1.265600
14.838500 1.259700
14.880700 1.264600
14.922900 1.258000
14.965100 1.263200
15.007300 1.276500
15.049500 1.295100
15.091700 1.320700
15.133900 1.326000
15.176100 1.344100
15.218300 1.380000
15.260500 1.406600
15.302700 1.427200
15.344900 1.434500
15.387100 1.417200
15.429300 1.396500
15.471500 1.378500
15.513700 1.339900
15.555900 1.302800
15.598100 1.278800
15.640300 1.241300
15.682500 1.225100
15.724700 1.217100
15.766900 1.211400
15.809100 1.200300
15.851300 1.196700
15.893500 1.210300
15.935700 1.150200
15.977900 1.090700
16.020100 1.055100
16.062300 0.983400
16.104500 0.961800
16.146700 0.952900
16.188900 0.954000
16.231100 0.963500
16.273300 0.975400
16.315500 0.989000
16.357700 0.996200
16.399900 0.985100
16.442100 0.985100
16.484300 0.954700
16.526500 0.930500
16.568700 0.923100
16.610900 0.927600
16.653100 0.941600
16.695300 0.918000
16.737500 0.925800
16.779700 0.938800
16.821900 0.955400
16.864100 0.948500
16.906300 0.947000
16.948500 0.953000
16.990700 0.961500
17.032900 0.986000
17.075100 0.990900
17.117300 0.998900
17.159500 0.994000
17.201700 0.989500
17.243900 0.980600
17.286100 0.965700
17.328300 0.949400
17.370500 0.938900
17.412700 0.932400
17.454900 0.923000
17.497100 0.909500
17.539300 0.899500
17.581500 0.896200
17.623700 0.898000
17.665900 0.905400
17.708100 0.915800
17.750300 0.926600
17.792500 0.933100
17.834700 0.941100
17.876900 0.950700
17.919100 0.964700
17.961300 0.973200
18.003500 0.990400
18.045700 1.034000
18.087900 1.039000
18.130100 1.037700
18.172300 1.045800
18.214500 1.048000
18.256700 1.043300
18.298900 1.051900
18.341100 1.061500
18.383300 1.076800
18.425500 1.090000
18.467700 1.102600
18.509900 1.112500
18.552100 1.122100
18.594300 1.130600
18.636500 1.145300
18.678700 1.161000
18.720900 1.172500
18.763100 1.174900
18.805300 1.177200
18.847500 1.179600
18.889700 1.183800
18.931900 1.174000
18.974100 1.160300
19.016300 1.157600
19.058500 1.160900
19.100700 1.152800
19.142900 1.141700
19.185100 1.127100
19.227300 1.096900
19.269500 1.068100
19.311700 1.046300
19.353900 1.023000
19.396100 0.994800
19.438300 0.981400
19.480500 0.970200
19.522700 0.963400
19.564900 0.958200
19.607100 0.952700
19.649300 0.953300
19.691500 0.951500
19.733700 0.953100
19.775900 0.960700
19.818100 0.988700
19.860300 1.028700
19.902500 1.035400
19.944700 1.026300
19.986900 1.027100
20.029100 1.026500
20.071300 1.023600
20.113500 1.018400
20.155700 1.016400
20.197900 1.018500
20.240100 1.028900
20.282300 1.040200
20.324500 1.082700
20.366700 1.132500
20.408900 1.168900
20.451100 1.175700
20.493300 1.142700
20.535500 1.136800
20.577700 1.122600
20.619900 1.119900
20.662100 1.171800
20.704300 1.224000
20.746500 1.254200
20.788700 1.221300
20.830900 1.237100
20.873100 1.224500
20.915300 1.227400
20.957500 1.265300
20.999700 1.322100
21.041900 1.352000
21.084100 1.314300
21.126300 1.299600
21.168500 1.308400
21.210700 1.310400
21.252900 1.298200
21.295100 1.314200
21.337300 1.333800
21.379500 1.346100
21.421700 1.393100
21.463900 1.441200
21.506100 1.485300
21.548300 1.506900
21.590500 1.513500
21.632700 1.515300
21.674900 1.515000
21.717100 1.515000
21.759300 1.540800
21.801500 1.558800
21.843700 1.569100
21.885900 1.580200
21.928100 1.601000
21.970300 1.618500
22.012500 1.635800
22.054700 1.640100
22.096900 1.678400
22.139100 1.643800
22.181300 1.564200
22.223500 1.478900
22.265700 1.439400
22.307900 1.413200
22.350100 1.354200
22.392300 1.330500
22.434500 1.323500
22.476700 1.342100
22.518900 1.341200
22.561100 1.349800
22.603300 1.365800
22.645500 1.355200
22.687700 1.276900
22.729900 1.249000
22.772100 1.229200
22.814300 1.226100
22.856500 1.223400
22.898700 1.223900
22.940900 1.235200
22.983100 1.243600
23.025300 1.258200
23.067500 1.305000
23.109700 1.344400
23.151900 1.363600
23.194100 1.374700
23.236300 1.416100
23.278500 1.486800
23.320700 1.551600
23.362900 1.667300
23.405100 1.696900
23.447300 1.741500
23.489500 1.792900
23.531700 1.766200
23.573900 1.728900
23.616100 1.691300
23.658300 1.678900
23.700500 1.681400
23.742700 1.669900
23.784900 1.666100
23.827100 1.660500
23.869300 1.653600
23.911500 1.639100
23.953700 1.650900
23.995900 1.602500
24.038100 1.589300
24.080300 1.581400
24.122500 1.573100
24.164700 1.543000
24.206900 1.508900
24.249100 1.461700
24.291300 1.447800
24.333500 1.446900
24.375700 1.436100
24.417900 1.397200
24.460100 1.380600
24.502300 1.375300
24.544500 1.352900
24.586700 1.336900
24.628900 1.329600
24.671100 1.336700
24.713300 1.345600
24.755500 1.301000
24.797700 1.254600
24.839900 1.241000
24.882100 1.235400
24.924300 1.243300
24.966500 1.214600
25.008700 1.229300
25.050900 1.242300
25.093100 1.243100
25.135300 1.231700
25.177500 1.194900
25.219700 1.159800
25.261900 1.121700
25.304100 1.104900
25.346300 1.104700
25.388500 1.090900
25.430700 1.100200
25.472900 1.114300
25.515100 1.137500
25.557300 1.161400
25.599500 1.180800
25.641700 1.194500
25.683900 1.189600
25.726100 1.175800
25.768300 1.157000
25.810500 1.136000
25.852700 1.134100
25.894900 1.130500
25.937100 1.128600
25.979300 1.131700
26.021500 1.150000
26.063700 1.144800
26.105900 1.125200
26.148100 1.140200
26.190300 1.149200
26.232500 1.173200
26.274700 1.191800
26.316900 1.208700
26.359100 1.224100
26.401300 1.247200
26.443500 1.273100
26.485700 1.301700
26.527900 1.325600
26.570100 1.347000
26.612300 1.368100
26.654500 1.383100
26.696700 1.412300
26.738900 1.456100
26.781100 1.477800
26.823300 1.483100
26.865500 1.481800
26.907700 1.500400
26.949900 1.536900
26.992100 1.592400
27.034300 1.611400
27.076500 1.607100
27.118700 1.595500
27.160900 1.578800
27.203100 1.547600
27.245300 1.526400
27.287500 1.484400
27.329700 1.447300
27.371900 1.426900
27.414100 1.418800
27.456300 1.420700
27.498500 1.377400
27.540700 1.346200
27.582900 1.330800
27.625100 1.259800
27.667300 1.232600
27.709500 1.222400
27.751700 1.227600
27.793900 1.252400
27.836100 1.264300
27.878300 1.280300
27.920500 1.311600
27.962700 1.365500
28.004900 1.447700
28.047100 1.585700
28.089300 1.466400
28.131500 1.464900
28.173700 1.469600
28.215900 1.486200
28.258100 1.470300
28.300300 1.449100
28.342500 1.431900
28.384700 1.340200
28.426900 1.264900
28.469100 1.248200
28.511300 1.269600
28.553500 1.361000
28.595700 1.443300
28.637900 1.562800
28.680100 1.672200
28.722300 1.761500
28.764500 1.750900
28.806700 1.762600
28.848900 1.770000
28.891100 1.761100
28.933300 1.767300
28.975500 1.793200
29.017700 1.833300
29.059900 1.870500
29.102100 1.835800
29.144300 1.774000
29.186500 1.730200
29.228700 1.688400
29.270900 1.662000
29.313100 1.654600
29.355300 1.592900
29.397500 1.548000
29.439700 1.526700
29.481900 1.458500
29.524100 1.384200
29.566300 1.303900
29.608500 1.248200
29.650700 1.222100
29.692900 1.206100
29.735100 1.195600
29.777300 1.192800
29.819500 1.210500
29.861700 1.241100
29.903900 1.266800
29.946100 1.327900
29.988300 1.371600
30.030500 1.408800
30.072700 1.435400
30.115000 1.480100
30.157200 1.538300
30.199400 1.579600
30.241600 1.625700
30.283800 1.676800
30.326000 1.732100
30.368200 1.709800
30.410400 1.732000
30.452600 1.728600
30.494800 1.718300
30.537000 1.708100
30.579200 1.713400
30.621400 1.644800
30.663600 1.597200
30.705800 1.547000
30.748000 1.477300
30.790200 1.393200
30.832400 1.341400
30.874600 1.384500
30.916800 1.393000
30.959000 1.367600
31.001200 1.340500
31.043400 1.297300
31.085600 1.261400
31.127800 1.232300
31.170000 1.218100
31.212200 1.203200
31.254400 1.198700
31.296600 1.199600
31.338800 1.194000
31.381000 1.216400
31.423200 1.242500
31.465400 1.278800
31.507600 1.318000
31.549800 1.360200
31.592000 1.453100
31.634200 1.481000
31.676400 1.495800
31.718600 1.530200
31.760800 1.519700
31.803000 1.504700
31.845200 1.511700
31.887400 1.476000
31.929600 1.458600
31.971800 1.447500
32.014000 1.457500
32.056200 1.419700
32.098400 1.390800
32.140600 1.384700
32.182800 1.330300
32.225000 1.287100
32.267200 1.244400
32.309400 1.205900
32.351600 1.136800
32.393800 1.095000
32.436000 1.079900
32.478200 1.051900
32.520400 1.038900
32.562600 1.016500
32.604800 1.004400
32.647000 0.977700
32.689200 0.994300
32.731400 1.000400
32.773600 1.027200
32.815800 1.058800
32.858000 1.076600
32.900200 1.095900
32.942400 1.108000
