set title 'mp-1182030 - Density of States'
set xlabel 'Energy (eV)'
set ylabel 'DOS (states/eV)'
set grid
set xrange [-10:10]
set yrange [0:5.148]
set xzeroaxis lt -1
set terminal png size 800,600
set output 'mp-1182030_dos_gnuplot.png'
plot '-' using 1:2 with lines title 'DOS'
-18.186200 0.000000
-18.157200 0.000000
-18.128300 0.000000
-18.099300 0.000000
-18.070400 0.000000
-18.041400 0.000000
-18.012400 0.000000
-17.983500 0.000000
-17.954500 0.000000
-17.925600 0.000000
-17.896600 0.000000
-17.867700 0.000000
-17.838700 0.000000
-17.809700 0.000000
-17.780800 0.000000
-17.751800 0.000000
-17.722900 0.000000
-17.693900 0.000000
-17.665000 0.000000
-17.636000 0.000000
-17.607000 0.000000
-17.578100 0.000000
-17.549100 0.000000
-17.520200 0.000000
-17.491200 0.000000
-17.462300 0.000000
-17.433300 0.000000
-17.404300 0.000000
-17.375400 0.000000
-17.346400 0.000000
-17.317500 0.000000
-17.288500 0.000000
-17.259600 0.000000
-17.230600 0.000000
-17.201600 0.000000
-17.172700 0.000000
-17.143700 0.000000
-17.114800 0.000000
-17.085800 0.000000
-17.056900 0.000000
-17.027900 0.000000
-16.998900 0.000000
-16.970000 0.000000
-16.941000 0.000000
-16.912100 0.000000
-16.883100 0.000000
-16.854200 0.000000
-16.825200 0.000000
-16.796200 0.000000
-16.767300 0.000000
-16.738300 0.000000
-16.709400 0.000000
-16.680400 0.000000
-16.651500 0.000000
-16.622500 0.000000
-16.593500 0.000000
-16.564600 0.000000
-16.535600 0.000000
-16.506700 0.000000
-16.477700 0.000000
-16.448800 0.000000
-16.419800 0.000000
-16.390800 0.000000
-16.361900 0.000000
-16.332900 0.000000
-16.304000 0.000000
-16.275000 0.000000
-16.246100 0.000000
-16.217100 0.000000
-16.188100 0.000000
-16.159200 0.000000
-16.130200 0.000000
-16.101300 0.000000
-16.072300 0.000000
-16.043400 0.000000
-16.014400 0.000000
-15.985400 0.000000
-15.956500 0.000000
-15.927500 0.000000
-15.898600 0.000000
-15.869600 0.000000
-15.840700 0.000000
-15.811700 0.000000
-15.782700 0.000000
-15.753800 0.000000
-15.724800 0.000000
-15.695900 0.000000
-15.666900 0.000000
-15.638000 0.000000
-15.609000 0.000000
-15.580000 0.000000
-15.551100 0.001100
-15.522100 0.118100
-15.493200 0.317700
-15.464200 0.408500
-15.435300 0.462600
-15.406300 0.546600
-15.377300 0.646700
-15.348400 0.767000
-15.319400 0.913800
-15.290500 1.041900
-15.261500 1.033700
-15.232600 1.001000
-15.203600 1.021900
-15.174600 1.044500
-15.145700 1.058400
-15.116700 1.053900
-15.087800 1.046100
-15.058800 1.047800
-15.029900 1.049300
-15.000900 1.054100
-14.971900 1.059000
-14.943000 1.063100
-14.914000 1.066500
-14.885100 1.066400
-14.856100 1.059200
-14.827200 1.060700
-14.798200 1.070100
-14.769200 1.080400
-14.740300 1.090200
-14.711300 1.092700
-14.682400 1.095000
-14.653400 1.098900
-14.624500 1.102700
-14.595500 1.105900
-14.566500 1.107500
-14.537600 1.105100
-14.508600 1.103500
-14.479700 1.108200
-14.450700 1.114800
-14.421800 1.122600
-14.392800 1.130900
-14.363800 1.139600
-14.334900 1.149100
-14.305900 1.457400
-14.277000 1.517400
-14.248000 1.445100
-14.219100 1.435000
-14.190100 1.438800
-14.161100 1.459200
-14.132200 1.565300
-14.103200 1.306200
-14.074300 1.106800
-14.045300 1.043100
-14.016400 0.981400
-13.987400 0.921800
-13.958400 0.845400
-13.929500 0.808900
-13.900500 0.770200
-13.871600 0.736400
-13.842600 0.758100
-13.813700 1.172000
-13.784700 1.179200
-13.755700 1.224800
-13.726800 1.325600
-13.697800 1.481700
-13.668900 1.739500
-13.639900 1.491900
-13.611000 1.514600
-13.582000 1.535800
-13.553000 1.551200
-13.524100 1.539200
-13.495100 1.581600
-13.466200 1.616700
-13.437200 1.654900
-13.408300 1.750000
-13.379300 1.729900
-13.350300 1.758700
-13.321400 2.142200
-13.292400 2.328500
-13.263500 2.337400
-13.234500 2.143800
-13.205600 2.199600
-13.176600 2.296600
-13.147600 2.245400
-13.118700 1.784900
-13.089700 1.691800
-13.060800 1.620400
-13.031800 1.568900
-13.002900 1.397600
-12.973900 1.339500
-12.944900 1.281300
-12.916000 1.223000
-12.887000 1.193300
-12.858100 1.216400
-12.829100 1.265500
-12.800200 1.316300
-12.771200 1.377200
-12.742200 1.247300
-12.713300 1.188300
-12.684300 1.129200
-12.655400 1.070000
-12.626400 1.010800
-12.597500 0.967100
-12.568500 0.982500
-12.539500 1.059800
-12.510600 1.118400
-12.481600 1.237600
-12.452700 1.133400
-12.423700 1.029200
-12.394800 0.925000
-12.365800 0.833800
-12.336800 1.278500
-12.307900 0.986300
-12.278900 0.252600
-12.250000 0.000000
-12.221000 0.000000
-12.192100 0.000000
-12.163100 0.000000
-12.134100 0.000000
-12.105200 0.000000
-12.076200 0.000000
-12.047300 0.000000
-12.018300 0.000000
-11.989400 0.000000
-11.960400 0.000000
-11.931400 0.000000
-11.902500 0.000000
-11.873500 0.000000
-11.844600 0.000000
-11.815600 0.000000
-11.786700 0.000000
-11.757700 0.000000
-11.728700 0.000000
-11.699800 0.000000
-11.670800 0.000000
-11.641900 0.000000
-11.612900 0.000000
-11.584000 0.000000
-11.555000 0.000000
-11.526000 0.000000
-11.497100 0.000000
-11.468100 0.000000
-11.439200 0.000000
-11.410200 0.000000
-11.381300 0.000000
-11.352300 0.000000
-11.323300 0.000000
-11.294400 0.000000
-11.265400 0.000000
-11.236500 0.000000
-11.207500 0.215400
-11.178600 0.259600
-11.149600 0.340700
-11.120600 0.462600
-11.091700 0.913700
-11.062700 0.756200
-11.033800 0.964000
-11.004800 1.063400
-10.975900 1.008600
-10.946900 1.044600
-10.917900 1.119000
-10.889000 0.930100
-10.860000 0.973400
-10.831100 1.016700
-10.802100 1.060000
-10.773200 1.215400
-10.744200 1.232800
-10.715200 1.256300
-10.686300 1.347900
-10.657300 1.261800
-10.628400 1.233000
-10.599400 1.245200
-10.570500 1.263900
-10.541500 1.288000
-10.512500 1.314400
-10.483600 1.339200
-10.454600 1.396800
-10.425700 1.459900
-10.396700 1.512600
-10.367800 1.574400
-10.338800 1.609900
-10.309800 1.640400
-10.280900 1.679700
-10.251900 1.725600
-10.223000 1.780400
-10.194000 1.838400
-10.165100 1.893900
-10.136100 1.950100
-10.107100 2.161800
-10.078200 2.492300
-10.049200 2.901200
-10.020300 3.270600
-9.991300 3.546100
-9.962400 3.226000
-9.933400 2.767400
-9.904400 2.485200
-9.875500 2.327700
-9.846500 2.172200
-9.817600 1.951300
-9.788600 1.714200
-9.759700 1.451000
-9.730700 1.248500
-9.701700 1.121200
-9.672800 1.088400
-9.643800 1.117700
-9.614900 1.265200
-9.585900 1.215700
-9.557000 1.156000
-9.528000 1.092500
-9.499000 1.028900
-9.470100 0.569000
-9.441100 0.579100
-9.412200 0.589300
-9.383200 0.599500
-9.354300 0.609700
-9.325300 0.619800
-9.296300 0.630000
-9.267400 0.640200
-9.238400 0.650400
-9.209500 0.660500
-9.180500 0.921300
-9.151600 0.957000
-9.122600 0.992700
-9.093600 1.028400
-9.064700 1.063500
-9.035700 1.098300
-9.006800 0.706800
-8.977800 0.699800
-8.948900 0.692800
-8.919900 0.685700
-8.890900 0.678700
-8.862000 0.671700
-8.833000 0.664600
-8.804100 0.657600
-8.775100 0.650600
-8.746200 0.643500
-8.717200 0.636500
-8.688200 0.629500
-8.659300 0.622400
-8.630300 0.614200
-8.601400 0.604900
-8.572400 0.595600
-8.543500 0.586300
-8.514500 0.577000
-8.485500 0.567400
-8.456600 0.560700
-8.427600 0.555200
-8.398700 0.549700
-8.369700 0.544100
-8.340800 0.538600
-8.311800 0.533100
-8.282800 0.527600
-8.253900 0.522100
-8.224900 0.516600
-8.196000 0.511100
-8.167000 0.505600
-8.138100 0.500100
-8.109100 0.494600
-8.080100 0.489100
-8.051200 0.483600
-8.022200 0.478400
-7.993300 0.473200
-7.964300 0.468000
-7.935400 0.462900
-7.906400 0.458200
-7.877400 0.453500
-7.848500 0.448100
-7.819500 0.442600
-7.790600 0.437200
-7.761600 0.431800
-7.732700 0.426300
-7.703700 0.420900
-7.674700 0.415400
-7.645800 0.410000
-7.616800 0.404500
-7.587900 0.399100
-7.558900 0.393600
-7.530000 0.388200
-7.501000 0.382800
-7.472000 0.378800
-7.443100 0.379900
-7.414100 0.381000
-7.385200 0.382200
-7.356200 0.383300
-7.327300 0.384400
-7.298300 0.380400
-7.269300 0.370800
-7.240400 0.361100
-7.211400 0.351500
-7.182500 0.341900
-7.153500 0.332200
-7.124600 0.322600
-7.095600 0.312900
-7.066600 0.303300
-7.037700 0.295600
-7.008700 0.305500
-6.979800 0.318400
-6.950800 0.331300
-6.921900 0.344200
-6.892900 0.357100
-6.863900 0.365600
-6.835000 0.319900
-6.806000 0.260200
-6.777100 0.200500
-6.748100 0.140800
-6.719200 0.081100
-6.690200 0.021300
-6.661200 0.000000
-6.632300 0.000000
-6.603300 0.000000
-6.574400 0.000000
-6.545400 0.000000
-6.516500 0.000000
-6.487500 0.000000
-6.458500 0.000000
-6.429600 0.000000
-6.400600 0.000000
-6.371700 0.000000
-6.342700 0.000000
-6.313800 0.000000
-6.284800 0.000000
-6.255800 0.000000
-6.226900 0.000000
-6.197900 0.000000
-6.169000 0.000000
-6.140000 0.000000
-6.111100 0.000000
-6.082100 0.000000
-6.053100 0.000000
-6.024200 0.000000
-5.995200 0.000000
-5.966300 0.000000
-5.937300 0.000000
-5.908400 0.000000
-5.879400 0.000000
-5.850400 0.000000
-5.821500 0.000000
-5.792500 0.000000
-5.763600 0.000000
-5.734600 0.000000
-5.705700 0.000000
-5.676700 0.000000
-5.647700 0.000000
-5.618800 0.000000
-5.589800 0.000000
-5.560900 0.000000
-5.531900 0.000000
-5.503000 0.000000
-5.474000 0.000000
-5.445000 0.000000
-5.416100 0.000000
-5.387100 0.000000
-5.358200 0.000000
-5.329200 0.000000
-5.300300 0.000000
-5.271300 0.000000
-5.242300 0.000000
-5.213400 0.000000
-5.184400 0.000000
-5.155500 0.000000
-5.126500 0.000000
-5.097600 0.000000
-5.068600 0.000000
-5.039600 0.000000
-5.010700 0.000000
-4.981700 0.000000
-4.952800 0.000000
-4.923800 0.000000
-4.894900 0.000000
-4.865900 0.000000
-4.836900 0.000000
-4.808000 0.000000
-4.779000 0.000000
-4.750100 0.023200
-4.721100 0.160700
-4.692200 0.212200
-4.663200 0.279400
-4.634200 0.366700
-4.605300 0.465100
-4.576300 0.586700
-4.547400 0.729700
-4.518400 0.949400
-4.489500 1.132100
-4.460500 1.154100
-4.431500 1.162400
-4.402600 1.193000
-4.373600 1.221700
-4.344700 1.224600
-4.315700 1.176100
-4.286800 1.138500
-4.257800 1.120400
-4.228800 1.133500
-4.199900 1.148200
-4.170900 1.165000
-4.142000 1.179800
-4.113000 1.186500
-4.084100 1.190400
-4.055100 1.192100
-4.026100 1.201000
-3.997200 1.214800
-3.968200 1.228800
-3.939300 1.242700
-3.910300 1.256100
-3.881400 1.267300
-3.852400 1.274900
-3.823400 1.273400
-3.794500 1.264500
-3.765500 1.268700
-3.736600 1.280900
-3.707600 1.289900
-3.678700 1.300000
-3.649700 1.310200
-3.620700 1.381300
-3.591800 1.420300
-3.562800 1.447200
-3.533900 1.467100
-3.504900 1.488600
-3.476000 1.544100
-3.447000 1.577700
-3.418000 1.528400
-3.389100 1.423200
-3.360100 1.210000
-3.331200 1.197700
-3.302200 1.186000
-3.273300 1.174500
-3.244300 1.162400
-3.215300 1.149600
-3.186400 1.212600
-3.157400 1.263400
-3.128500 1.316600
-3.099500 1.376700
-3.070600 1.480700
-3.041600 1.627000
-3.012600 1.690600
-2.983700 1.759400
-2.954700 1.749900
-2.925800 1.668600
-2.896800 1.716500
-2.867900 1.742600
-2.838900 1.750800
-2.809900 1.750500
-2.781000 1.747600
-2.752000 1.742000
-2.723100 1.718800
-2.694100 1.670500
-2.665200 1.602700
-2.636200 1.506900
-2.607200 1.456300
-2.578300 1.423900
-2.549300 1.401400
-2.520400 1.393700
-2.491400 1.427800
-2.462500 1.445500
-2.433500 1.459900
-2.404500 1.468200
-2.375600 1.480900
-2.346600 1.504000
-2.317700 1.537800
-2.288700 1.620600
-2.259800 1.724200
-2.230800 1.821200
-2.201800 1.910900
-2.172900 1.982900
-2.143900 2.053500
-2.115000 2.110200
-2.086000 2.167800
-2.057100 2.171000
-2.028100 2.194600
-1.999100 2.213500
-1.970200 2.211400
-1.941200 2.228000
-1.912300 2.311300
-1.883300 2.374300
-1.854400 2.415300
-1.825400 2.441500
-1.796400 2.451400
-1.767500 2.434400
-1.738500 2.425700
-1.709600 2.499200
-1.680600 2.459500
-1.651700 2.552400
-1.622700 3.100900
-1.593700 3.068400
-1.564800 3.081300
-1.535800 2.909600
-1.506900 2.667500
-1.477900 2.499500
-1.449000 2.463200
-1.420000 2.443000
-1.391000 2.442900
-1.362100 2.335800
-1.333100 2.178900
-1.304200 2.221600
-1.275200 2.278200
-1.246300 2.262000
-1.217300 2.305600
-1.188300 2.296800
-1.159400 2.316200
-1.130400 2.368900
-1.101500 2.469700
-1.072500 2.494800
-1.043600 2.529600
-1.014600 2.600300
-0.985600 2.671400
-0.956700 2.783100
-0.927700 2.950500
-0.898800 3.120800
-0.869800 3.217400
-0.840900 3.012200
-0.811900 3.066600
-0.782900 3.026300
-0.754000 2.807000
-0.725000 2.623600
-0.696100 2.535900
-0.667100 2.504800
-0.638200 2.445500
-0.609200 2.380100
-0.580200 2.348300
-0.551300 2.347000
-0.522300 2.375500
-0.493400 2.437400
-0.464400 2.451900
-0.435500 2.495700
-0.406500 2.527100
-0.377500 2.359700
-0.348600 2.288800
-0.319600 2.224400
-0.290700 2.126800
-0.261700 2.069300
-0.232800 2.020500
-0.203800 1.944800
-0.174800 1.856700
-0.145900 1.767100
-0.116900 1.672500
-0.088000 1.427000
-0.059000 1.315600
-0.030100 1.267100
-0.001100 1.240200
0.027900 1.238800
0.056800 1.315500
0.085800 1.464000
0.114700 1.582900
0.143700 1.665800
0.172600 1.729600
0.201600 1.641200
0.230600 1.859500
0.259500 2.021800
0.288500 2.190000
0.317400 2.741800
0.346400 3.269000
0.375300 3.042800
0.404300 3.078500
0.433300 3.248700
0.462200 3.179300
0.491200 3.089000
0.520100 3.128300
0.549100 3.124900
0.578000 3.156600
0.607000 3.191700
0.636000 3.244700
0.664900 3.317400
0.693900 3.356100
0.722800 3.390500
0.751800 3.439500
0.780700 3.868200
0.809700 4.144900
0.838700 3.731000
0.867600 3.798100
0.896600 4.089900
0.925500 4.178900
0.954500 3.619700
0.983400 3.042800
1.012400 2.746500
1.041400 2.303700
1.070300 2.102000
1.099300 1.780800
1.128200 1.559400
1.157200 1.222700
1.186100 0.678900
1.215100 0.631600
1.244100 0.586600
1.273000 0.543900
1.302000 0.503400
1.330900 0.465200
1.359900 0.429300
1.388800 0.395700
1.417800 0.365000
1.446800 0.350300
1.475700 0.349500
1.504700 0.358900
1.533600 0.375300
1.562600 0.403700
1.591500 0.441100
1.620500 0.486400
1.649500 0.537600
1.678400 0.599400
1.707400 0.562100
1.736300 0.649700
1.765300 0.958900
1.794200 1.164200
1.823200 1.334800
1.852200 1.319000
1.881100 1.310800
1.910100 1.318000
1.939000 1.365500
1.968000 1.418600
1.996900 1.488100
2.025900 1.738200
2.054900 1.846400
2.083800 2.065700
2.112800 2.487000
2.141700 2.477700
2.170700 3.266000
2.199600 3.915500
2.228600 3.850900
2.257600 4.024200
2.286500 4.105000
2.315500 4.270500
2.344400 4.492200
2.373400 4.450200
2.402300 4.319300
2.431300 4.680000
2.460300 3.958500
2.489200 2.796400
2.518200 2.414500
2.547100 2.273800
2.576100 2.173500
2.605000 1.869000
2.634000 1.668900
2.663000 1.455000
2.691900 1.414400
2.720900 1.666000
2.749800 1.774400
2.778800 1.987800
2.807700 2.248500
2.836700 2.491400
2.865700 2.661000
2.894600 2.924900
2.923600 2.815100
2.952500 3.367300
2.981500 4.069600
3.010400 3.941300
3.039400 4.246400
3.068400 4.512000
3.097300 2.928700
3.126300 2.125800
3.155200 1.992100
3.184200 0.710700
3.213100 0.640400
3.242100 0.610000
3.271100 0.579600
3.300000 0.553800
3.329000 0.557700
3.357900 0.593700
3.386900 0.635800
3.415800 0.590200
3.444800 0.889600
3.473800 0.533600
3.502700 1.561400
3.531700 1.482500
3.560600 1.244600
3.589600 1.062100
3.618500 0.990200
3.647500 0.928600
3.676500 0.888000
3.705400 0.840300
3.734400 0.782500
3.763300 0.680400
3.792300 0.749800
3.821200 0.933200
3.850200 1.257300
3.879200 1.308400
3.908100 1.359500
3.937100 1.410500
3.966000 1.461500
3.995000 1.512600
4.023900 1.563600
4.052900 1.843300
4.081900 3.073100
4.110800 3.531400
4.139800 3.397400
4.168700 2.283100
4.197700 3.004500
4.226600 1.309000
4.255600 1.130400
4.284600 1.154100
4.313500 1.155000
4.342500 1.229500
4.371400 1.226600
4.400400 1.229900
4.429300 1.241600
4.458300 1.257800
4.487300 1.299900
4.516200 1.276900
4.545200 1.235900
4.574100 1.216200
4.603100 1.218400
4.632000 1.226100
4.661000 1.250600
4.690000 1.280200
4.718900 1.314000
4.747900 1.337000
4.776800 1.366000
4.805800 1.397500
4.834700 1.439000
4.863700 1.485400
4.892700 1.664600
4.921600 1.815700
4.950600 1.882100
4.979500 1.952200
5.008500 2.206500
5.037400 2.443000
5.066400 2.591800
5.095400 2.591400
5.124300 2.361000
5.153300 2.028800
5.182200 2.053000
5.211200 2.285500
5.240100 2.732300
5.269100 2.980300
5.298100 2.842900
5.327000 2.725700
5.356000 2.631800
5.384900 2.714800
5.413900 2.813500
5.442800 3.050700
5.471800 2.812400
5.500800 2.810500
5.529700 2.818300
5.558700 2.837800
5.587600 2.834400
5.616600 2.911400
5.645500 2.847200
5.674500 2.782800
5.703500 2.729100
5.732400 2.747200
5.761400 2.637000
5.790300 2.551300
5.819300 2.470800
5.848200 2.432100
5.877200 2.374100
5.906200 2.334700
5.935100 2.322700
5.964100 2.388600
5.993000 2.512400
6.022000 2.519100
6.050900 2.513500
6.079900 2.468500
6.108900 2.812700
6.137800 2.394100
6.166800 2.227400
6.195700 2.004200
6.224700 1.929100
6.253600 1.857400
6.282600 1.766200
6.311600 1.752000
6.340500 1.747400
6.369500 1.750900
6.398400 1.752700
6.427400 1.758500
6.456300 2.014800
6.485300 2.200400
6.514300 2.169200
6.543200 2.067800
6.572200 2.090000
6.601100 2.025900
6.630100 1.945700
6.659000 1.880700
6.688000 1.793400
6.717000 1.766000
6.745900 1.769100
6.774900 1.778100
6.803800 1.819100
6.832800 1.877100
6.861700 1.903200
6.890700 1.882700
6.919700 1.803400
6.948600 1.748200
6.977600 1.734500
7.006500 1.717500
7.035500 1.701000
7.064400 1.687700
7.093400 1.678600
7.122400 1.680800
7.151300 1.684300
7.180300 1.687600
7.209200 1.704300
7.238200 1.718900
7.267100 1.723000
7.296100 1.723800
7.325100 1.727300
7.354000 1.739300
7.383000 1.710800
7.411900 1.680400
7.440900 1.659100
7.469800 1.662800
7.498800 1.802000
7.527800 1.910400
7.556700 1.741200
7.585700 1.829200
7.614600 1.345500
7.643600 1.048800
7.672500 0.901500
7.701500 0.720300
7.730500 0.373900
7.759400 0.112800
7.788400 0.000000
7.817300 0.000000
7.846300 0.000000
7.875200 0.000000
7.904200 0.000000
7.933200 0.000000
7.962100 0.000000
7.991100 0.000000
8.020000 0.000000
8.049000 0.000000
8.077900 0.000000
8.106900 0.000000
8.135900 0.000000
8.164800 0.000000
8.193800 0.000000
8.222700 0.000000
8.251700 0.000000
8.280600 0.000000
8.309600 0.000000
8.338600 0.000000
8.367500 0.000000
8.396500 0.000000
8.425400 0.000000
8.454400 0.000000
8.483300 0.000000
8.512300 0.000000
8.541300 0.000000
8.570200 0.000000
8.599200 0.000000
8.628100 0.000000
8.657100 0.000000
8.686000 0.000000
8.715000 0.000000
8.744000 0.000000
8.772900 0.000000
8.801900 0.000000
8.830800 0.000000
8.859800 0.000000
8.888700 0.000000
8.917700 0.000000
8.946700 0.000000
8.975600 0.000000
9.004600 0.000000
9.033500 0.000000
9.062500 0.000000
9.091400 0.000000
9.120400 0.000000
9.149400 0.000300
9.178300 0.005900
9.207300 0.018600
9.236200 0.038200
9.265200 0.060800
9.294100 0.085000
9.323100 0.112100
9.352100 0.142100
9.381000 0.175600
9.410000 0.220400
9.438900 0.283400
9.467900 0.358300
9.496800 0.451400
9.525800 0.569000
9.554800 0.696900
9.583700 0.798600
9.612700 0.833400
9.641600 0.845700
9.670600 0.846800
9.699500 0.827100
9.728500 0.840800
9.757500 0.972900
9.786400 0.978800
9.815400 0.957500
9.844300 0.932400
9.873300 0.905600
9.902200 0.854700
9.931200 0.755700
9.960200 0.660200
9.989100 0.672100
10.018100 0.691400
10.047000 0.719100
10.076000 0.746500
10.104900 0.790400
10.133900 0.919400
10.162900 0.934700
10.191800 0.937200
10.220800 0.924800
10.249700 0.902200
10.278700 0.880800
10.307600 0.801100
10.336600 0.800300
10.365600 0.799600
10.394500 0.799200
10.423500 0.794100
10.452400 0.784700
10.481400 0.788300
10.510300 0.791400
10.539300 0.795800
10.568300 0.800700
10.597200 0.813000
10.626200 0.830800
10.655100 0.851900
10.684100 0.875800
10.713000 0.904400
10.742000 0.931400
10.771000 0.954200
10.799900 0.972700
10.828900 0.983400
10.857800 1.007100
10.886800 1.034000
10.915700 1.041900
10.944700 1.044800
10.973700 1.045900
11.002600 1.049700
11.031600 1.057800
11.060500 1.070400
11.089500 1.087500
11.118400 1.110400
11.147400 1.140900
11.176400 1.178100
11.205300 1.228200
11.234300 1.299800
11.263200 1.427200
11.292200 1.521600
11.321100 1.524800
11.350100 1.601200
11.379100 1.678000
11.408000 1.745700
11.437000 1.881800
11.465900 1.654600
11.494900 1.621500
11.523800 1.697700
11.552800 1.700800
11.581800 1.746200
11.610700 1.800000
11.639700 1.920100
11.668600 1.928800
11.697600 1.918000
11.726500 2.047500
11.755500 2.327700
11.784500 2.455100
11.813400 3.430400
11.842400 3.010200
11.871300 2.971600
11.900300 2.877600
11.929200 2.828000
