set title 'mp-982982 - Density of States'
set xlabel 'Energy (eV)'
set ylabel 'DOS (states/eV)'
set grid
set xrange [-10:10]
set yrange [0:2.552]
set xzeroaxis lt -1
set terminal png size 800,600
set output 'mp-982982_dos_gnuplot.png'
plot '-' using 1:2 with lines title 'DOS'
-30.936900 0.000000
-30.883700 0.000000
-30.830500 0.000000
-30.777300 0.000000
-30.724100 0.000000
-30.670900 0.000000
-30.617700 0.000000
-30.564500 0.000000
-30.511300 0.000000
-30.458100 0.000000
-30.404900 0.000000
-30.351700 0.000000
-30.298500 0.000000
-30.245300 0.000000
-30.192100 0.000000
-30.138900 0.000000
-30.085700 0.000000
-30.032500 0.000000
-29.979300 0.000000
-29.926100 0.000000
-29.872900 0.000000
-29.819700 0.000000
-29.766500 0.000000
-29.713300 0.000000
-29.660100 0.000000
-29.606900 0.000000
-29.553700 0.000000
-29.500500 0.000000
-29.447300 0.000000
-29.394100 0.000000
-29.340900 0.000000
-29.287700 0.000000
-29.234500 0.000000
-29.181300 0.000000
-29.128100 0.000000
-29.074900 0.000000
-29.021700 0.000000
-28.968500 0.000000
-28.915300 0.000000
-28.862100 0.000000
-28.808900 0.000000
-28.755700 0.000000
-28.702500 0.000000
-28.649300 0.000000
-28.596100 0.000000
-28.542900 0.000000
-28.489700 0.000000
-28.436500 0.000000
-28.383300 0.000000
-28.330100 0.000000
-28.276900 0.000000
-28.223700 0.000000
-28.170500 0.000000
-28.117300 0.000000
-28.064100 0.000000
-28.010900 0.000000
-27.957700 0.000000
-27.904500 0.000000
-27.851300 0.000000
-27.798100 0.000000
-27.744900 0.000000
-27.691700 0.000000
-27.638500 0.000000
-27.585300 0.000000
-27.532200 0.000000
-27.479000 0.000000
-27.425800 0.000000
-27.372600 0.000000
-27.319400 0.000000
-27.266200 0.000000
-27.213000 0.000000
-27.159800 0.000000
-27.106600 0.000000
-27.053400 0.000000
-27.000200 0.000000
-26.947000 0.000000
-26.893800 0.000000
-26.840600 0.000000
-26.787400 0.000000
-26.734200 0.000000
-26.681000 0.000000
-26.627800 0.000000
-26.574600 0.000000
-26.521400 0.000000
-26.468200 0.000000
-26.415000 0.000000
-26.361800 0.000000
-26.308600 0.000000
-26.255400 0.000000
-26.202200 0.001100
-26.149000 0.085500
-26.095800 1.267600
-26.042600 5.005500
-25.989400 9.186300
-25.936200 10.732500
-25.883000 11.165300
-25.829800 15.225300
-25.776600 13.825500
-25.723400 6.633700
-25.670200 4.448600
-25.617000 3.937000
-25.563800 4.410300
-25.510600 4.646100
-25.457400 5.597200
-25.404200 7.441500
-25.351000 6.619300
-25.297800 2.346700
-25.244600 0.206800
-25.191400 0.003400
-25.138200 0.000000
-25.085000 0.000000
-25.031800 0.000000
-24.978600 0.000000
-24.925400 0.000000
-24.872200 0.000000
-24.819000 0.000000
-24.765800 0.000000
-24.712600 0.000000
-24.659400 0.000000
-24.606200 0.000000
-24.553000 0.000000
-24.499800 0.000000
-24.446600 0.000000
-24.393400 0.000000
-24.340200 0.000000
-24.287000 0.000000
-24.233800 0.000000
-24.180600 0.000000
-24.127400 0.000000
-24.074200 0.000000
-24.021000 0.000000
-23.967800 0.000000
-23.914700 0.000000
-23.861500 0.000000
-23.808300 0.000000
-23.755100 0.000000
-23.701900 0.000000
-23.648700 0.000000
-23.595500 0.000000
-23.542300 0.000000
-23.489100 0.000000
-23.435900 0.000000
-23.382700 0.000000
-23.329500 0.000000
-23.276300 0.000000
-23.223100 0.000000
-23.169900 0.000000
-23.116700 0.000000
-23.063500 0.000000
-23.010300 0.000000
-22.957100 0.000000
-22.903900 0.000000
-22.850700 0.000000
-22.797500 0.000000
-22.744300 0.000000
-22.691100 0.000000
-22.637900 0.000000
-22.584700 0.000000
-22.531500 0.000000
-22.478300 0.000000
-22.425100 0.000000
-22.371900 0.000000
-22.318700 0.000000
-22.265500 0.000000
-22.212300 0.000000
-22.159100 0.000000
-22.105900 0.000000
-22.052700 0.000000
-21.999500 0.000000
-21.946300 0.000000
-21.893100 0.000000
-21.839900 0.000000
-21.786700 0.000000
-21.733500 0.000000
-21.680300 0.000000
-21.627100 0.000000
-21.573900 0.000000
-21.520700 0.000000
-21.467500 0.000000
-21.414300 0.000000
-21.361100 0.000000
-21.307900 0.000000
-21.254700 0.000000
-21.201500 0.000000
-21.148300 0.000000
-21.095100 0.000000
-21.041900 0.000000
-20.988700 0.000000
-20.935500 0.000000
-20.882300 0.000000
-20.829100 0.000000
-20.775900 0.000000
-20.722700 0.000000
-20.669500 0.000000
-20.616300 0.000000
-20.563100 0.000000
-20.509900 0.000000
-20.456700 0.000000
-20.403500 0.000000
-20.350400 0.000000
-20.297200 0.000000
-20.244000 0.000000
-20.190800 0.000000
-20.137600 0.000000
-20.084400 0.000000
-20.031200 0.000000
-19.978000 0.000000
-19.924800 0.000000
-19.871600 0.000000
-19.818400 0.000000
-19.765200 0.000000
-19.712000 0.000000
-19.658800 0.000000
-19.605600 0.000000
-19.552400 0.000000
-19.499200 0.000000
-19.446000 0.000000
-19.392800 0.000000
-19.339600 0.000000
-19.286400 0.000000
-19.233200 0.000000
-19.180000 0.000000
-19.126800 0.000000
-19.073600 0.000000
-19.020400 0.000000
-18.967200 0.000000
-18.914000 0.000000
-18.860800 0.000000
-18.807600 0.000000
-18.754400 0.000000
-18.701200 0.000000
-18.648000 0.000000
-18.594800 0.000000
-18.541600 0.000000
-18.488400 0.000000
-18.435200 0.000000
-18.382000 0.000000
-18.328800 0.000000
-18.275600 0.000000
-18.222400 0.000000
-18.169200 0.000000
-18.116000 0.000000
-18.062800 0.000000
-18.009600 0.000000
-17.956400 0.000000
-17.903200 0.000000
-17.850000 0.000000
-17.796800 0.000000
-17.743600 0.000000
-17.690400 0.000000
-17.637200 0.000000
-17.584000 0.000000
-17.530800 0.000000
-17.477600 0.000000
-17.424400 0.000000
-17.371200 0.000000
-17.318000 0.000000
-17.264800 0.000000
-17.211600 0.000000
-17.158400 0.000000
-17.105200 0.000000
-17.052000 0.000000
-16.998800 0.000000
-16.945600 0.000000
-16.892400 0.000000
-16.839200 0.000000
-16.786100 0.000000
-16.732900 0.000000
-16.679700 0.000000
-16.626500 0.000000
-16.573300 0.000000
-16.520100 0.000000
-16.466900 0.000000
-16.413700 0.000000
-16.360500 0.000000
-16.307300 0.000000
-16.254100 0.000000
-16.200900 0.000000
-16.147700 0.000000
-16.094500 0.000000
-16.041300 0.000000
-15.988100 0.000000
-15.934900 0.000000
-15.881700 0.000000
-15.828500 0.000000
-15.775300 0.000000
-15.722100 0.000000
-15.668900 0.000000
-15.615700 0.000000
-15.562500 0.000000
-15.509300 0.000000
-15.456100 0.000000
-15.402900 0.000000
-15.349700 0.000000
-15.296500 0.000000
-15.243300 0.000000
-15.190100 0.000000
-15.136900 0.000000
-15.083700 0.000000
-15.030500 0.000000
-14.977300 0.000000
-14.924100 0.000000
-14.870900 0.000000
-14.817700 0.000000
-14.764500 0.000000
-14.711300 0.000000
-14.658100 0.000000
-14.604900 0.000000
-14.551700 0.000000
-14.498500 0.000000
-14.445300 0.000000
-14.392100 0.000000
-14.338900 0.000000
-14.285700 0.000000
-14.232500 0.000000
-14.179300 0.000000
-14.126100 0.000000
-14.072900 0.000000
-14.019700 0.000000
-13.966500 0.000000
-13.913300 0.000000
-13.860100 0.000000
-13.806900 0.000000
-13.753700 0.000000
-13.700500 0.000000
-13.647300 0.000000
-13.594100 0.000000
-13.540900 0.000000
-13.487700 0.000000
-13.434500 0.000000
-13.381300 0.000000
-13.328100 0.000000
-13.274900 0.000000
-13.221800 0.000000
-13.168600 0.000000
-13.115400 0.000000
-13.062200 0.000000
-13.009000 0.000000
-12.955800 0.000000
-12.902600 0.000000
-12.849400 0.000000
-12.796200 0.000000
-12.743000 0.000000
-12.689800 0.000000
-12.636600 0.000000
-12.583400 0.000000
-12.530200 0.000000
-12.477000 0.000000
-12.423800 0.000000
-12.370600 0.000000
-12.317400 0.000000
-12.264200 0.000000
-12.211000 0.000000
-12.157800 0.000000
-12.104600 0.000000
-12.051400 0.000000
-11.998200 0.000000
-11.945000 0.000000
-11.891800 0.000000
-11.838600 0.000000
-11.785400 0.000000
-11.732200 0.000000
-11.679000 0.000000
-11.625800 0.000000
-11.572600 0.000000
-11.519400 0.000000
-11.466200 0.000000
-11.413000 0.000000
-11.359800 0.000000
-11.306600 0.000000
-11.253400 0.000000
-11.200200 0.000000
-11.147000 0.000000
-11.093800 0.000000
-11.040600 0.000000
-10.987400 0.000000
-10.934200 0.000000
-10.881000 0.000000
-10.827800 0.000000
-10.774600 0.000000
-10.721400 0.000000
-10.668200 0.000000
-10.615000 0.000000
-10.561800 0.000000
-10.508600 0.000000
-10.455400 0.000000
-10.402200 0.000000
-10.349000 0.000000
-10.295800 0.000000
-10.242600 0.000000
-10.189400 0.000000
-10.136200 0.000000
-10.083000 0.000000
-10.029800 0.000000
-9.976600 0.000000
-9.923400 0.000000
-9.870200 0.000000
-9.817000 0.000000
-9.763800 0.000000
-9.710600 0.000000
-9.657500 0.000000
-9.604300 0.000000
-9.551100 0.000000
-9.497900 0.000000
-9.444700 0.000000
-9.391500 0.000000
-9.338300 0.000000
-9.285100 0.000000
-9.231900 0.000000
-9.178700 0.000000
-9.125500 0.000000
-9.072300 0.000000
-9.019100 0.000000
-8.965900 0.000000
-8.912700 0.000000
-8.859500 0.000000
-8.806300 0.000000
-8.753100 0.000000
-8.699900 0.000000
-8.646700 0.000000
-8.593500 0.000000
-8.540300 0.000000
-8.487100 0.000000
-8.433900 0.000000
-8.380700 0.000000
-8.327500 0.000000
-8.274300 0.000000
-8.221100 0.000000
-8.167900 0.000000
-8.114700 0.000000
-8.061500 0.000000
-8.008300 0.000000
-7.955100 0.000000
-7.901900 0.000000
-7.848700 0.000000
-7.795500 0.000000
-7.742300 0.000000
-7.689100 0.000000
-7.635900 0.000000
-7.582700 0.000000
-7.529500 0.000000
-7.476300 0.000000
-7.423100 0.000000
-7.369900 0.000000
-7.316700 0.000000
-7.263500 0.000000
-7.210300 0.000000
-7.157100 0.000000
-7.103900 0.000000
-7.050700 0.000000
-6.997500 0.000000
-6.944300 0.000000
-6.891100 0.000000
-6.837900 0.000000
-6.784700 0.000000
-6.731500 0.000000
-6.678300 0.000000
-6.625100 0.000000
-6.571900 0.000500
-6.518700 0.006300
-6.465500 0.018000
-6.412300 0.027900
-6.359100 0.059100
-6.305900 0.084000
-6.252700 0.024800
-6.199500 0.029100
-6.146300 0.099400
-6.093200 0.117200
-6.040000 0.110700
-5.986800 0.129800
-5.933600 0.044300
-5.880400 0.025800
-5.827200 0.101600
-5.774000 0.143800
-5.720800 0.165400
-5.667600 0.239900
-5.614400 0.093000
-5.561200 0.045600
-5.508000 0.120400
-5.454800 0.134400
-5.401600 0.201800
-5.348400 0.208900
-5.295200 0.058600
-5.242000 0.130500
-5.188800 0.249400
-5.135600 0.237200
-5.082400 0.223600
-5.029200 0.095700
-4.976000 0.070800
-4.922800 0.236000
-4.869600 0.270400
-4.816400 0.313300
-4.763200 0.261400
-4.710000 0.063300
-4.656800 0.099900
-4.603600 0.202500
-4.550400 0.375600
-4.497200 0.316000
-4.444000 0.111500
-4.390800 0.237800
-4.337600 0.337700
-4.284400 0.316800
-4.231200 0.278400
-4.178000 0.206400
-4.124800 0.342400
-4.071600 0.324500
-4.018400 0.290300
-3.965200 0.186600
-3.912000 0.141900
-3.858800 0.261500
-3.805600 0.430800
-3.752400 0.396500
-3.699200 0.289200
-3.646000 0.491800
-3.592800 0.540900
-3.539600 0.379200
-3.486400 0.193800
-3.433200 0.314600
-3.380000 0.494700
-3.326800 0.423800
-3.273600 0.203400
-3.220400 0.194900
-3.167200 0.441100
-3.114000 0.534500
-3.060800 0.491900
-3.007600 0.600700
-2.954400 0.657700
-2.901200 0.549800
-2.848000 0.526900
-2.794800 0.319900
-2.741600 0.414600
-2.688400 0.589300
-2.635200 0.726700
-2.582000 0.579100
-2.528900 0.638400
-2.475700 0.599100
-2.422500 0.482800
-2.369300 0.752400
-2.316100 0.869900
-2.262900 0.753400
-2.209700 0.696700
-2.156500 0.927200
-2.103300 0.889700
-2.050100 0.728500
-1.996900 0.831800
-1.943700 0.851600
-1.890500 1.014100
-1.837300 1.277500
-1.784100 1.286300
-1.730900 1.395400
-1.677700 1.240400
-1.624500 1.038500
-1.571300 1.133000
-1.518100 0.719400
-1.464900 0.360600
-1.411700 0.458100
-1.358500 0.491000
-1.305300 0.628900
-1.252100 0.905300
-1.198900 1.085900
-1.145700 1.466600
-1.092500 1.852900
-1.039300 1.554200
-0.986100 0.839500
-0.932900 0.908300
-0.879700 0.948300
-0.826500 1.150800
-0.773300 1.561900
-0.720100 1.773200
-0.666900 1.378000
-0.613700 1.110500
-0.560500 0.926100
-0.507300 0.938900
-0.454100 0.788000
-0.400900 0.740600
-0.347700 0.814500
-0.294500 0.924700
-0.241300 0.824600
-0.188100 0.711300
-0.134900 0.806800
-0.081700 0.782600
-0.028500 0.569000
0.024700 0.462400
0.077900 0.482700
0.131100 0.510300
0.184300 0.700600
0.237500 0.734400
0.290700 0.777100
0.343900 0.674800
0.397100 0.677600
0.450300 0.645200
0.503500 0.696200
0.556700 1.034700
0.609900 1.100300
0.663100 0.991600
0.716300 0.884800
0.769500 1.118700
0.822700 1.271800
0.875900 1.530100
0.929100 1.926700
0.982300 2.163800
1.035500 2.070700
1.088600 1.913700
1.141800 1.650900
1.195000 1.209300
1.248200 0.824500
1.301400 0.751400
1.354600 1.139900
1.407800 0.999800
1.461000 0.537900
1.514200 0.519700
1.567400 0.758200
1.620600 0.721700
1.673800 0.759400
1.727000 0.740400
1.780200 0.678000
1.833400 0.688800
1.886600 0.680400
1.939800 0.776200
1.993000 0.636500
2.046200 0.557000
2.099400 0.739800
2.152600 0.682600
2.205800 0.425500
2.259000 0.577400
2.312200 0.591200
2.365400 0.317500
2.418600 0.399800
2.471800 0.554500
2.525000 0.647800
2.578200 0.612900
2.631400 0.451900
2.684600 0.516900
2.737800 0.621900
2.791000 0.568900
2.844200 0.402700
2.897400 0.301500
2.950600 0.259800
3.003800 0.202900
3.057000 0.218100
3.110200 0.238600
3.163400 0.197200
3.216600 0.229700
3.269800 0.272700
3.323000 0.315200
3.376200 0.271400
3.429400 0.109200
3.482600 0.051600
3.535800 0.067300
3.589000 0.049300
3.642200 0.045900
3.695400 0.109200
3.748600 0.077900
3.801800 0.022400
3.855000 0.045300
3.908200 0.044600
3.961400 0.059900
4.014600 0.105200
4.067800 0.177400
4.121000 0.195400
4.174200 0.247700
4.227400 0.274900
4.280600 0.217200
4.333800 0.387300
4.387000 0.544000
4.440200 0.541800
4.493400 0.410400
4.546600 0.461700
4.599800 0.388400
4.652900 0.403300
4.706100 0.452700
4.759300 0.599400
4.812500 0.566000
4.865700 0.544100
4.918900 0.619500
4.972100 0.629700
5.025300 0.426500
5.078500 0.364600
5.131700 0.455200
5.184900 0.611100
5.238100 0.647200
5.291300 0.547400
5.344500 0.584500
5.397700 0.642400
5.450900 0.523000
5.504100 0.320900
5.557300 0.510700
5.610500 0.708300
5.663700 0.955100
5.716900 0.847600
5.770100 0.480400
5.823300 0.586900
5.876500 0.757300
5.929700 0.785000
5.982900 1.101900
6.036100 1.024100
6.089300 0.873000
6.142500 1.024800
6.195700 1.347200
6.248900 1.344600
6.302100 1.099200
6.355300 1.178600
6.408500 1.329600
6.461700 0.945700
6.514900 0.679500
6.568100 0.898000
6.621300 1.027800
6.674500 1.132200
6.727700 1.096600
6.780900 1.116900
6.834100 1.235500
6.887300 1.336500
6.940500 1.288000
6.993700 1.117500
7.046900 1.195400
7.100100 1.933600
7.153300 2.319600
7.206500 2.110100
7.259700 2.147800
7.312900 2.000000
7.366100 1.564700
7.419300 1.817600
7.472500 2.271400
7.525700 2.085000
7.578900 2.216200
7.632100 2.220700
7.685300 2.018200
7.738500 2.270600
7.791700 1.993000
7.844900 1.827900
7.898100 1.986200
7.951300 1.996500
8.004500 2.109800
8.057700 1.894400
8.110900 1.780400
8.164100 1.925000
8.217200 1.841400
8.270400 1.503000
8.323600 1.278600
8.376800 1.565800
8.430000 1.456900
8.483200 1.760100
8.536400 2.188100
8.589600 1.454300
8.642800 1.021400
8.696000 1.154800
8.749200 1.424600
8.802400 1.608800
8.855600 1.365800
8.908800 1.304400
8.962000 1.479900
9.015200 1.456900
9.068400 1.527000
9.121600 1.337900
9.174800 1.151300
9.228000 1.310300
9.281200 1.157300
9.334400 1.120900
9.387600 0.839600
9.440800 0.886000
9.494000 1.169900
9.547200 1.175500
9.600400 1.072500
9.653600 1.143200
9.706800 1.250600
9.760000 1.172200
9.813200 1.342500
9.866400 1.257600
9.919600 1.093900
9.972800 1.055000
10.026000 1.000300
10.079200 0.978900
10.132400 0.912400
10.185600 0.744200
10.238800 0.726000
10.292000 0.804200
10.345200 0.862500
10.398400 1.140600
10.451600 1.222300
10.504800 1.069900
10.558000 0.977500
10.611200 1.013000
10.664400 1.319800
10.717600 1.304000
10.770800 0.826800
10.824000 0.870600
10.877200 0.847600
10.930400 1.174500
10.983600 1.353900
11.036800 1.263100
11.090000 1.217800
11.143200 1.535200
11.196400 1.710900
11.249600 1.073000
11.302800 0.873200
11.356000 1.163100
11.409200 1.626700
11.462400 1.728800
11.515600 1.510400
11.568800 1.177400
11.622000 1.148500
11.675200 1.164800
11.728400 1.202100
11.781500 1.324700
11.834700 1.317400
11.887900 1.313700
11.941100 0.972300
11.994300 0.931400
12.047500 1.055300
12.100700 1.018800
12.153900 1.158800
12.207100 1.315600
12.260300 1.390100
12.313500 1.308800
12.366700 1.140400
12.419900 1.389100
12.473100 1.713700
12.526300 1.745100
12.579500 1.761800
12.632700 1.578200
12.685900 1.353300
12.739100 1.164500
12.792300 0.745900
12.845500 0.647300
12.898700 1.026000
12.951900 1.108700
13.005100 0.955500
13.058300 0.788500
13.111500 0.857900
13.164700 1.185700
13.217900 1.162600
13.271100 1.210000
13.324300 1.319500
13.377500 1.272100
13.430700 1.084600
13.483900 1.202900
13.537100 1.240300
13.590300 0.932400
13.643500 0.668200
13.696700 0.964300
13.749900 1.052000
13.803100 1.233700
13.856300 1.185300
13.909500 1.001700
13.962700 1.075000
14.015900 1.094800
14.069100 0.895600
14.122300 0.723900
14.175500 0.593900
14.228700 0.740900
14.281900 0.936000
14.335100 0.769100
14.388300 0.743300
14.441500 0.949300
14.494700 1.053200
14.547900 0.981700
14.601100 0.775600
14.654300 0.936800
14.707500 1.183700
14.760700 1.243700
14.813900 1.098000
14.867100 0.818200
14.920300 0.525400
14.973500 0.528300
15.026700 0.469300
15.079900 0.629800
15.133100 0.674300
15.186300 0.349700
15.239500 0.360800
15.292700 0.486700
15.345800 0.348100
15.399000 0.396700
15.452200 0.713000
15.505400 0.816900
15.558600 0.694500
15.611800 0.584300
15.665000 0.546500
15.718200 0.567300
15.771400 0.537700
15.824600 0.587800
15.877800 0.513300
15.931000 0.359900
15.984200 0.486600
16.037400 0.839500
16.090600 0.760500
16.143800 0.620800
16.197000 0.800000
16.250200 0.974700
16.303400 1.066900
16.356600 1.140400
16.409800 6.281700
16.463000 19.605300
16.516200 11.704200
16.569400 1.973800
16.622600 0.924200
16.675800 0.868100
16.729000 0.729400
16.782200 0.677700
16.835400 0.970900
16.888600 1.126800
16.941800 0.801200
16.995000 0.706100
17.048200 0.953300
17.101400 1.008300
17.154600 1.002000
17.207800 1.036400
17.261000 1.166600
17.314200 1.009200
17.367400 0.764200
17.420600 0.636100
17.473800 0.821600
17.527000 1.170600
17.580200 1.082100
17.633400 1.152800
17.686600 1.104800
17.739800 0.855400
17.793000 0.684800
17.846200 0.864400
17.899400 1.169700
17.952600 1.159000
18.005800 0.957300
18.059000 0.871200
18.112200 1.277900
18.165400 1.143400
18.218600 0.799400
18.271800 0.834400
18.325000 1.131200
18.378200 1.128200
18.431400 1.211100
18.484600 1.045700
18.537800 1.098100
18.591000 1.252200
18.644200 1.396500
18.697400 1.153000
18.750600 0.918800
18.803800 1.224700
18.857000 1.336300
18.910100 1.369600
18.963300 1.503500
19.016500 1.311600
19.069700 1.156300
19.122900 1.165500
19.176100 1.134600
19.229300 1.117800
19.282500 0.844300
19.335700 0.769800
19.388900 0.914700
19.442100 1.162300
19.495300 1.562600
19.548500 1.596300
19.601700 1.273100
19.654900 0.911600
19.708100 0.814600
19.761300 0.820400
19.814500 1.071900
19.867700 1.350800
19.920900 1.204400
19.974100 0.930100
20.027300 0.867100
20.080500 0.754700
20.133700 0.868700
20.186900 0.974300
20.240100 0.893500
20.293300 0.793200
20.346500 0.536400
20.399700 0.658800
20.452900 0.846000
20.506100 1.012000
20.559300 0.989100
20.612500 0.735800
20.665700 0.756700
20.718900 0.575900
20.772100 0.316800
20.825300 0.567100
20.878500 0.683100
20.931700 0.547600
20.984900 0.622100
21.038100 0.774700
21.091300 0.708100
21.144500 0.497500
21.197700 0.472100
21.250900 0.675000
21.304100 0.678800
21.357300 0.470800
21.410500 0.639400
21.463700 0.652800
21.516900 0.512500
21.570100 0.377500
21.623300 0.391300
21.676500 0.484300
21.729700 0.636700
21.782900 0.451000
21.836100 0.289800
21.889300 0.368200
21.942500 0.577700
21.995700 0.623200
22.048900 0.312100
22.102100 0.208800
22.155300 0.486200
22.208500 0.506800
22.261700 0.357800
22.314900 0.257500
22.368100 0.470700
22.421300 0.700700
22.474500 0.526300
22.527600 0.415400
22.580800 0.383300
22.634000 0.551100
22.687200 0.888700
22.740400 0.878500
22.793600 0.855100
22.846800 0.893200
22.900000 0.839000
22.953200 0.777700
23.006400 0.767300
23.059600 0.905400
23.112800 0.905600
23.166000 0.906700
23.219200 1.167300
23.272400 1.053300
23.325600 1.314000
23.378800 1.788100
23.432000 1.786400
23.485200 1.547400
23.538400 1.158700
23.591600 1.110600
