set title 'mp-1184665 - Density of States'
set xlabel 'Energy (eV)'
set ylabel 'DOS (states/eV)'
set grid
set xrange [-10:10]
set yrange [0:4.429]
set xzeroaxis lt -1
set terminal png size 800,600
set output 'mp-1184665_dos_gnuplot.png'
plot '-' using 1:2 with lines title 'DOS'
-20.919400 0.000000
-20.892500 0.000000
-20.865600 0.000000
-20.838700 0.000000
-20.811800 0.000000
-20.784900 0.000000
-20.758000 0.000000
-20.731100 0.000000
-20.704200 0.000000
-20.677300 0.000000
-20.650400 0.000000
-20.623500 0.000000
-20.596600 0.000000
-20.569700 0.000000
-20.542800 0.000000
-20.515900 0.000000
-20.489000 0.000000
-20.462100 0.000000
-20.435200 0.000000
-20.408300 0.000000
-20.381400 0.000000
-20.354500 0.000000
-20.327600 0.000000
-20.300700 0.000000
-20.273800 0.000000
-20.246900 0.000000
-20.220000 0.000000
-20.193100 0.000000
-20.166200 0.000000
-20.139300 0.000000
-20.112400 0.000000
-20.085500 0.000000
-20.058600 0.000000
-20.031700 0.000000
-20.004800 0.000000
-19.977900 0.000000
-19.951000 0.000000
-19.924200 0.000000
-19.897300 0.000000
-19.870400 0.000000
-19.843500 0.000000
-19.816600 0.000000
-19.789700 0.000000
-19.762800 0.000000
-19.735900 0.000000
-19.709000 0.000000
-19.682100 0.000000
-19.655200 0.000000
-19.628300 0.000000
-19.601400 0.000000
-19.574500 0.000000
-19.547600 0.000000
-19.520700 0.000000
-19.493800 0.000000
-19.466900 0.000000
-19.440000 0.000000
-19.413100 0.000000
-19.386200 0.000000
-19.359300 0.000000
-19.332400 0.000000
-19.305500 0.000000
-19.278600 0.000000
-19.251700 0.000000
-19.224800 0.000000
-19.197900 0.000000
-19.171000 0.000000
-19.144100 0.000000
-19.117200 0.000000
-19.090300 0.000000
-19.063400 0.000000
-19.036500 0.000000
-19.009600 0.000000
-18.982700 0.000000
-18.955800 0.000000
-18.928900 0.000000
-18.902000 0.000000
-18.875100 0.000000
-18.848200 0.000000
-18.821300 0.000000
-18.794400 0.000000
-18.767500 0.000000
-18.740600 0.000000
-18.713700 0.000000
-18.686800 0.000000
-18.659900 0.000000
-18.633000 0.000000
-18.606100 0.000200
-18.579200 0.003700
-18.552300 0.045100
-18.525400 0.375300
-18.498500 2.289700
-18.471600 10.586700
-18.444700 35.600600
-18.417800 82.056000
-18.390900 126.198700
-18.364000 133.670900
-18.337100 112.688300
-18.310200 98.065600
-18.283300 97.112700
-18.256400 97.590500
-18.229500 90.773500
-18.202600 73.885800
-18.175700 53.636500
-18.148800 37.709200
-18.121900 25.708800
-18.095000 16.015800
-18.068100 9.512500
-18.041200 5.896000
-18.014300 3.522000
-17.987400 1.671500
-17.960500 0.547900
-17.933600 0.115200
-17.906700 0.014900
-17.879800 0.001200
-17.852900 0.000100
-17.826100 0.000000
-17.799200 0.000000
-17.772300 0.000000
-17.745400 0.000000
-17.718500 0.000000
-17.691600 0.000000
-17.664700 0.000000
-17.637800 0.000000
-17.610900 0.000000
-17.584000 0.000000
-17.557100 0.000000
-17.530200 0.000000
-17.503300 0.000000
-17.476400 0.000000
-17.449500 0.000000
-17.422600 0.000000
-17.395700 0.000000
-17.368800 0.000000
-17.341900 0.000000
-17.315000 0.000000
-17.288100 0.000000
-17.261200 0.000000
-17.234300 0.000000
-17.207400 0.000000
-17.180500 0.000000
-17.153600 0.000000
-17.126700 0.000000
-17.099800 0.000000
-17.072900 0.000000
-17.046000 0.000000
-17.019100 0.000000
-16.992200 0.000000
-16.965300 0.000000
-16.938400 0.000000
-16.911500 0.000000
-16.884600 0.000000
-16.857700 0.000000
-16.830800 0.000000
-16.803900 0.000000
-16.777000 0.000000
-16.750100 0.000000
-16.723200 0.000000
-16.696300 0.000000
-16.669400 0.000000
-16.642500 0.000000
-16.615600 0.000000
-16.588700 0.000000
-16.561800 0.000000
-16.534900 0.000000
-16.508000 0.000000
-16.481100 0.000000
-16.454200 0.000000
-16.427300 0.000000
-16.400400 0.000000
-16.373500 0.000000
-16.346600 0.000000
-16.319700 0.000000
-16.292800 0.000000
-16.265900 0.000000
-16.239000 0.000000
-16.212100 0.000000
-16.185200 0.000000
-16.158300 0.000000
-16.131400 0.000000
-16.104500 0.000000
-16.077600 0.000000
-16.050700 0.000000
-16.023800 0.000000
-15.996900 0.000000
-15.970000 0.000000
-15.943100 0.000000
-15.916200 0.000000
-15.889300 0.000000
-15.862400 0.000000
-15.835500 0.000000
-15.808600 0.000000
-15.781700 0.000000
-15.754800 0.000000
-15.728000 0.000000
-15.701100 0.000000
-15.674200 0.000000
-15.647300 0.000000
-15.620400 0.000000
-15.593500 0.000000
-15.566600 0.000000
-15.539700 0.000000
-15.512800 0.000000
-15.485900 0.000000
-15.459000 0.000000
-15.432100 0.000000
-15.405200 0.000000
-15.378300 0.000000
-15.351400 0.000000
-15.324500 0.000000
-15.297600 0.000000
-15.270700 0.000000
-15.243800 0.000000
-15.216900 0.000000
-15.190000 0.000000
-15.163100 0.000000
-15.136200 0.000000
-15.109300 0.000000
-15.082400 0.000000
-15.055500 0.000000
-15.028600 0.000000
-15.001700 0.000000
-14.974800 0.000000
-14.947900 0.000000
-14.921000 0.000000
-14.894100 0.000000
-14.867200 0.000000
-14.840300 0.000000
-14.813400 0.000000
-14.786500 0.000000
-14.759600 0.000000
-14.732700 0.000000
-14.705800 0.000000
-14.678900 0.000000
-14.652000 0.000000
-14.625100 0.000000
-14.598200 0.000000
-14.571300 0.000000
-14.544400 0.000000
-14.517500 0.000000
-14.490600 0.000000
-14.463700 0.000000
-14.436800 0.000000
-14.409900 0.000000
-14.383000 0.000000
-14.356100 0.000000
-14.329200 0.000000
-14.302300 0.000000
-14.275400 0.000000
-14.248500 0.000000
-14.221600 0.000000
-14.194700 0.000000
-14.167800 0.000000
-14.140900 0.000000
-14.114000 0.000000
-14.087100 0.000000
-14.060200 0.000000
-14.033300 0.000000
-14.006400 0.000000
-13.979500 0.000000
-13.952600 0.000000
-13.925700 0.000000
-13.898800 0.000000
-13.871900 0.000000
-13.845000 0.000000
-13.818100 0.000000
-13.791200 0.000000
-13.764300 0.000000
-13.737400 0.000000
-13.710500 0.000000
-13.683600 0.000000
-13.656700 0.000000
-13.629900 0.000000
-13.603000 0.000000
-13.576100 0.000000
-13.549200 0.000000
-13.522300 0.000000
-13.495400 0.000000
-13.468500 0.000000
-13.441600 0.000000
-13.414700 0.000000
-13.387800 0.000000
-13.360900 0.000000
-13.334000 0.000000
-13.307100 0.000000
-13.280200 0.000000
-13.253300 0.000000
-13.226400 0.000000
-13.199500 0.000000
-13.172600 0.000000
-13.145700 0.000000
-13.118800 0.000000
-13.091900 0.000000
-13.065000 0.000000
-13.038100 0.000000
-13.011200 0.000000
-12.984300 0.000000
-12.957400 0.000000
-12.930500 0.000000
-12.903600 0.000000
-12.876700 0.000000
-12.849800 0.000000
-12.822900 0.000000
-12.796000 0.000000
-12.769100 0.000000
-12.742200 0.000000
-12.715300 0.000000
-12.688400 0.000000
-12.661500 0.000000
-12.634600 0.000000
-12.607700 0.000000
-12.580800 0.000000
-12.553900 0.000000
-12.527000 0.000000
-12.500100 0.000000
-12.473200 0.000000
-12.446300 0.000000
-12.419400 0.000000
-12.392500 0.000000
-12.365600 0.000000
-12.338700 0.000000
-12.311800 0.000000
-12.284900 0.000000
-12.258000 0.000000
-12.231100 0.000000
-12.204200 0.000000
-12.177300 0.000000
-12.150400 0.000000
-12.123500 0.000000
-12.096600 0.000000
-12.069700 0.000000
-12.042800 0.000000
-12.015900 0.000000
-11.989000 0.000000
-11.962100 0.000000
-11.935200 0.000000
-11.908300 0.000000
-11.881400 0.000000
-11.854500 0.000000
-11.827600 0.000000
-11.800700 0.000000
-11.773800 0.000000
-11.746900 0.000000
-11.720000 0.000000
-11.693100 0.000000
-11.666200 0.000000
-11.639300 0.000000
-11.612400 0.000000
-11.585500 0.000000
-11.558600 0.000000
-11.531700 0.000000
-11.504900 0.000000
-11.478000 0.000000
-11.451100 0.000000
-11.424200 0.000500
-11.397300 0.005600
-11.370400 0.036300
-11.343500 0.152500
-11.316600 0.434500
-11.289700 0.908300
-11.262800 1.526100
-11.235900 2.190900
-11.209000 2.787000
-11.182100 3.273700
-11.155200 3.682300
-11.128300 4.117900
-11.101400 4.745300
-11.074500 5.667800
-11.047600 6.728500
-11.020700 7.331600
-10.993800 6.995200
-10.966900 6.041300
-10.940000 5.109200
-10.913100 4.379000
-10.886200 3.616400
-10.859300 2.571500
-10.832400 1.389800
-10.805500 0.517300
-10.778600 0.124100
-10.751700 0.018400
-10.724800 0.001600
-10.697900 0.000100
-10.671000 0.000000
-10.644100 0.000000
-10.617200 0.000000
-10.590300 0.000000
-10.563400 0.000000
-10.536500 0.000000
-10.509600 0.000000
-10.482700 0.000000
-10.455800 0.000000
-10.428900 0.000000
-10.402000 0.000000
-10.375100 0.000000
-10.348200 0.000000
-10.321300 0.000000
-10.294400 0.000000
-10.267500 0.000000
-10.240600 0.000000
-10.213700 0.000000
-10.186800 0.000000
-10.159900 0.000000
-10.133000 0.000000
-10.106100 0.000000
-10.079200 0.000000
-10.052300 0.000000
-10.025400 0.000000
-9.998500 0.000000
-9.971600 0.000000
-9.944700 0.000000
-9.917800 0.000000
-9.890900 0.000000
-9.864000 0.000000
-9.837100 0.000000
-9.810200 0.000000
-9.783300 0.000000
-9.756400 0.000000
-9.729500 0.000000
-9.702600 0.000000
-9.675700 0.000000
-9.648800 0.000000
-9.621900 0.000000
-9.595000 0.000000
-9.568100 0.000000
-9.541200 0.000000
-9.514300 0.000000
-9.487400 0.000000
-9.460500 0.000000
-9.433600 0.000000
-9.406800 0.000000
-9.379900 0.000000
-9.353000 0.000000
-9.326100 0.000000
-9.299200 0.000000
-9.272300 0.000000
-9.245400 0.000000
-9.218500 0.000000
-9.191600 0.000000
-9.164700 0.000000
-9.137800 0.000000
-9.110900 0.000000
-9.084000 0.000000
-9.057100 0.000000
-9.030200 0.000000
-9.003300 0.000000
-8.976400 0.000000
-8.949500 0.000000
-8.922600 0.000000
-8.895700 0.000000
-8.868800 0.000000
-8.841900 0.000000
-8.815000 0.000000
-8.788100 0.000000
-8.761200 0.000000
-8.734300 0.000000
-8.707400 0.000000
-8.680500 0.000000
-8.653600 0.000000
-8.626700 0.000000
-8.599800 0.000000
-8.572900 0.000000
-8.546000 0.000000
-8.519100 0.000000
-8.492200 0.000000
-8.465300 0.000000
-8.438400 0.000000
-8.411500 0.000000
-8.384600 0.000000
-8.357700 0.000000
-8.330800 0.000000
-8.303900 0.000000
-8.277000 0.000000
-8.250100 0.000000
-8.223200 0.000000
-8.196300 0.000000
-8.169400 0.000000
-8.142500 0.000000
-8.115600 0.000000
-8.088700 0.000000
-8.061800 0.000000
-8.034900 0.000000
-8.008000 0.000000
-7.981100 0.000000
-7.954200 0.000000
-7.927300 0.000000
-7.900400 0.000000
-7.873500 0.000000
-7.846600 0.000000
-7.819700 0.000000
-7.792800 0.000000
-7.765900 0.000000
-7.739000 0.000000
-7.712100 0.000000
-7.685200 0.000000
-7.658300 0.000000
-7.631400 0.000000
-7.604500 0.000000
-7.577600 0.000000
-7.550700 0.000000
-7.523800 0.000000
-7.496900 0.000000
-7.470000 0.000000
-7.443100 0.000000
-7.416200 0.000000
-7.389300 0.000000
-7.362400 0.000000
-7.335500 0.000000
-7.308700 0.000000
-7.281800 0.000000
-7.254900 0.000000
-7.228000 0.000000
-7.201100 0.000000
-7.174200 0.000000
-7.147300 0.000000
-7.120400 0.000000
-7.093500 0.000000
-7.066600 0.000000
-7.039700 0.000000
-7.012800 0.000000
-6.985900 0.000000
-6.959000 0.000000
-6.932100 0.000000
-6.905200 0.000000
-6.878300 0.000000
-6.851400 0.000000
-6.824500 0.000000
-6.797600 0.000000
-6.770700 0.000000
-6.743800 0.000000
-6.716900 0.000000
-6.690000 0.000000
-6.663100 0.000000
-6.636200 0.000000
-6.609300 0.000000
-6.582400 0.000000
-6.555500 0.000000
-6.528600 0.000000
-6.501700 0.000200
-6.474800 0.002000
-6.447900 0.010000
-6.421000 0.031300
-6.394100 0.069000
-6.367200 0.130900
-6.340300 0.237000
-6.313400 0.377100
-6.286500 0.514700
-6.259600 0.647600
-6.232700 0.743100
-6.205800 0.718900
-6.178900 0.578000
-6.152000 0.421000
-6.125100 0.380800
-6.098200 0.531800
-6.071300 0.804700
-6.044400 1.125900
-6.017500 1.360600
-5.990600 1.199000
-5.963700 0.676500
-5.936800 0.233100
-5.909900 0.066100
-5.883000 0.102900
-5.856100 0.302700
-5.829200 0.610600
-5.802300 0.864400
-5.775400 0.984100
-5.748500 1.074200
-5.721600 1.153500
-5.694700 1.098000
-5.667800 0.906500
-5.640900 0.651700
-5.614000 0.412400
-5.587100 0.341400
-5.560200 0.469000
-5.533300 0.604900
-5.506400 0.620400
-5.479500 0.599000
-5.452600 0.640800
-5.425700 0.703800
-5.398800 0.705100
-5.371900 0.685900
-5.345000 0.692600
-5.318100 0.682300
-5.291200 0.669200
-5.264300 0.695800
-5.237400 0.742100
-5.210600 0.814000
-5.183700 0.920400
-5.156800 0.992600
-5.129900 0.955500
-5.103000 0.805600
-5.076100 0.623400
-5.049200 0.492300
-5.022300 0.415400
-4.995400 0.371000
-4.968500 0.415300
-4.941600 0.563800
-4.914700 0.762100
-4.887800 0.955700
-4.860900 1.030400
-4.834000 0.945800
-4.807100 0.787700
-4.780200 0.609700
-4.753300 0.513000
-4.726400 0.612200
-4.699500 0.774200
-4.672600 0.799500
-4.645700 0.729700
-4.618800 0.681600
-4.591900 0.689800
-4.565000 0.753800
-4.538100 0.773900
-4.511200 0.692500
-4.484300 0.658500
-4.457400 0.790700
-4.430500 0.985900
-4.403600 1.105900
-4.376700 1.125300
-4.349800 1.051900
-4.322900 0.890600
-4.296000 0.702700
-4.269100 0.572500
-4.242200 0.527800
-4.215300 0.557400
-4.188400 0.658000
-4.161500 0.783500
-4.134600 0.793400
-4.107700 0.608700
-4.080800 0.352700
-4.053900 0.190800
-4.027000 0.185000
-4.000100 0.278500
-3.973200 0.325700
-3.946300 0.298500
-3.919400 0.327100
-3.892500 0.448800
-3.865600 0.600300
-3.838700 0.768100
-3.811800 0.903600
-3.784900 0.889500
-3.758000 0.764200
-3.731100 0.679100
-3.704200 0.594300
-3.677300 0.440200
-3.650400 0.338000
-3.623500 0.409000
-3.596600 0.628400
-3.569700 0.855000
-3.542800 0.935000
-3.515900 0.819200
-3.489000 0.603700
-3.462100 0.469600
-3.435200 0.498600
-3.408300 0.604100
-3.381400 0.707500
-3.354500 0.873600
-3.327600 1.156500
-3.300700 1.347600
-3.273800 1.200500
-3.246900 0.872600
-3.220000 0.672600
-3.193100 0.675400
-3.166200 0.753300
-3.139300 0.718100
-3.112500 0.541600
-3.085600 0.388300
-3.058700 0.414500
-3.031800 0.655100
-3.004900 0.958400
-2.978000 1.067600
-2.951100 0.938700
-2.924200 0.787900
-2.897300 0.755800
-2.870400 0.739800
-2.843500 0.679800
-2.816600 0.683400
-2.789700 0.787500
-2.762800 0.928800
-2.735900 1.100700
-2.709000 1.333500
-2.682100 1.572900
-2.655200 1.704700
-2.628300 1.625300
-2.601400 1.449100
-2.574500 1.446200
-2.547600 1.543000
-2.520700 1.458700
-2.493800 1.184000
-2.466900 0.986800
-2.440000 1.080600
-2.413100 1.305300
-2.386200 1.345100
-2.359300 1.181500
-2.332400 0.945200
-2.305500 0.706400
-2.278600 0.528000
-2.251700 0.448500
-2.224800 0.499500
-2.197900 0.647600
-2.171000 0.864900
-2.144100 1.212800
-2.117200 1.502200
-2.090300 1.409900
-2.063400 1.130600
-2.036500 1.065100
-2.009600 1.121700
-1.982700 1.028400
-1.955800 0.868500
-1.928900 0.857600
-1.902000 0.899100
-1.875100 0.778400
-1.848200 0.569600
-1.821300 0.455500
-1.794400 0.471500
-1.767500 0.638600
-1.740600 0.925600
-1.713700 1.085300
-1.686800 0.973000
-1.659900 0.791300
-1.633000 0.723800
-1.606100 0.733200
-1.579200 0.760500
-1.552300 0.806300
-1.525400 0.851200
-1.498500 0.872900
-1.471600 0.879000
-1.444700 0.889200
-1.417800 0.975500
-1.390900 1.171300
-1.364000 1.425900
-1.337100 1.670200
-1.310200 1.815900
-1.283300 1.892500
-1.256400 2.066800
-1.229500 2.370900
-1.202600 2.614000
-1.175700 2.729700
-1.148800 2.864600
-1.121900 2.926300
-1.095000 2.675500
-1.068100 2.251400
-1.041200 1.939700
-1.014400 1.805700
-0.987500 1.843100
-0.960600 1.953200
-0.933700 2.010000
-0.906800 2.160000
-0.879900 2.490100
-0.853000 2.599200
-0.826100 2.225900
-0.799200 1.751700
-0.772300 1.505400
-0.745400 1.324700
-0.718500 1.037800
-0.691600 0.742600
-0.664700 0.551800
-0.637800 0.460200
-0.610900 0.417800
-0.584000 0.349300
-0.557100 0.222000
-0.530200 0.118800
-0.503300 0.130400
-0.476400 0.268900
-0.449500 0.443800
-0.422600 0.508500
-0.395700 0.460500
-0.368800 0.410100
-0.341900 0.390400
-0.315000 0.418600
-0.288100 0.494600
-0.261200 0.549200
-0.234300 0.601900
-0.207400 0.790000
-0.180500 1.132400
-0.153600 1.387400
-0.126700 1.271500
-0.099800 0.882200
-0.072900 0.545300
-0.046000 0.332400
-0.019100 0.166900
0.007800 0.056800
0.034700 0.016000
0.061600 0.025300
0.088500 0.077600
0.115400 0.152100
0.142300 0.194400
0.169200 0.184700
0.196100 0.151400
0.223000 0.131500
0.249900 0.159800
0.276800 0.216800
0.303700 0.221500
0.330600 0.153000
0.357500 0.097700
0.384400 0.112000
0.411300 0.161800
0.438200 0.190800
0.465100 0.195600
0.492000 0.243100
0.518900 0.377500
0.545800 0.553900
0.572700 0.694800
0.599600 0.771800
0.626500 0.765800
0.653400 0.675500
0.680300 0.612400
0.707200 0.614100
0.734100 0.584900
0.761000 0.548800
0.787900 0.609000
0.814800 0.752000
0.841700 0.915100
0.868600 1.089000
0.895500 1.175700
0.922400 1.090600
0.949300 1.010500
0.976200 1.043800
1.003100 1.081500
1.030000 1.079700
1.056900 1.101600
1.083700 1.138400
1.110600 1.115700
1.137500 1.059900
1.164400 1.005900
1.191300 0.938200
1.218200 0.877400
1.245100 0.840300
1.272000 0.803600
1.298900 0.765300
1.325800 0.848900
1.352700 1.156500
1.379600 1.545100
1.406500 1.758400
1.433400 1.673400
1.460300 1.363700
1.487200 1.116900
1.514100 1.266300
1.541000 1.768400
1.567900 2.080300
1.594800 1.828300
1.621700 1.310300
1.648600 0.993100
1.675500 1.029400
1.702400 1.365000
1.729300 1.859200
1.756200 2.278400
1.783100 2.288400
1.810000 1.796400
1.836900 1.319500
1.863800 1.331500
1.890700 1.580700
1.917600 1.615700
1.944500 1.365600
1.971400 1.072200
1.998300 1.019200
2.025200 1.342400
2.052100 1.947600
2.079000 2.423700
2.105900 2.472200
2.132800 2.471000
2.159700 2.786100
2.186600 2.965200
2.213500 2.574700
2.240400 2.041700
2.267300 1.916900
2.294200 2.118200
2.321100 2.285400
2.348000 2.225800
2.374900 1.959000
2.401800 1.727100
2.428700 1.728100
2.455600 1.841500
2.482500 1.947000
2.509400 2.111600
2.536300 2.267900
2.563200 2.349200
2.590100 2.595000
2.617000 3.148000
2.643900 3.631300
2.670800 3.588400
2.697700 3.181400
2.724600 2.863300
2.751500 2.703300
2.778400 2.551400
2.805300 2.438500
2.832200 2.451500
2.859100 2.417700
2.886000 2.140500
2.912900 1.766600
2.939800 1.571500
2.966700 1.711700
2.993600 2.110200
3.020500 2.421000
3.047400 2.445700
3.074300 2.360100
3.101200 2.275700
3.128100 2.030900
3.155000 1.749600
3.181800 1.883700
3.208700 2.428500
3.235600 2.848300
3.262500 2.838700
3.289400 2.537100
3.316300 2.193500
3.343200 2.147500
3.370100 2.598800
3.397000 3.213900
3.423900 3.529200
3.450800 3.538300
3.477700 3.560400
3.504600 3.709600
3.531500 3.680700
3.558400 3.307000
3.585300 2.894600
3.612200 2.643700
3.639100 2.477200
3.666000 2.416100
3.692900 2.485800
3.719800 2.609200
3.746700 2.759300
3.773600 2.771000
3.800500 2.489000
3.827400 2.107900
3.854300 1.949500
3.881200 2.094200
3.908100 2.495500
3.935000 3.165100
3.961900 3.818400
3.988800 4.026500
4.015700 3.827800
4.042600 3.494800
4.069500 3.057700
4.096400 2.498000
4.123300 1.996500
4.150200 1.751400
4.177100 1.814500
4.204000 2.051400
4.230900 2.298400
4.257800 2.501900
4.284700 2.692900
4.311600 2.865100
4.338500 2.769200
4.365400 2.247600
4.392300 1.601900
4.419200 1.215400
4.446100 1.207100
4.473000 1.491400
4.499900 1.793000
4.526800 1.887100
4.553700 1.906500
4.580600 2.030300
4.607500 2.093300
4.634400 1.861000
4.661300 1.505400
4.688200 1.353400
4.715100 1.423900
4.742000 1.543400
4.768900 1.609200
4.795800 1.556600
4.822700 1.413400
4.849600 1.394500
4.876500 1.509900
4.903400 1.506300
4.930300 1.388300
4.957200 1.408600
4.984100 1.609400
5.011000 1.808200
5.037900 1.925300
5.064800 1.947400
5.091700 1.856300
5.118600 1.686100
5.145500 1.458200
5.172400 1.329500
5.199300 1.512100
5.226200 1.851300
5.253100 1.961600
5.280000 1.706600
5.306800 1.312900
5.333700 1.070900
5.360600 1.007500
5.387500 0.998500
5.414400 1.074700
5.441300 1.255900
5.468200 1.344700
5.495100 1.324200
5.522000 1.438500
5.548900 1.844300
5.575800 2.516600
5.602700 3.094700
5.629600 3.160900
5.656500 2.914100
5.683400 2.751200
5.710300 2.591800
5.737200 2.313000
5.764100 2.079100
5.791000 1.951200
5.817900 1.854700
5.844800 1.859100
5.871700 1.958700
5.898600 2.102000
5.925500 2.253300
5.952400 2.162700
5.979300 1.788600
6.006200 1.542400
6.033100 1.696800
6.060000 1.992900
6.086900 2.052800
6.113800 1.994900
6.140700 2.103200
6.167600 2.258700
6.194500 2.260300
6.221400 2.145500
6.248300 1.990000
6.275200 1.847200
6.302100 1.810100
6.329000 1.916900
6.355900 2.078800
6.382800 2.024900
6.409700 1.617900
6.436600 1.075500
6.463500 0.709700
6.490400 0.692700
6.517300 0.989000
6.544200 1.401600
6.571100 1.665800
6.598000 1.626000
6.624900 1.401200
6.651800 1.204100
6.678700 1.098000
6.705600 1.177200
