set title 'mp-1066856 - Density of States'
set xlabel 'Energy (eV)'
set ylabel 'DOS (states/eV)'
set grid
set xrange [-10:10]
set yrange [0:19.154]
set xzeroaxis lt -1
set terminal png size 800,600
set output 'mp-1066856_dos_gnuplot.png'
plot '-' using 1:2 with lines title 'DOS'
-18.865100 0.000000
-18.842500 0.000000
-18.819900 0.000000
-18.797300 0.000000
-18.774700 0.000000
-18.752100 0.000000
-18.729500 0.000000
-18.706900 0.000000
-18.684300 0.000000
-18.661700 0.000000
-18.639100 0.000000
-18.616500 0.000000
-18.593900 0.000000
-18.571300 0.000000
-18.548600 0.000000
-18.526000 0.000000
-18.503400 0.000000
-18.480800 0.000000
-18.458200 0.000000
-18.435600 0.000000
-18.413000 0.000000
-18.390400 0.000000
-18.367800 0.000000
-18.345200 0.000000
-18.322600 0.000000
-18.300000 0.000000
-18.277400 0.000000
-18.254800 0.000000
-18.232200 0.000000
-18.209600 0.000000
-18.187000 0.000000
-18.164300 0.000000
-18.141700 0.000000
-18.119100 0.000000
-18.096500 0.000000
-18.073900 0.000000
-18.051300 0.000000
-18.028700 0.000000
-18.006100 0.000000
-17.983500 0.000000
-17.960900 0.000000
-17.938300 0.000000
-17.915700 0.000000
-17.893100 0.000000
-17.870500 0.000000
-17.847900 0.000000
-17.825300 0.000000
-17.802600 0.000000
-17.780000 0.000000
-17.757400 0.000000
-17.734800 0.000000
-17.712200 0.000000
-17.689600 0.000000
-17.667000 0.000000
-17.644400 0.000000
-17.621800 0.000000
-17.599200 0.000000
-17.576600 0.000000
-17.554000 0.000000
-17.531400 0.000000
-17.508800 0.000000
-17.486200 0.000000
-17.463600 0.000000
-17.440900 0.000000
-17.418300 0.000000
-17.395700 0.000000
-17.373100 0.000000
-17.350500 0.000000
-17.327900 0.000000
-17.305300 0.000000
-17.282700 0.000000
-17.260100 0.000000
-17.237500 0.000000
-17.214900 0.000000
-17.192300 0.000000
-17.169700 0.000000
-17.147100 0.000000
-17.124500 0.000000
-17.101900 0.000000
-17.079300 0.000000
-17.056600 0.000000
-17.034000 0.000000
-17.011400 0.000000
-16.988800 0.000000
-16.966200 0.000000
-16.943600 0.000000
-16.921000 0.000000
-16.898400 0.000000
-16.875800 0.000000
-16.853200 0.000000
-16.830600 0.000000
-16.808000 0.008300
-16.785400 0.430200
-16.762800 0.662200
-16.740200 0.864900
-16.717600 1.032200
-16.694900 1.224900
-16.672300 1.417700
-16.649700 1.612600
-16.627100 1.826500
-16.604500 2.087400
-16.581900 2.359600
-16.559300 2.721300
-16.536700 3.140500
-16.514100 3.774100
-16.491500 4.746000
-16.468900 7.785700
-16.446300 11.424500
-16.423700 6.622900
-16.401100 5.212200
-16.378500 4.431300
-16.355900 4.525500
-16.333200 4.319600
-16.310600 4.203200
-16.288000 4.244200
-16.265400 4.316500
-16.242800 4.689500
-16.220200 4.995900
-16.197600 5.681100
-16.175000 8.013000
-16.152400 12.922500
-16.129800 15.150200
-16.107200 15.147900
-16.084600 12.843800
-16.062000 8.711700
-16.039400 3.898000
-16.016800 2.175500
-15.994200 0.096300
-15.971600 0.000000
-15.948900 0.000000
-15.926300 0.000000
-15.903700 0.000000
-15.881100 0.000000
-15.858500 0.000000
-15.835900 0.000000
-15.813300 0.000000
-15.790700 0.000000
-15.768100 0.000000
-15.745500 0.000000
-15.722900 0.000000
-15.700300 0.000000
-15.677700 0.000000
-15.655100 0.000000
-15.632500 0.000000
-15.609900 0.000000
-15.587200 0.000000
-15.564600 0.000000
-15.542000 0.000000
-15.519400 0.000000
-15.496800 0.000000
-15.474200 0.000000
-15.451600 0.000000
-15.429000 0.000000
-15.406400 0.000000
-15.383800 0.000000
-15.361200 0.000000
-15.338600 0.000000
-15.316000 0.000000
-15.293400 0.000000
-15.270800 0.000000
-15.248200 0.000000
-15.225600 0.000000
-15.202900 0.000000
-15.180300 0.000000
-15.157700 0.000000
-15.135100 0.000000
-15.112500 0.000000
-15.089900 0.000000
-15.067300 0.000000
-15.044700 0.000000
-15.022100 0.000000
-14.999500 0.000000
-14.976900 0.000000
-14.954300 0.000000
-14.931700 0.000000
-14.909100 0.000000
-14.886500 0.000000
-14.863900 0.000000
-14.841200 0.000000
-14.818600 0.000000
-14.796000 0.000000
-14.773400 0.000000
-14.750800 0.000000
-14.728200 0.000000
-14.705600 0.000000
-14.683000 0.000000
-14.660400 0.000000
-14.637800 0.000000
-14.615200 0.000000
-14.592600 0.000000
-14.570000 0.000000
-14.547400 0.000000
-14.524800 0.000000
-14.502200 0.000000
-14.479500 0.000000
-14.456900 0.000000
-14.434300 0.000000
-14.411700 0.000000
-14.389100 0.000000
-14.366500 0.000000
-14.343900 0.000000
-14.321300 0.000000
-14.298700 0.000000
-14.276100 0.000000
-14.253500 0.000000
-14.230900 0.000000
-14.208300 0.000000
-14.185700 0.000000
-14.163100 0.000000
-14.140500 0.000000
-14.117900 0.000000
-14.095200 0.000000
-14.072600 0.000000
-14.050000 0.000000
-14.027400 0.000000
-14.004800 0.000000
-13.982200 0.000000
-13.959600 0.000000
-13.937000 0.000000
-13.914400 0.000000
-13.891800 0.000000
-13.869200 0.000000
-13.846600 0.000000
-13.824000 0.000000
-13.801400 0.000000
-13.778800 0.000000
-13.756200 0.000000
-13.733500 0.000000
-13.710900 0.000000
-13.688300 0.000000
-13.665700 0.000000
-13.643100 0.000000
-13.620500 0.000000
-13.597900 0.000000
-13.575300 0.000000
-13.552700 0.000000
-13.530100 0.000000
-13.507500 0.000000
-13.484900 0.000000
-13.462300 0.000000
-13.439700 0.000000
-13.417100 0.000000
-13.394500 0.000000
-13.371900 0.000000
-13.349200 0.000000
-13.326600 0.000000
-13.304000 0.000000
-13.281400 0.000000
-13.258800 0.000000
-13.236200 0.000000
-13.213600 0.000000
-13.191000 0.000000
-13.168400 0.000000
-13.145800 0.000000
-13.123200 0.000000
-13.100600 0.000000
-13.078000 0.000000
-13.055400 0.000000
-13.032800 0.000000
-13.010200 0.000000
-12.987500 0.000000
-12.964900 0.000000
-12.942300 0.000000
-12.919700 0.000000
-12.897100 0.000000
-12.874500 0.000000
-12.851900 0.000000
-12.829300 0.000000
-12.806700 0.000000
-12.784100 0.000000
-12.761500 0.000000
-12.738900 0.000000
-12.716300 0.000000
-12.693700 0.000000
-12.671100 0.000000
-12.648500 0.000000
-12.625800 0.000000
-12.603200 0.000000
-12.580600 0.000000
-12.558000 0.000000
-12.535400 0.000000
-12.512800 0.000000
-12.490200 0.000000
-12.467600 0.000000
-12.445000 0.000000
-12.422400 0.000000
-12.399800 0.000000
-12.377200 0.000000
-12.354600 0.000000
-12.332000 0.000000
-12.309400 0.000000
-12.286800 0.000000
-12.264200 0.000000
-12.241500 0.000000
-12.218900 0.000000
-12.196300 0.000000
-12.173700 0.000000
-12.151100 0.000000
-12.128500 0.000000
-12.105900 0.000000
-12.083300 0.000000
-12.060700 0.000000
-12.038100 0.000000
-12.015500 0.000000
-11.992900 0.000000
-11.970300 0.000000
-11.947700 0.000000
-11.925100 0.000000
-11.902500 0.000000
-11.879800 0.000000
-11.857200 0.000000
-11.834600 0.000000
-11.812000 0.000000
-11.789400 0.000000
-11.766800 0.000000
-11.744200 0.000000
-11.721600 0.000000
-11.699000 0.000000
-11.676400 0.000000
-11.653800 0.000000
-11.631200 0.000000
-11.608600 0.000000
-11.586000 0.000000
-11.563400 0.000000
-11.540800 0.000000
-11.518100 0.000000
-11.495500 0.000000
-11.472900 0.000000
-11.450300 0.000000
-11.427700 0.000000
-11.405100 0.000000
-11.382500 0.000000
-11.359900 0.000000
-11.337300 0.000000
-11.314700 0.000000
-11.292100 0.000000
-11.269500 0.000000
-11.246900 0.000000
-11.224300 0.000000
-11.201700 0.000000
-11.179100 0.000000
-11.156500 0.000000
-11.133800 0.000000
-11.111200 0.000000
-11.088600 0.000000
-11.066000 0.000000
-11.043400 0.000000
-11.020800 0.000000
-10.998200 0.000000
-10.975600 0.000000
-10.953000 0.000000
-10.930400 0.000000
-10.907800 0.000000
-10.885200 0.000000
-10.862600 0.000000
-10.840000 0.000000
-10.817400 0.000000
-10.794800 0.000000
-10.772100 0.000000
-10.749500 0.000000
-10.726900 0.000000
-10.704300 0.000000
-10.681700 0.000000
-10.659100 0.000000
-10.636500 0.000000
-10.613900 0.000000
-10.591300 0.000000
-10.568700 0.000000
-10.546100 0.000000
-10.523500 0.000000
-10.500900 0.000000
-10.478300 0.000000
-10.455700 0.000000
-10.433100 0.000000
-10.410500 0.000000
-10.387800 0.000000
-10.365200 0.000000
-10.342600 0.000000
-10.320000 0.000000
-10.297400 0.000000
-10.274800 0.000000
-10.252200 0.000000
-10.229600 0.000000
-10.207000 0.000000
-10.184400 0.000000
-10.161800 0.000000
-10.139200 0.000000
-10.116600 0.000000
-10.094000 0.000000
-10.071400 0.000000
-10.048800 0.000000
-10.026100 0.000000
-10.003500 0.000000
-9.980900 0.000000
-9.958300 0.000000
-9.935700 0.000000
-9.913100 0.000000
-9.890500 0.000000
-9.867900 0.000000
-9.845300 0.000000
-9.822700 0.000000
-9.800100 0.000000
-9.777500 0.000000
-9.754900 0.000000
-9.732300 0.000000
-9.709700 0.000000
-9.687100 0.000000
-9.664400 0.000000
-9.641800 0.000000
-9.619200 0.000000
-9.596600 0.000000
-9.574000 0.000000
-9.551400 0.000000
-9.528800 0.000000
-9.506200 0.000000
-9.483600 0.000000
-9.461000 0.000000
-9.438400 0.000000
-9.415800 0.000000
-9.393200 0.000000
-9.370600 0.000000
-9.348000 0.000000
-9.325400 0.000000
-9.302800 0.000000
-9.280100 0.000000
-9.257500 0.000000
-9.234900 0.000000
-9.212300 0.000000
-9.189700 0.000000
-9.167100 0.000000
-9.144500 0.000000
-9.121900 0.000000
-9.099300 0.000000
-9.076700 0.000000
-9.054100 0.000000
-9.031500 0.000000
-9.008900 0.000000
-8.986300 0.000000
-8.963700 0.000000
-8.941100 0.000000
-8.918400 0.000000
-8.895800 0.000000
-8.873200 0.000000
-8.850600 0.000000
-8.828000 0.000000
-8.805400 0.000000
-8.782800 0.000000
-8.760200 0.000000
-8.737600 0.000000
-8.715000 0.000000
-8.692400 0.000000
-8.669800 0.000000
-8.647200 0.000000
-8.624600 0.000000
-8.602000 0.000000
-8.579400 0.000000
-8.556800 0.000000
-8.534100 0.000000
-8.511500 0.000000
-8.488900 0.000000
-8.466300 0.000000
-8.443700 0.000000
-8.421100 0.000000
-8.398500 0.000000
-8.375900 0.000000
-8.353300 0.000000
-8.330700 0.000000
-8.308100 0.000000
-8.285500 0.000000
-8.262900 0.000000
-8.240300 0.000000
-8.217700 0.000000
-8.195100 0.000000
-8.172400 0.000000
-8.149800 0.000000
-8.127200 0.000000
-8.104600 0.000000
-8.082000 0.000000
-8.059400 0.000000
-8.036800 0.000000
-8.014200 0.000000
-7.991600 0.000000
-7.969000 0.000000
-7.946400 0.000000
-7.923800 0.000000
-7.901200 0.000000
-7.878600 0.000000
-7.856000 0.000000
-7.833400 0.000000
-7.810700 0.000000
-7.788100 0.000000
-7.765500 0.000000
-7.742900 0.000000
-7.720300 0.000000
-7.697700 0.000000
-7.675100 0.000000
-7.652500 0.000000
-7.629900 0.000000
-7.607300 0.000000
-7.584700 0.000000
-7.562100 0.000000
-7.539500 0.000000
-7.516900 0.000000
-7.494300 0.000000
-7.471700 0.000000
-7.449100 0.000000
-7.426400 0.000000
-7.403800 0.000000
-7.381200 0.000000
-7.358600 0.000000
-7.336000 0.000000
-7.313400 0.000000
-7.290800 0.000000
-7.268200 0.000000
-7.245600 0.000000
-7.223000 0.000000
-7.200400 0.000000
-7.177800 0.000000
-7.155200 0.000000
-7.132600 0.000000
-7.110000 0.000000
-7.087400 0.000000
-7.064700 0.000000
-7.042100 0.000000
-7.019500 0.000000
-6.996900 0.000000
-6.974300 0.000000
-6.951700 0.000000
-6.929100 0.000000
-6.906500 0.000000
-6.883900 0.000000
-6.861300 0.000000
-6.838700 0.000000
-6.816100 0.000000
-6.793500 0.000000
-6.770900 0.000000
-6.748300 0.000000
-6.725700 0.000000
-6.703000 0.000000
-6.680400 0.000000
-6.657800 0.000000
-6.635200 0.000000
-6.612600 0.000000
-6.590000 0.000000
-6.567400 0.000000
-6.544800 0.000000
-6.522200 0.000000
-6.499600 0.000000
-6.477000 0.000000
-6.454400 0.000000
-6.431800 0.000000
-6.409200 0.000000
-6.386600 0.000000
-6.364000 0.000000
-6.341400 0.000000
-6.318700 0.000000
-6.296100 0.000000
-6.273500 0.000000
-6.250900 0.000000
-6.228300 0.000000
-6.205700 0.000000
-6.183100 0.000000
-6.160500 0.000000
-6.137900 0.000000
-6.115300 0.000000
-6.092700 0.000000
-6.070100 0.000000
-6.047500 0.000000
-6.024900 0.000000
-6.002300 0.000000
-5.979700 0.000000
-5.957000 0.000000
-5.934400 0.000000
-5.911800 0.000000
-5.889200 0.000000
-5.866600 0.000000
-5.844000 0.000000
-5.821400 0.000000
-5.798800 0.000000
-5.776200 0.000000
-5.753600 0.000000
-5.731000 0.000000
-5.708400 0.000000
-5.685800 0.000000
-5.663200 0.000000
-5.640600 0.000000
-5.618000 0.000000
-5.595400 0.000000
-5.572700 0.000000
-5.550100 0.000000
-5.527500 0.000000
-5.504900 0.000000
-5.482300 0.000000
-5.459700 0.000000
-5.437100 0.005300
-5.414500 0.063900
-5.391900 0.122300
-5.369300 0.157300
-5.346700 0.185700
-5.324100 0.210400
-5.301500 0.228600
-5.278900 0.255600
-5.256300 0.287600
-5.233700 0.318400
-5.211000 0.337500
-5.188400 0.357100
-5.165800 0.382000
-5.143200 0.406900
-5.120600 0.433700
-5.098000 0.457500
-5.075400 0.487600
-5.052800 0.519400
-5.030200 0.551500
-5.007600 0.584200
-4.985000 0.622400
-4.962400 0.668700
-4.939800 0.710200
-4.917200 0.751300
-4.894600 0.798700
-4.872000 0.863000
-4.849300 0.931300
-4.826700 1.000400
-4.804100 1.116200
-4.781500 1.217200
-4.758900 1.384300
-4.736300 1.669800
-4.713700 2.093100
-4.691100 3.586100
-4.668500 3.484500
-4.645900 3.339700
-4.623300 3.254000
-4.600700 3.006700
-4.578100 3.044200
-4.555500 3.004800
-4.532900 2.975300
-4.510300 2.714900
-4.487700 2.632100
-4.465000 2.514100
-4.442400 2.354900
-4.419800 2.344400
-4.397200 2.293900
-4.374600 2.799000
-4.352000 3.678200
-4.329400 6.556000
-4.306800 9.160400
-4.284200 10.665400
-4.261600 10.132300
-4.239000 9.348700
-4.216400 9.028400
-4.193800 8.144300
-4.171200 8.204500
-4.148600 10.108900
-4.126000 8.465000
-4.103300 7.559700
-4.080700 6.691300
-4.058100 6.289600
-4.035500 6.679400
-4.012900 7.636200
-3.990300 6.986900
-3.967700 6.121600
-3.945100 5.602200
-3.922500 5.428000
-3.899900 4.903100
-3.877300 4.757600
-3.854700 4.469800
-3.832100 4.439400
-3.809500 4.431400
-3.786900 4.034400
-3.764300 3.786700
-3.741700 3.657500
-3.719000 3.313700
-3.696400 3.100000
-3.673800 3.372400
-3.651200 3.303100
-3.628600 3.172000
-3.606000 3.382200
-3.583400 3.520400
-3.560800 3.910600
-3.538200 3.817500
-3.515600 3.879800
-3.493000 3.779800
-3.470400 3.722100
-3.447800 3.751300
-3.425200 3.886000
-3.402600 4.029500
-3.380000 4.211300
-3.357300 4.315700
-3.334700 4.367700
-3.312100 4.526400
-3.289500 4.768900
-3.266900 4.545100
-3.244300 4.690800
-3.221700 4.989400
-3.199100 5.086400
-3.176500 5.432900
-3.153900 5.735500
-3.131300 5.149400
-3.108700 4.562400
-3.086100 4.353800
-3.063500 4.363600
-3.040900 4.237200
-3.018300 4.155200
-2.995600 4.295700
-2.973000 4.138400
-2.950400 4.179100
-2.927800 4.213500
-2.905200 4.296000
-2.882600 4.346000
-2.860000 4.401700
-2.837400 4.430300
-2.814800 4.585400
-2.792200 4.604500
-2.769600 4.287800
-2.747000 4.299400
-2.724400 4.467800
-2.701800 4.742100
-2.679200 4.618400
-2.656600 4.090200
-2.634000 4.028300
-2.611300 3.899400
-2.588700 4.383700
-2.566100 4.754400
-2.543500 5.603600
-2.520900 5.953900
-2.498300 5.359200
-2.475700 5.419000
-2.453100 5.942600
-2.430500 6.101900
-2.407900 5.610200
-2.385300 6.169800
-2.362700 6.743200
-2.340100 6.685400
-2.317500 6.699100
-2.294900 6.926800
-2.272300 7.226800
-2.249600 7.616200
-2.227000 8.318400
-2.204400 8.512500
-2.181800 8.861400
-2.159200 9.287700
-2.136600 8.740300
-2.114000 8.004400
-2.091400 8.756400
-2.068800 9.666100
-2.046200 11.867700
-2.023600 11.871600
-2.001000 12.799900
-1.978400 14.165600
-1.955800 12.911900
-1.933200 10.632000
-1.910600 13.038600
-1.887900 16.640400
-1.865300 16.564600
-1.842700 14.396700
-1.820100 13.956700
-1.797500 17.412700
-1.774900 16.169400
-1.752300 14.688400
-1.729700 12.812500
-1.707100 11.639400
-1.684500 10.809400
-1.661900 7.243000
-1.639300 4.317400
-1.616700 3.936000
-1.594100 3.276000
-1.571500 2.512200
-1.548900 1.654200
-1.526300 1.379900
-1.503600 1.009200
-1.481000 0.841500
-1.458400 0.967500
-1.435800 1.235900
-1.413200 1.572800
-1.390600 2.154000
-1.368000 2.919600
-1.345400 2.943900
-1.322800 2.854500
-1.300200 2.938000
-1.277600 2.991600
-1.255000 2.986100
-1.232400 3.048100
-1.209800 3.165300
-1.187200 3.411400
-1.164600 3.753400
-1.141900 4.166600
-1.119300 4.673000
-1.096700 5.219800
-1.074100 5.766100
-1.051500 6.615300
-1.028900 6.568400
-1.006300 6.745500
-0.983700 6.103800
-0.961100 5.503600
-0.938500 5.018200
-0.915900 4.939700
-0.893300 4.671700
-0.870700 4.738200
-0.848100 5.033700
-0.825500 5.845300
-0.802900 6.458300
-0.780300 6.402300
-0.757600 6.400700
-0.735000 6.996100
-0.712400 8.128300
-0.689800 9.336300
-0.667200 9.398700
-0.644600 9.074100
-0.622000 8.862900
-0.599400 8.979300
-0.576800 9.302700
-0.554200 9.024700
-0.531600 9.150300
-0.509000 8.246700
-0.486400 7.430700
-0.463800 7.684300
-0.441200 7.440200
-0.418600 7.559800
-0.395900 8.971200
-0.373300 7.997100
-0.350700 7.747800
-0.328100 8.684700
-0.305500 8.852500
-0.282900 8.603900
-0.260300 6.860200
-0.237700 5.512600
-0.215100 4.511500
-0.192500 3.868700
-0.169900 2.931900
-0.147300 2.400400
-0.124700 2.004100
-0.102100 1.828900
-0.079500 1.706900
-0.056900 1.564400
-0.034200 1.451200
-0.011600 1.024500
0.011000 0.622800
0.033600 0.480100
0.056200 0.281500
0.078800 0.280200
0.101400 0.447600
0.124000 0.514200
0.146600 0.510100
0.169200 0.561300
0.191800 0.591400
0.214400 0.581200
0.237000 0.588900
0.259600 0.645100
0.282200 0.480300
0.304800 0.452000
0.327400 0.441800
0.350100 0.441200
0.372700 0.444600
0.395300 0.451000
0.417900 0.458400
0.440500 0.467100
0.463100 0.477200
0.485700 0.494400
0.508300 0.516600
0.530900 0.561200
0.553500 0.616500
0.576100 0.677700
0.598700 0.731800
0.621300 0.784100
0.643900 0.830700
0.666500 0.890000
0.689100 0.974700
0.711800 1.092000
0.734400 1.168500
0.757000 1.243800
0.779600 1.339700
0.802200 1.448700
0.824800 1.658000
0.847400 1.797500
0.870000 1.928700
0.892600 1.986200
0.915200 2.089300
0.937800 2.207700
0.960400 2.229400
0.983000 2.179600
1.005600 2.137800
1.028200 2.039500
1.050800 1.957900
1.073400 1.905800
1.096100 1.873200
1.118700 1.876400
1.141300 1.918500
1.163900 2.007800
1.186500 2.075500
1.209100 2.109500
1.231700 2.192800
1.254300 2.275600
1.276900 2.301200
1.299500 2.329500
1.322100 2.082300
1.344700 1.945900
1.367300 1.936000
1.389900 1.953000
1.412500 1.948900
1.435100 1.889800
1.457800 1.910800
1.480400 1.944500
1.503000 1.933000
1.525600 1.987300
1.548200 1.903200
1.570800 1.885000
1.593400 1.698700
1.616000 1.623200
1.638600 1.619500
1.661200 1.651100
1.683800 1.736200
1.706400 1.746400
1.729000 1.789100
1.751600 1.842100
1.774200 1.947000
1.796800 2.006300
1.819500 2.136800
1.842100 2.257200
1.864700 2.280500
1.887300 2.387200
1.909900 2.512400
1.932500 2.664500
1.955100 2.783400
1.977700 3.061900
2.000300 3.294500
2.022900 3.821400
2.045500 4.659800
2.068100 4.721700
2.090700 5.013100
2.113300 4.185000
2.135900 3.304600
2.158500 2.872200
2.181100 2.534100
2.203800 2.316700
2.226400 2.025100
2.249000 1.713100
2.271600 1.487900
2.294200 1.172900
2.316800 0.982400
2.339400 0.828700
2.362000 0.694600
2.384600 0.545400
2.407200 0.410900
2.429800 0.355300
2.452400 0.336500
2.475000 0.307200
2.497600 0.225000
2.520200 0.145900
2.542800 0.071300
2.565500 0.043300
2.588100 0.045300
2.610700 0.048400
2.633300 0.051800
2.655900 0.055400
2.678500 0.059000
2.701100 0.062800
2.723700 0.066300
2.746300 0.069300
2.768900 0.072200
2.791500 0.074900
2.814100 0.077800
2.836700 0.080700
2.859300 0.083300
2.881900 0.085900
2.904500 0.088600
2.927200 0.091400
2.949800 0.094300
2.972400 0.097400
2.995000 0.100500
3.017600 0.103700
3.040200 0.107000
3.062800 0.110200
3.085400 0.113300
3.108000 0.116200
3.130600 0.119200
3.153200 0.122200
3.175800 0.125300
3.198400 0.128400
3.221000 0.131600
3.243600 0.135000
3.266200 0.138300
3.288800 0.141700
3.311500 0.145000
3.334100 0.148300
3.356700 0.151700
3.379300 0.155100
3.401900 0.158500
3.424500 0.162000
3.447100 0.165600
3.469700 0.169300
3.492300 0.172900
3.514900 0.176500
3.537500 0.180000
3.560100 0.183700
3.582700 0.187500
3.605300 0.191400
3.627900 0.195300
3.650500 0.199300
3.673200 0.203300
3.695800 0.207300
3.718400 0.211400
3.741000 0.215500
3.763600 0.219600
3.786200 0.223700
3.808800 0.227900
3.831400 0.232200
3.854000 0.236500
3.876600 0.240900
3.899200 0.245300
3.921800 0.249700
3.944400 0.254300
3.967000 0.259200
3.989600 0.264000
4.012200 0.268800
4.034800 0.273800
4.057500 0.278700
4.080100 0.283700
4.102700 0.288800
4.125300 0.293800
4.147900 0.298900
4.170500 0.304100
4.193100 0.309400
4.215700 0.314800
4.238300 0.322700
4.260900 0.335700
4.283500 0.350300
