set title 'mp-972373 - Density of States'
set xlabel 'Energy (eV)'
set ylabel 'DOS (states/eV)'
set grid
set xrange [-10:10]
set yrange [0:101.138]
set xzeroaxis lt -1
set terminal png size 800,600
set output 'mp-972373_dos_gnuplot.png'
plot '-' using 1:2 with lines title 'DOS'
-7.491500 0.000000
-7.475900 0.000000
-7.460300 0.000000
-7.444600 0.000000
-7.429000 0.000000
-7.413300 0.000000
-7.397700 0.000000
-7.382000 0.000000
-7.366400 0.000000
-7.350700 0.000000
-7.335100 0.000000
-7.319400 0.000000
-7.303800 0.000000
-7.288100 0.000000
-7.272500 0.000000
-7.256800 0.000000
-7.241200 0.000000
-7.225500 0.000000
-7.209900 0.000000
-7.194300 0.000000
-7.178600 0.000000
-7.163000 0.000000
-7.147300 0.000000
-7.131700 0.000000
-7.116000 0.000000
-7.100400 0.000000
-7.084700 0.000000
-7.069100 0.000000
-7.053400 0.000000
-7.037800 0.000000
-7.022100 0.000000
-7.006500 0.000000
-6.990800 0.000000
-6.975200 0.000000
-6.959500 0.000000
-6.943900 0.000000
-6.928300 0.000000
-6.912600 0.000000
-6.897000 0.000000
-6.881300 0.000000
-6.865700 0.000000
-6.850000 0.000000
-6.834400 0.000000
-6.818700 0.000000
-6.803100 0.000000
-6.787400 0.000000
-6.771800 0.000000
-6.756100 0.000000
-6.740500 0.000000
-6.724800 0.000000
-6.709200 0.000000
-6.693500 0.000000
-6.677900 0.000000
-6.662300 0.000000
-6.646600 0.000000
-6.631000 0.000000
-6.615300 0.000000
-6.599700 0.000000
-6.584000 0.000000
-6.568400 0.000000
-6.552700 0.000000
-6.537100 0.000000
-6.521400 0.000000
-6.505800 0.000000
-6.490100 0.000000
-6.474500 0.000000
-6.458800 0.000000
-6.443200 0.000000
-6.427500 0.000000
-6.411900 0.000000
-6.396300 0.000000
-6.380600 0.000000
-6.365000 0.000000
-6.349300 0.000000
-6.333700 0.000000
-6.318000 0.000000
-6.302400 0.000000
-6.286700 0.000000
-6.271100 0.000000
-6.255400 0.000000
-6.239800 0.000000
-6.224100 0.000000
-6.208500 0.000000
-6.192800 0.000000
-6.177200 0.000000
-6.161500 0.000000
-6.145900 0.000000
-6.130300 0.000000
-6.114600 0.000000
-6.099000 0.000000
-6.083300 0.000000
-6.067700 0.034200
-6.052000 3.889000
-6.036400 6.298500
-6.020700 8.858800
-6.005100 11.859100
-5.989400 21.226700
-5.973800 23.436600
-5.958100 31.404900
-5.942500 55.860700
-5.926800 58.749700
-5.911200 49.435700
-5.895500 51.839600
-5.879900 68.495200
-5.864300 69.439400
-5.848600 61.178700
-5.833000 65.015600
-5.817300 67.162200
-5.801700 54.136700
-5.786000 90.076300
-5.770400 88.379700
-5.754700 87.605500
-5.739100 90.150700
-5.723400 52.438400
-5.707800 48.003600
-5.692100 51.963700
-5.676500 55.067600
-5.660800 41.904300
-5.645200 27.855500
-5.629500 40.721300
-5.613900 55.588400
-5.598300 48.195400
-5.582600 58.688700
-5.567000 70.819600
-5.551300 72.594600
-5.535700 58.637700
-5.520000 64.144000
-5.504400 86.715300
-5.488700 78.089300
-5.473100 55.447600
-5.457400 61.361500
-5.441800 65.988300
-5.426100 68.801600
-5.410500 68.975000
-5.394800 91.943300
-5.379200 76.951900
-5.363500 67.745700
-5.347900 18.767800
-5.332300 0.000000
-5.316600 0.000000
-5.301000 0.000000
-5.285300 0.000000
-5.269700 0.000000
-5.254000 0.000000
-5.238400 0.000000
-5.222700 0.000000
-5.207100 0.000000
-5.191400 0.000000
-5.175800 0.000000
-5.160100 0.000000
-5.144500 0.000000
-5.128800 0.000000
-5.113200 0.000000
-5.097500 0.000000
-5.081900 0.000000
-5.066300 0.000000
-5.050600 0.000000
-5.035000 0.000000
-5.019300 0.000000
-5.003700 0.000000
-4.988000 0.000000
-4.972400 0.000000
-4.956700 0.000000
-4.941100 0.000000
-4.925400 0.000000
-4.909800 0.000000
-4.894100 0.000000
-4.878500 0.000000
-4.862800 0.000000
-4.847200 0.000000
-4.831500 0.000000
-4.815900 0.000000
-4.800300 0.000000
-4.784600 0.000000
-4.769000 0.000000
-4.753300 0.000000
-4.737700 0.000000
-4.722000 0.000000
-4.706400 0.000000
-4.690700 0.000000
-4.675100 0.000000
-4.659400 0.000000
-4.643800 0.000000
-4.628100 0.000000
-4.612500 0.000000
-4.596800 0.000000
-4.581200 0.000000
-4.565500 0.000000
-4.549900 0.000000
-4.534300 0.000000
-4.518600 0.000000
-4.503000 0.000000
-4.487300 0.000000
-4.471700 0.000000
-4.456000 0.000000
-4.440400 0.000000
-4.424700 0.000000
-4.409100 0.000000
-4.393400 0.000000
-4.377800 0.000000
-4.362100 0.000000
-4.346500 0.000000
-4.330800 0.000000
-4.315200 0.000000
-4.299500 0.000000
-4.283900 0.000000
-4.268300 0.000000
-4.252600 0.000000
-4.237000 0.000000
-4.221300 0.000000
-4.205700 0.000000
-4.190000 0.000000
-4.174400 0.000000
-4.158700 0.000000
-4.143100 0.000000
-4.127400 0.000000
-4.111800 0.000000
-4.096100 0.000000
-4.080500 0.000000
-4.064800 0.000000
-4.049200 0.000000
-4.033500 0.000000
-4.017900 0.000000
-4.002300 0.000000
-3.986600 0.000000
-3.971000 0.000000
-3.955300 0.000000
-3.939700 0.000000
-3.924000 0.000000
-3.908400 0.000000
-3.892700 0.000000
-3.877100 0.000000
-3.861400 0.000000
-3.845800 0.000000
-3.830100 0.000000
-3.814500 0.000000
-3.798800 0.000000
-3.783200 0.000000
-3.767500 0.000000
-3.751900 0.000000
-3.736200 0.000000
-3.720600 0.000000
-3.705000 0.002000
-3.689300 0.015000
-3.673700 0.039900
-3.658000 0.076800
-3.642400 0.125600
-3.626700 0.184800
-3.611100 0.214200
-3.595400 0.232900
-3.579800 0.244500
-3.564100 0.249200
-3.548500 0.247000
-3.532800 0.259200
-3.517200 0.275500
-3.501500 0.292100
-3.485900 0.309000
-3.470200 0.326300
-3.454600 0.343800
-3.439000 0.361600
-3.423300 0.377800
-3.407700 0.392200
-3.392000 0.404600
-3.376400 0.414000
-3.360700 0.419900
-3.345100 0.423800
-3.329400 0.427100
-3.313800 0.430000
-3.298100 0.434800
-3.282500 0.442900
-3.266800 0.451900
-3.251200 0.461100
-3.235500 0.470200
-3.219900 0.479300
-3.204200 0.488400
-3.188600 0.497500
-3.173000 0.506600
-3.157300 0.515600
-3.141700 0.524600
-3.126000 0.533600
-3.110400 0.542700
-3.094700 0.552100
-3.079100 0.561500
-3.063400 0.567800
-3.047800 0.574000
-3.032100 0.580100
-3.016500 0.585900
-3.000800 0.591400
-2.985200 0.598700
-2.969500 0.605600
-2.953900 0.611800
-2.938200 0.617300
-2.922600 0.622200
-2.907000 0.626300
-2.891300 0.630800
-2.875700 0.636200
-2.860000 0.641700
-2.844400 0.647400
-2.828700 0.653100
-2.813100 0.659000
-2.797400 0.664900
-2.781800 0.670800
-2.766100 0.676600
-2.750500 0.682700
-2.734800 0.689000
-2.719200 0.695300
-2.703500 0.701600
-2.687900 0.708100
-2.672200 0.714800
-2.656600 0.721500
-2.641000 0.728400
-2.625300 0.735500
-2.609700 0.742400
-2.594000 0.748900
-2.578400 0.754800
-2.562700 0.760200
-2.547100 0.765000
-2.531400 0.769400
-2.515800 0.773700
-2.500100 0.778300
-2.484500 0.783200
-2.468800 0.788400
-2.453200 0.793800
-2.437500 0.799400
-2.421900 0.804900
-2.406200 0.809300
-2.390600 0.813000
-2.375000 0.816200
-2.359300 0.819100
-2.343700 0.821800
-2.328000 0.826800
-2.312400 0.833000
-2.296700 0.837500
-2.281100 0.842000
-2.265400 0.846600
-2.249800 0.851300
-2.234100 0.856000
-2.218500 0.860900
-2.202800 0.865800
-2.187200 0.870900
-2.171500 0.875900
-2.155900 0.881000
-2.140200 0.886200
-2.124600 0.891600
-2.109000 0.897100
-2.093300 0.902600
-2.077700 0.908200
-2.062000 0.913800
-2.046400 0.919400
-2.030700 0.924900
-2.015100 0.930400
-1.999400 0.936000
-1.983800 0.941500
-1.968100 0.946000
-1.952500 0.950500
-1.936800 0.954700
-1.921200 0.958900
-1.905500 0.962900
-1.889900 0.967400
-1.874200 0.972000
-1.858600 0.976600
-1.843000 0.981200
-1.827300 0.985800
-1.811700 0.990500
-1.796000 0.995200
-1.780400 1.000300
-1.764700 1.005200
-1.749100 1.010100
-1.733400 1.015200
-1.717800 1.020300
-1.702100 1.025400
-1.686500 1.030600
-1.670800 1.035600
-1.655200 1.040600
-1.639500 1.045300
-1.623900 1.049900
-1.608200 1.054300
-1.592600 1.058800
-1.577000 1.063600
-1.561300 1.068400
-1.545700 1.073200
-1.530000 1.078000
-1.514400 1.082800
-1.498700 1.087600
-1.483100 1.092400
-1.467400 1.097200
-1.451800 1.101900
-1.436100 1.106700
-1.420500 1.111500
-1.404800 1.116300
-1.389200 1.121200
-1.373500 1.126100
-1.357900 1.131100
-1.342200 1.136100
-1.326600 1.141300
-1.311000 1.146600
-1.295300 1.151900
-1.279700 1.157400
-1.264000 1.162900
-1.248400 1.168200
-1.232700 1.173400
-1.217100 1.178400
-1.201400 1.183400
-1.185800 1.188300
-1.170100 1.193200
-1.154500 1.198200
-1.138800 1.203300
-1.123200 1.208500
-1.107500 1.213800
-1.091900 1.219100
-1.076200 1.224500
-1.060600 1.229900
-1.045000 1.235300
-1.029300 1.240800
-1.013700 1.246200
-0.998000 1.251700
-0.982400 1.257200
-0.966700 1.262700
-0.951100 1.268200
-0.935400 1.273700
-0.919800 1.279300
-0.904100 1.285000
-0.888500 1.290700
-0.872800 1.296500
-0.857200 1.302400
-0.841500 1.308300
-0.825900 1.314300
-0.810200 1.320300
-0.794600 1.326300
-0.779000 1.332200
-0.763300 1.338200
-0.747700 1.344100
-0.732000 1.350300
-0.716400 1.356700
-0.700700 1.363100
-0.685100 1.369700
-0.669400 1.376200
-0.653800 1.382900
-0.638100 1.389600
-0.622500 1.396400
-0.606800 1.403200
-0.591200 1.410100
-0.575500 1.417100
-0.559900 1.424100
-0.544200 1.431200
-0.528600 1.438300
-0.513000 1.445400
-0.497300 1.452800
-0.481700 1.460300
-0.466000 1.467900
-0.450400 1.475700
-0.434700 1.483800
-0.419100 1.492200
-0.403400 1.500800
-0.387800 1.509600
-0.372100 1.518600
-0.356500 1.527700
-0.340800 1.536800
-0.325200 1.546200
-0.309500 1.555600
-0.293900 1.565200
-0.278200 1.575000
-0.262600 1.585200
-0.247000 1.595800
-0.231300 1.606900
-0.215700 1.618500
-0.200000 1.630500
-0.184400 1.642700
-0.168700 1.655300
-0.153100 1.668100
-0.137400 1.681200
-0.121800 1.694600
-0.106100 1.708300
-0.090500 1.722200
-0.074800 1.736400
-0.059200 1.751900
-0.043500 1.767200
-0.027900 1.782900
-0.012200 1.798900
0.003400 1.850400
0.019100 1.912100
0.034700 1.968600
0.050300 2.019700
0.066000 2.046600
0.081600 2.058100
0.097300 2.068700
0.112900 2.078600
0.128600 2.087800
0.144200 2.095400
0.159900 2.099600
0.175500 2.102100
0.191200 2.102800
0.206800 2.101800
0.222500 2.099900
0.238100 2.101000
0.253800 2.107400
0.269400 2.108600
0.285100 2.109000
0.300700 2.110100
0.316300 2.112000
0.332000 2.114400
0.347600 2.117600
0.363300 2.121400
0.378900 2.126400
0.394600 2.134400
0.410200 2.145300
0.425900 2.417100
0.441500 2.417800
0.457200 2.418500
0.472800 2.307300
0.488500 2.261100
0.504100 2.266300
0.519800 2.304700
0.535400 2.350700
0.551100 2.360400
0.566700 2.352100
0.582300 2.339100
0.598000 2.318800
0.613600 2.290100
0.629300 2.254000
0.644900 2.220200
0.660600 2.191100
0.676200 2.163700
0.691900 2.137500
0.707500 2.112500
0.723200 2.092200
0.738800 2.156000
0.754500 2.067000
0.770100 1.995300
0.785800 1.950300
0.801400 1.933200
0.817100 1.935400
0.832700 1.937100
0.848300 1.937200
0.864000 1.935700
0.879600 1.932700
0.895300 1.930300
0.910900 1.937800
0.926600 1.947300
0.942200 1.957800
0.957900 2.001500
0.973500 2.052100
0.989200 2.096300
1.004800 2.241400
1.020500 2.256300
1.036100 2.263100
1.051800 2.197100
1.067400 2.194100
1.083100 2.181600
1.098700 2.161800
1.114300 2.138900
1.130000 2.112800
1.145600 2.083600
1.161300 2.097400
1.176900 2.126500
1.192600 2.163900
1.208200 2.153000
1.223900 2.165700
1.239500 2.222000
1.255200 2.416100
1.270800 2.236500
1.286500 1.985000
1.302100 2.006100
1.317800 2.028000
1.333400 2.050700
1.349100 2.073200
1.364700 2.094200
1.380300 2.117100
1.396000 2.142000
1.411600 2.168700
1.427300 2.196700
1.442900 2.254100
1.458600 2.309000
1.474200 2.363200
1.489900 2.416600
1.505500 2.469300
1.521200 2.521200
1.536800 3.463900
1.552500 2.606400
1.568100 2.674000
1.583800 2.900000
1.599400 3.044700
1.615100 2.858400
1.630700 2.925300
1.646300 3.082400
1.662000 3.164800
1.677600 3.257900
1.693300 3.360100
1.708900 3.411000
1.724600 3.375900
1.740200 3.246900
1.755900 3.234800
1.771500 3.118700
1.787200 2.843500
1.802800 2.605000
1.818500 2.433000
1.834100 2.235800
1.849800 2.013500
1.865400 1.775200
1.881100 1.554600
1.896700 1.356500
1.912300 1.161900
1.928000 0.962800
1.943600 0.786800
1.959300 0.668800
1.974900 0.490700
1.990600 0.322900
2.006200 0.181700
2.021900 0.067200
2.037500 0.000000
2.053200 0.000000
2.068800 0.000000
2.084500 0.000000
2.100100 0.000000
2.115800 0.000000
2.131400 0.000000
2.147100 0.000000
2.162700 0.000000
2.178300 0.000000
2.194000 0.000000
2.209600 0.000000
2.225300 0.000000
2.240900 0.000000
2.256600 0.000000
2.272200 0.000000
2.287900 0.000000
2.303500 0.000000
2.319200 0.000000
2.334800 0.000000
2.350500 0.000000
2.366100 0.000000
2.381800 0.000000
2.397400 0.000000
2.413100 0.000000
2.428700 0.000000
2.444300 0.000000
2.460000 0.000000
2.475600 0.000000
2.491300 0.000000
2.506900 0.000000
2.522600 0.000000
2.538200 0.000000
2.553900 0.000000
2.569500 0.000000
2.585200 0.000000
2.600800 0.000000
2.616500 0.000000
2.632100 0.000000
2.647800 0.000000
2.663400 0.000000
2.679100 0.000000
2.694700 0.000000
2.710300 0.000000
2.726000 0.000000
2.741600 0.000000
2.757300 0.000000
2.772900 0.000000
2.788600 0.000000
2.804200 0.000000
2.819900 0.000000
2.835500 0.000000
2.851200 0.000000
2.866800 0.000000
2.882500 0.000000
2.898100 0.000000
2.913800 0.000000
2.929400 0.000000
2.945100 0.000000
2.960700 0.000000
2.976300 0.000000
2.992000 0.000000
3.007600 0.000000
3.023300 0.000000
3.038900 0.000000
3.054600 0.000000
3.070200 0.000000
3.085900 0.000000
3.101500 0.000000
3.117200 0.000000
3.132800 0.000000
3.148500 0.000000
3.164100 0.000000
3.179800 0.000000
3.195400 0.000000
3.211100 0.000000
3.226700 0.000200
3.242300 0.001200
3.258000 0.003000
3.273600 0.005800
3.289300 0.009500
3.304900 0.014100
3.320600 0.019500
3.336200 0.024700
3.351900 0.028100
3.367500 0.031600
3.383200 0.035300
3.398800 0.040300
3.414500 0.046800
3.430100 0.054900
3.445800 0.064400
3.461400 0.075500
3.477100 0.088100
3.492700 0.102100
3.508400 0.117700
3.524000 0.134900
3.539600 0.153500
3.555300 0.173700
3.570900 0.195200
3.586600 0.218200
3.602200 0.242800
3.617900 0.288500
3.633500 0.365700
3.649200 0.437800
3.664800 0.488000
3.680500 0.516400
3.696100 0.523600
3.711800 0.487100
3.727400 0.492900
3.743100 0.507600
3.758700 0.523300
3.774400 0.540100
3.790000 0.558000
3.805600 0.576900
3.821300 0.597000
3.836900 0.618100
3.852600 0.640300
3.868200 0.663600
3.883900 0.688300
3.899500 0.714800
3.915200 0.742900
3.930800 0.772600
3.946500 0.811200
3.962100 0.853300
3.977800 0.896900
3.993400 0.943600
4.009100 0.992100
4.024700 1.042500
4.040400 1.096600
4.056000 1.155200
4.071600 1.218300
4.087300 1.285800
4.102900 1.357000
4.118600 1.377300
4.134200 1.419300
4.149900 1.447200
4.165500 1.476900
4.181200 1.508300
4.196800 1.538000
4.212500 1.562800
4.228100 1.582800
4.243800 1.495400
4.259400 1.503500
4.275100 1.511200
4.290700 1.518500
4.306400 1.525200
4.322000 1.531600
4.337600 1.537600
4.353300 1.545200
4.368900 1.552200
4.384600 1.554900
4.400200 1.561000
4.415900 1.568900
4.431500 1.577900
4.447200 1.588200
4.462800 1.599900
4.478500 1.612800
4.494100 1.627000
4.509800 1.642600
4.525400 1.660000
4.541100 1.678300
4.556700 1.697200
4.572400 1.717600
4.588000 1.736400
4.603600 1.755300
4.619300 1.774400
4.634900 1.793900
4.650600 1.813500
4.666200 1.864600
4.681900 2.008900
4.697500 2.126600
4.713200 2.162300
4.728800 2.166000
4.744500 2.159000
4.760100 2.153800
4.775800 2.150200
4.791400 2.606300
4.807100 2.377300
4.822700 2.363400
4.838400 2.265900
4.854000 2.241300
4.869600 2.230300
4.885300 2.239900
4.900900 2.502100
4.916600 2.415000
4.932200 2.331200
4.947900 2.250500
4.963500 2.229500
4.979200 2.227100
4.994800 2.270000
5.010500 2.380200
5.026100 2.332600
5.041800 2.230000
5.057400 2.186400
5.073100 2.200800
5.088700 2.221400
5.104400 2.238400
5.120000 2.239600
5.135600 2.260700
5.151300 2.299300
5.166900 2.346000
5.182600 2.398900
5.198200 2.447900
5.213900 2.491200
5.229500 2.528900
5.245200 2.560000
5.260800 2.582600
5.276500 2.590400
5.292100 2.581800
5.307800 2.545100
5.323400 2.520600
5.339100 2.540000
5.354700 2.661700
5.370400 2.824000
5.386000 2.887500
5.401600 2.937800
5.417300 2.975000
5.432900 2.948900
5.448600 2.979600
5.464200 3.016900
5.479900 3.060100
5.495500 3.111000
5.511200 3.132200
5.526800 3.125700
5.542500 3.062300
5.558100 3.036600
5.573800 2.999600
5.589400 2.960000
5.605100 2.904700
5.620700 2.830200
5.636400 2.737800
5.652000 2.708500
5.667600 2.620800
5.683300 2.531200
5.698900 2.442900
5.714600 2.416300
5.730200 2.549300
5.745900 2.531400
5.761500 2.295200
5.777200 2.269600
5.792800 2.236600
5.808500 2.196100
5.824100 2.148200
5.839800 2.108700
5.855400 2.084400
5.871100 2.062600
5.886700 2.041200
5.902400 2.022900
5.918000 2.007300
5.933600 1.997400
5.949300 1.988400
5.964900 1.980200
5.980600 1.985100
5.996200 1.979900
6.011900 1.973700
6.027500 1.967100
6.043200 1.961200
6.058800 1.956500
6.074500 1.958000
6.090100 1.963400
6.105800 1.967000
6.121400 1.969300
6.137100 1.970400
6.152700 1.945100
6.168400 1.918900
6.184000 1.909200
6.199600 1.896200
6.215300 1.880300
6.230900 1.861000
6.246600 1.852800
6.262200 1.865100
6.277900 1.885400
6.293500 1.892100
6.309200 1.883100
6.324800 1.854600
6.340500 1.742500
6.356100 1.739600
6.371800 1.741800
6.387400 1.746500
6.403100 1.752000
6.418700 1.757100
6.434400 1.761800
6.450000 1.765900
6.465600 2.157000
6.481300 1.826300
6.496900 1.828500
6.512600 1.831300
6.528200 1.834700
6.543900 1.840200
6.559500 1.851500
6.575200 1.868800
6.590800 1.891700
6.606500 1.871300
6.622100 1.868300
6.637800 1.865500
6.653400 1.864800
6.669100 1.864700
6.684700 1.865500
6.700400 1.867400
6.716000 1.869600
6.731600 1.872200
6.747300 1.874800
6.762900 1.877900
6.778600 1.880900
6.794200 1.883600
6.809900 1.886100
6.825500 1.888300
6.841200 1.890300
6.856800 1.892200
6.872500 1.893800
6.888100 1.893000
6.903800 1.887400
6.919400 1.882200
6.935100 1.877400
6.950700 1.873000
6.966400 1.868900
6.982000 1.868300
6.997600 1.870300
7.013300 1.873800
7.028900 1.878300
7.044600 1.878500
7.060200 1.879500
7.075900 1.883300
7.091500 1.890700
7.107200 1.901700
7.122800 1.916600
7.138500 1.935500
7.154100 1.958400
7.169800 1.985200
7.185400 2.072800
7.201100 2.095100
7.216700 2.121000
7.232400 2.149900
7.248000 2.182100
7.263700 2.312500
7.279300 2.324000
7.294900 2.333400
7.310600 2.240700
7.326200 2.238200
7.341900 2.236700
7.357500 2.236600
7.373200 2.237800
7.388800 2.243300
7.404500 2.248300
7.420100 2.248400
7.435800 2.236300
7.451400 2.219800
7.467100 2.204800
7.482700 2.191200
7.498400 2.179100
7.514000 2.168500
7.529700 2.160000
7.545300 2.153300
7.560900 2.148700
7.576600 2.145800
7.592200 2.143000
7.607900 2.139800
7.623500 2.136800
7.639200 2.134000
7.654800 2.131500
7.670500 2.117000
7.686100 2.112800
7.701800 2.108300
7.717400 2.104200
7.733100 2.101800
7.748700 2.100000
7.764400 2.098500
7.780000 2.097500
7.795700 2.096800
7.811300 2.096600
7.826900 2.096800
7.842600 2.097200
7.858200 2.098700
7.873900 2.101200
7.889500 2.101500
7.905200 2.096000
7.920800 2.084700
7.936500 2.079800
7.952100 2.089200
7.967800 2.101700
7.983400 2.130400
7.999100 2.166700
8.014700 2.175000
8.030400 2.134200
8.046000 2.101100
8.061700 2.086500
8.077300 2.087900
8.092900 2.109200
8.108600 2.141400
8.124200 2.175300
8.139900 2.220800
8.155500 2.269600
8.171200 2.325100
8.186800 2.385900
8.202500 2.452200
8.218100 2.520600
8.233800 2.491800
8.249400 2.424300
8.265100 2.381500
8.280700 2.349600
8.296400 2.325200
8.312000 2.308000
8.327700 2.298000
8.343300 2.293800
8.358900 2.290800
8.374600 2.289100
8.390200 2.288700
8.405900 2.289500
8.421500 2.291600
8.437200 2.295100
8.452800 2.302000
8.468500 2.312500
8.484100 2.326300
8.499800 2.345200
8.515400 2.371000
8.531100 2.396200
8.546700 2.414600
8.562400 2.423800
8.578000 2.423900
8.593700 2.412600
8.609300 2.422500
8.624900 2.428700
8.640600 2.395700
8.656200 2.406200
8.671900 2.417000
8.687500 2.428300
8.703200 2.440400
8.718800 2.453300
8.734500 2.462000
8.750100 2.466700
8.765800 2.471600
8.781400 2.478100
8.797100 2.610300
8.812700 2.532600
8.828400 2.507800
8.844000 2.520400
8.859700 2.561900
8.875300 2.597900
8.890900 2.611200
8.906600 2.620100
8.922200 2.627400
8.937900 2.633200
8.953500 2.634100
8.969200 2.583200
8.984800 2.531100
9.000500 2.505400
9.016100 2.479600
9.031800 2.456100
9.047400 2.436500
9.063100 2.421700
9.078700 2.411200
9.094400 2.404300
9.110000 2.400600
9.125700 2.398000
9.141300 2.396300
9.156900 2.395700
9.172600 2.396700
