set title 'mp-13150 - Density of States'
set xlabel 'Energy (eV)'
set ylabel 'DOS (states/eV)'
set grid
set xrange [-10:10]
set yrange [0:1.520]
set xzeroaxis lt -1
set terminal png size 800,600
set output 'mp-13150_dos_gnuplot.png'
plot '-' using 1:2 with lines title 'DOS'
-21.776200 0.000000
-21.714000 0.000000
-21.651900 0.000000
-21.589700 0.000000
-21.527600 0.000000
-21.465500 0.000000
-21.403300 0.000000
-21.341200 0.000000
-21.279000 0.000000
-21.216900 0.000000
-21.154800 0.000000
-21.092600 0.000000
-21.030500 0.000000
-20.968300 0.000000
-20.906200 0.000000
-20.844100 0.000000
-20.781900 0.000000
-20.719800 0.000000
-20.657600 0.000000
-20.595500 0.000000
-20.533400 0.000000
-20.471200 0.000000
-20.409100 0.000000
-20.346900 0.000000
-20.284800 0.000000
-20.222700 0.000000
-20.160500 0.000000
-20.098400 0.000000
-20.036200 0.000000
-19.974100 0.000000
-19.912000 0.000000
-19.849800 0.000000
-19.787700 0.000000
-19.725500 0.000000
-19.663400 0.000000
-19.601300 0.000000
-19.539100 0.000000
-19.477000 0.000000
-19.414800 0.000000
-19.352700 0.000000
-19.290600 0.000000
-19.228400 0.000000
-19.166300 0.000000
-19.104100 0.000000
-19.042000 0.000000
-18.979900 0.000000
-18.917700 0.000000
-18.855600 0.000000
-18.793400 0.000000
-18.731300 0.000000
-18.669200 0.000000
-18.607000 0.000000
-18.544900 0.000000
-18.482700 0.000000
-18.420600 0.000000
-18.358500 0.000000
-18.296300 0.000000
-18.234200 0.000000
-18.172000 0.000000
-18.109900 0.000000
-18.047800 0.000000
-17.985600 0.000000
-17.923500 0.000000
-17.861300 0.000000
-17.799200 0.000000
-17.737100 0.000000
-17.674900 0.000000
-17.612800 0.000000
-17.550600 0.000000
-17.488500 0.000000
-17.426400 0.000000
-17.364200 0.000000
-17.302100 0.000000
-17.239900 0.000000
-17.177800 0.000000
-17.115700 0.000000
-17.053500 0.000000
-16.991400 0.000000
-16.929200 0.000000
-16.867100 0.000000
-16.805000 0.000000
-16.742800 0.000000
-16.680700 0.000000
-16.618500 0.000000
-16.556400 0.000000
-16.494300 0.000000
-16.432100 0.000000
-16.370000 0.000000
-16.307800 0.000000
-16.245700 0.000000
-16.183600 0.000000
-16.121400 0.002300
-16.059300 0.075800
-15.997100 0.219100
-15.935000 0.404700
-15.872900 0.413900
-15.810700 0.357000
-15.748600 0.357400
-15.686400 0.375800
-15.624300 0.394100
-15.562200 0.412500
-15.500000 0.420400
-15.437900 0.414500
-15.375700 0.397400
-15.313600 0.388200
-15.251500 0.389000
-15.189300 0.397000
-15.127200 0.405100
-15.065000 0.413100
-15.002900 0.421100
-14.940800 0.429100
-14.878600 0.437100
-14.816500 0.438700
-14.754300 0.436900
-14.692200 0.435700
-14.630100 0.439700
-14.567900 0.443700
-14.505800 0.447700
-14.443600 0.453200
-14.381500 0.460300
-14.319400 0.468000
-14.257200 0.475700
-14.195100 0.483300
-14.132900 0.491000
-14.070800 0.498700
-14.008700 0.507000
-13.946500 0.520000
-13.884400 0.537600
-13.822200 0.556300
-13.760100 0.576100
-13.698000 0.595800
-13.635800 0.615600
-13.573700 0.635400
-13.511500 0.656800
-13.449400 0.689000
-13.387300 0.725800
-13.325100 0.762700
-13.263000 0.799500
-13.200800 0.836400
-13.138700 0.882400
-13.076600 1.124300
-13.014400 2.017700
-12.952300 0.956300
-12.890100 0.847100
-12.828000 0.737800
-12.765900 0.628500
-12.703700 0.519300
-12.641600 0.567700
-12.579400 0.756100
-12.517300 0.000000
-12.455200 0.000000
-12.393000 0.000000
-12.330900 0.000000
-12.268700 0.000000
-12.206600 0.000000
-12.144500 0.000000
-12.082300 0.000000
-12.020200 0.000000
-11.958000 0.000000
-11.895900 0.000000
-11.833800 0.000000
-11.771600 0.000000
-11.709500 0.000000
-11.647300 0.000000
-11.585200 0.000000
-11.523100 0.000000
-11.460900 0.000000
-11.398800 0.000000
-11.336600 0.000000
-11.274500 0.000000
-11.212400 0.000000
-11.150200 0.000000
-11.088100 0.000000
-11.025900 0.000000
-10.963800 0.000000
-10.901700 0.000000
-10.839500 0.000000
-10.777400 0.000000
-10.715200 0.000000
-10.653100 0.000000
-10.591000 0.000000
-10.528800 0.000000
-10.466700 0.000000
-10.404500 0.000000
-10.342400 0.000000
-10.280300 0.000000
-10.218100 0.000000
-10.156000 0.000000
-10.093800 0.000000
-10.031700 0.000000
-9.969600 0.000000
-9.907400 0.000000
-9.845300 0.000000
-9.783100 0.000000
-9.721000 0.000000
-9.658900 0.000000
-9.596700 0.000000
-9.534600 0.000000
-9.472400 0.000000
-9.410300 0.000000
-9.348200 0.000000
-9.286000 0.000000
-9.223900 0.000000
-9.161700 0.000000
-9.099600 0.000000
-9.037500 0.000000
-8.975300 0.000000
-8.913200 0.000000
-8.851000 0.000000
-8.788900 0.000000
-8.726800 0.000000
-8.664600 0.000000
-8.602500 0.000000
-8.540300 0.000000
-8.478200 0.000000
-8.416100 0.000000
-8.353900 0.000000
-8.291800 0.000000
-8.229600 0.000000
-8.167500 0.000000
-8.105400 0.000000
-8.043200 0.000000
-7.981100 0.000000
-7.918900 0.000000
-7.856800 0.000000
-7.794700 0.000000
-7.732500 0.000000
-7.670400 0.000000
-7.608200 0.000000
-7.546100 0.000000
-7.484000 0.000000
-7.421800 0.000000
-7.359700 0.000000
-7.297500 0.024000
-7.235400 0.133400
-7.173300 0.258900
-7.111100 0.384400
-7.049000 0.509900
-6.986800 0.807300
-6.924700 0.989100
-6.862600 0.703900
-6.800400 0.651100
-6.738300 0.708300
-6.676100 0.765500
-6.614000 0.822700
-6.551900 0.879900
-6.489700 0.938400
-6.427600 1.005400
-6.365400 0.818200
-6.303300 0.911200
-6.241200 0.997600
-6.179000 0.421200
-6.116900 0.415000
-6.054700 0.408700
-5.992600 0.402500
-5.930500 0.396200
-5.868300 0.389900
-5.806200 0.383700
-5.744000 0.377400
-5.681900 0.371200
-5.619800 0.364900
-5.557600 0.356700
-5.495500 0.345900
-5.433300 0.335100
-5.371200 0.324300
-5.309100 0.313500
-5.246900 0.437200
-5.184800 0.436200
-5.122600 0.435200
-5.060500 0.434200
-4.998400 0.433300
-4.936200 0.432300
-4.874100 0.439300
-4.811900 0.447300
-4.749800 0.455300
-4.687700 0.463300
-4.625500 0.471300
-4.563400 0.480100
-4.501200 0.489100
-4.439100 0.498000
-4.377000 0.507000
-4.314800 0.514000
-4.252700 0.519900
-4.190500 0.534600
-4.128400 0.559500
-4.066300 0.604400
-4.004100 0.658600
-3.942000 0.671100
-3.879800 0.679600
-3.817700 0.694000
-3.755600 0.709700
-3.693400 0.725900
-3.631300 0.785000
-3.569100 0.915300
-3.507000 0.917400
-3.444900 0.924800
-3.382700 0.907900
-3.320600 0.878200
-3.258400 0.837000
-3.196300 0.789800
-3.134200 0.766500
-3.072000 0.808800
-3.009900 0.947700
-2.947700 0.998900
-2.885600 1.052800
-2.823500 1.098100
-2.761300 1.129400
-2.699200 1.161000
-2.637000 1.204400
-2.574900 1.214000
-2.512800 1.095800
-2.450600 0.956900
-2.388500 0.966800
-2.326300 0.913900
-2.264200 0.896500
-2.202100 0.894800
-2.139900 0.884500
-2.077800 0.883300
-2.015600 0.920700
-1.953500 0.972500
-1.891400 1.033500
-1.829200 1.381900
-1.767100 0.526600
-1.704900 0.567400
-1.642800 0.604500
-1.580700 0.639500
-1.518500 0.672500
-1.456400 0.706900
-1.394200 0.756800
-1.332100 0.831200
-1.270000 0.869800
-1.207800 0.900300
-1.145700 0.924100
-1.083500 0.930500
-1.021400 0.918700
-0.959300 0.882100
-0.897100 0.787000
-0.835000 0.768200
-0.772800 0.757700
-0.710700 0.748500
-0.648600 0.739900
-0.586400 0.731700
-0.524300 0.767500
-0.462100 0.750300
-0.400000 0.734200
-0.337900 0.719100
-0.275700 0.705000
-0.213600 0.691700
-0.151400 0.819700
-0.089300 0.782300
-0.027200 0.724500
0.035000 0.667500
0.097100 0.611300
0.159300 0.561100
0.221400 0.536900
0.283500 0.568500
0.345700 0.618300
0.407800 0.791600
0.470000 0.830000
0.532100 0.751200
0.594200 0.750100
0.656400 0.737300
0.718500 0.768300
0.780700 0.826300
0.842800 0.569100
0.904900 0.517800
0.967100 0.466300
1.029200 0.416800
1.091400 0.390600
1.153500 0.383500
1.215600 0.398600
1.277800 0.420100
1.339900 0.449300
1.402000 0.322500
1.464200 0.034900
1.526300 0.000000
1.588500 0.000000
1.650600 0.000000
1.712700 0.000000
1.774900 0.000000
1.837000 0.000000
1.899200 0.000000
1.961300 0.000000
2.023400 0.000000
2.085600 0.000000
2.147700 0.000000
2.209900 0.000000
2.272000 0.000000
2.334100 0.000000
2.396300 0.000000
2.458400 0.000000
2.520600 0.000000
2.582700 0.000000
2.644800 0.000000
2.707000 0.000000
2.769100 0.000000
2.831300 0.000000
2.893400 0.000000
2.955500 0.000000
3.017700 0.000000
3.079800 0.000000
3.142000 0.000000
3.204100 0.000000
3.266200 0.000000
3.328400 0.000000
3.390500 0.000000
3.452700 0.000000
3.514800 0.000000
3.576900 0.000000
3.639100 0.000000
3.701200 0.000000
3.763400 0.000000
3.825500 0.000000
3.887600 0.000000
3.949800 0.000000
4.011900 0.000000
4.074100 0.000000
4.136200 0.000000
4.198300 0.000000
4.260500 0.000000
4.322600 0.000000
4.384800 0.000000
4.446900 0.000000
4.509000 0.000000
4.571200 0.000000
4.633300 0.000000
4.695500 0.000000
4.757600 0.000000
4.819700 0.000000
4.881900 0.000000
4.944000 0.000000
5.006200 0.000000
5.068300 0.000000
5.130400 0.000000
5.192600 0.000000
5.254700 0.000000
5.316900 0.000000
5.379000 0.000000
5.441100 0.000000
5.503300 0.000000
5.565400 0.000000
5.627600 0.000000
5.689700 0.000000
5.751800 0.000000
5.814000 0.000000
5.876100 0.000000
5.938300 0.000000
6.000400 0.005600
6.062500 0.023900
6.124700 0.050500
6.186800 0.150900
6.249000 0.358900
6.311100 0.708800
6.373200 1.184900
6.435400 0.767100
6.497500 0.683300
6.559700 0.687100
6.621800 0.744100
6.683900 0.808000
6.746100 0.858800
6.808200 0.887200
6.870400 0.867400
6.932500 0.687900
6.994600 0.654300
7.056800 0.617000
7.118900 0.572800
7.181100 0.532500
7.243200 0.500800
7.305300 0.474700
7.367500 0.471800
7.429600 0.467900
7.491800 0.464600
7.553900 0.462000
7.616000 0.460500
7.678200 0.461000
7.740300 0.461900
7.802500 0.463000
7.864600 0.464300
7.926700 0.465700
7.988900 0.467800
8.051000 0.471300
8.113200 0.476200
8.175300 0.482700
8.237400 0.490600
8.299600 0.500900
8.361700 0.520700
8.423900 0.554800
8.486000 0.644700
8.548100 0.733300
8.610300 0.753200
8.672400 0.750700
8.734600 0.676300
8.796700 0.564100
8.858800 0.469600
8.921000 0.414600
8.983100 0.396400
9.045300 0.362000
9.107400 0.333200
9.169500 0.323400
9.231700 0.313300
9.293800 0.296300
9.356000 0.272500
9.418100 0.250500
9.480200 0.232700
9.542400 0.234200
9.604500 0.237500
9.666700 0.241200
9.728800 0.230500
9.790900 0.214800
9.853100 0.210200
9.915200 0.219200
9.977400 0.231200
10.039500 0.278600
10.101600 0.308400
10.163800 0.331900
10.225900 0.349000
10.288100 0.357900
10.350200 0.365600
10.412300 0.375200
10.474500 0.384800
10.536600 0.378700
10.598800 0.350100
10.660900 0.285100
10.723000 0.284200
10.785200 0.293600
10.847300 0.320300
10.909500 0.333000
10.971600 0.344100
11.033700 0.353700
11.095900 0.367100
11.158000 0.394000
11.220200 0.436300
11.282300 0.483200
11.344400 0.529800
11.406600 0.582700
11.468700 0.620400
11.530900 0.651600
11.593000 0.674200
11.655100 0.691600
11.717300 0.704100
11.779400 0.711900
11.841600 0.712300
11.903700 0.709600
11.965800 0.705100
12.028000 0.694900
12.090100 0.685300
12.152300 0.675900
12.214400 0.673600
12.276500 0.677800
12.338700 0.690200
12.400800 0.703500
12.463000 0.717000
12.525100 0.730800
12.587200 0.743000
12.649400 0.764900
12.711500 0.848200
12.773700 1.088900
12.835800 1.332700
12.897900 1.450500
12.960100 1.175000
13.022200 1.179900
13.084400 0.998600
13.146500 1.109800
13.208600 1.259700
13.270800 1.384500
13.332900 1.192300
13.395100 1.169700
13.457200 1.166400
13.519300 1.248800
13.581500 1.305500
13.643600 1.383400
13.705800 1.445000
13.767900 1.107500
13.830000 0.967100
13.892200 0.921700
13.954300 1.040000
14.016500 0.950200
14.078600 0.914000
14.140700 0.875200
14.202900 0.839900
14.265000 0.814500
14.327200 0.759900
14.389300 0.730100
14.451400 0.742300
14.513600 0.772700
14.575700 0.848900
14.637900 0.942300
14.700000 1.050600
14.762100 1.170100
14.824300 1.355900
14.886400 1.732700
14.948600 1.562000
15.010700 1.406600
15.072800 1.233500
15.135000 0.922900
15.197100 0.755000
15.259300 0.636900
15.321400 0.486100
15.383500 0.383400
15.445700 0.320900
15.507800 0.302400
15.570000 0.292600
15.632100 0.298400
15.694200 0.336500
15.756400 0.387700
15.818500 0.448400
15.880700 0.520900
15.942800 0.642000
16.004900 0.732800
16.067100 0.830000
16.129200 1.106100
16.191400 1.266400
16.253500 1.374500
16.315600 1.362900
16.377800 1.275200
16.439900 1.307300
16.502100 1.502700
16.564200 1.145600
16.626300 1.129200
16.688500 1.163700
16.750600 1.118100
16.812800 1.083100
16.874900 1.051700
16.937000 0.989600
16.999200 0.914500
17.061300 0.838100
17.123500 0.770400
17.185600 0.715300
17.247700 0.665600
17.309900 0.621800
17.372000 0.604800
17.434200 0.588100
17.496300 0.571500
17.558400 0.552900
17.620600 0.532500
17.682700 0.512700
17.744900 0.495200
17.807000 0.506100
17.869100 0.445400
17.931300 0.430100
17.993400 0.455200
18.055600 0.522800
18.117700 0.605600
18.179800 0.648300
18.242000 0.659800
18.304100 0.657800
18.366300 0.664200
18.428400 0.668700
18.490500 0.671100
18.552700 0.672900
18.614800 0.673600
18.677000 0.672800
18.739100 0.668600
18.801200 0.663800
18.863400 0.675400
18.925500 0.722700
18.987700 0.768900
19.049800 0.860200
19.111900 1.008600
19.174100 1.027200
19.236200 0.960000
19.298400 0.843500
19.360500 0.722400
19.422600 0.645800
19.484800 0.599600
19.546900 0.587500
19.609100 0.591200
19.671200 0.588000
19.733300 0.584800
19.795500 0.587600
19.857600 0.592900
19.919800 0.603000
19.981900 0.607400
20.044000 0.644800
20.106200 0.556200
20.168300 0.539700
20.230500 0.535300
20.292600 0.538300
20.354700 0.543700
20.416900 0.547900
20.479000 0.558300
20.541200 0.556400
20.603300 0.534300
20.665400 0.511000
20.727600 0.520900
20.789700 0.588000
20.851900 0.776300
20.914000 0.853600
20.976100 0.827100
21.038300 0.862700
21.100400 0.911900
21.162600 0.998100
21.224700 1.118100
21.286800 1.222700
21.349000 1.272200
21.411100 1.301700
21.473300 1.322300
21.535400 1.219900
21.597500 1.157900
21.659700 1.127700
21.721800 1.224100
21.784000 1.203900
21.846100 1.112400
21.908200 1.005000
21.970400 0.904300
22.032500 0.864700
22.094700 0.836000
22.156800 0.810200
22.218900 0.783300
22.281100 0.754600
22.343200 0.723800
22.405400 0.699000
22.467500 0.703600
22.529600 0.689900
22.591800 0.673500
22.653900 0.648000
22.716100 0.623800
22.778200 0.610900
22.840300 0.596500
22.902500 0.584300
22.964600 0.593000
23.026800 0.600300
23.088900 0.595800
23.151000 0.597200
23.213200 0.601400
23.275300 0.606900
23.337500 0.622900
23.399600 0.643100
23.461700 0.681100
23.523900 0.733100
23.586000 0.775800
23.648200 0.844000
23.710300 0.945700
23.772400 1.076400
23.834600 1.239400
23.896700 1.439800
23.958900 0.970400
24.021000 0.800900
24.083100 0.719900
24.145300 0.666500
24.207400 0.627100
24.269600 0.597100
24.331700 0.571900
24.393800 0.574500
24.456000 0.597600
24.518100 0.631700
24.580300 0.652300
24.642400 0.774900
24.704500 0.741100
24.766700 0.712000
24.828800 0.707200
24.891000 0.702600
24.953100 0.701800
25.015200 0.701900
25.077400 0.702500
25.139500 0.703700
25.201700 0.706900
25.263800 0.711000
25.325900 0.707400
25.388100 0.712000
25.450200 0.718600
25.512400 0.732400
25.574500 0.763200
25.636600 0.794400
25.698800 0.822500
25.760900 0.835300
25.823100 0.841800
25.885200 0.841800
25.947300 0.835100
26.009500 0.822200
26.071600 0.808600
26.133800 0.807500
26.195900 0.816300
26.258000 0.840400
26.320200 0.880800
26.382300 1.027800
26.444500 1.153700
26.506600 0.981300
26.568700 0.927300
26.630900 0.880300
26.693000 0.841300
26.755200 0.809700
26.817300 0.770200
26.879400 0.736300
26.941600 0.729200
27.003700 0.743300
27.065900 0.771600
27.128000 0.812100
27.190100 0.778300
27.252300 0.718000
27.314400 0.696300
27.376600 0.661100
27.438700 0.638800
27.500800 0.615500
27.563000 0.580700
27.625100 0.514700
27.687300 0.499000
27.749400 0.505500
27.811500 0.515600
27.873700 0.529200
27.935800 0.591000
27.998000 0.755800
28.060100 0.984800
28.122200 1.224600
28.184400 1.210500
28.246500 1.254800
28.308700 1.205500
28.370800 1.166000
28.432900 1.156600
28.495100 1.101700
28.557200 1.068300
28.619400 1.098100
28.681500 1.137200
28.743600 1.181800
28.805800 1.203300
28.867900 1.383500
28.930100 2.727800
28.992200 1.083600
29.054300 0.892200
29.116500 0.871500
29.178600 0.851600
29.240800 0.848800
29.302900 0.876000
29.365000 0.929500
29.427200 1.025100
29.489300 0.973500
29.551500 1.019500
29.613600 1.096900
29.675700 1.203800
29.737900 1.048900
29.800000 0.991900
29.862200 0.939900
29.924300 0.904700
29.986400 0.924400
30.048600 0.947000
30.110700 0.928300
30.172900 0.842300
30.235000 0.795100
30.297100 0.764700
30.359300 0.741300
30.421400 0.759000
30.483600 0.778600
30.545700 0.814400
30.607800 0.866700
30.670000 0.888200
30.732100 0.875800
30.794300 0.873000
30.856400 0.871200
30.918500 0.864400
30.980700 0.851800
31.042800 0.837100
31.105000 0.821600
31.167100 0.806400
31.229200 0.799100
31.291400 0.798000
31.353500 0.797900
31.415700 0.797800
31.477800 0.799300
31.539900 0.817000
31.602100 0.848100
31.664200 0.862800
31.726400 0.878300
31.788500 0.986500
31.850600 0.978900
31.912800 0.997300
31.974900 1.004000
32.037100 0.987700
32.099200 1.005900
32.161300 1.015700
32.223500 1.007800
32.285600 0.985400
32.347800 0.946900
32.409900 0.905700
32.472000 0.945700
32.534200 1.047300
32.596300 1.020200
32.658500 0.945100
32.720600 0.904600
32.782700 0.866900
32.844900 0.840600
32.907000 0.844700
32.969200 0.893600
33.031300 0.877000
33.093400 0.857100
33.155600 0.855100
33.217700 0.887300
33.279800 0.877000
33.342000 0.961900
33.404100 1.109500
33.466300 1.331600
33.528400 1.401500
33.590500 1.363100
33.652700 1.252600
33.714800 1.162200
33.777000 1.080800
33.839100 0.980300
33.901200 0.919500
33.963400 0.860200
34.025500 0.802000
34.087700 0.750700
34.149800 0.710600
34.211900 0.671700
34.274100 0.634800
34.336200 0.580100
34.398400 0.553500
34.460500 0.546600
34.522600 0.535900
34.584800 0.517200
34.646900 0.490700
34.709100 0.466700
34.771200 0.459800
34.833300 0.451900
34.895500 0.453100
34.957600 0.461800
35.019800 0.476000
35.081900 0.493700
35.144000 0.513200
35.206200 0.534400
35.268300 0.561200
35.330500 0.604400
35.392600 0.655900
35.454700 0.680700
35.516900 0.683200
35.579000 0.683200
35.641200 0.701000
35.703300 0.723200
35.765400 0.752300
35.827600 0.812700
35.889700 0.910200
35.951900 0.895100
36.014000 0.868800
36.076100 0.843700
36.138300 0.841100
36.200400 0.844500
36.262600 0.853800
36.324700 0.855800
36.386800 0.867300
36.449000 0.845100
36.511100 0.783900
36.573300 0.761400
36.635400 0.740600
36.697500 0.717300
36.759700 0.693300
36.821800 0.690400
36.884000 0.721100
36.946100 0.731700
37.008200 0.730000
37.070400 0.736800
37.132500 0.739200
37.194700 0.726900
37.256800 0.694900
37.318900 0.675900
37.381100 0.679400
37.443200 0.644500
37.505400 0.611500
37.567500 0.596800
37.629600 0.599200
37.691800 0.585800
37.753900 0.569700
37.816100 0.564400
37.878200 0.568400
37.940300 0.580300
38.002500 0.598600
38.064600 0.623500
38.126800 0.656100
38.188900 0.675300
38.251000 0.694100
38.313200 0.759500
38.375300 0.826800
38.437500 0.777500
38.499600 0.737100
38.561700 0.681600
38.623900 0.643000
38.686000 0.622100
38.748200 0.604000
38.810300 0.589700
38.872400 0.582900
38.934600 0.588900
38.996700 0.603000
39.058900 0.618400
39.121000 0.641100
39.183100 0.674800
39.245300 0.707500
39.307400 0.735700
39.369600 0.771800
39.431700 0.842600
39.493800 0.978700
39.556000 1.026000
39.618100 1.043100
39.680300 1.045600
39.742400 1.064900
39.804500 1.061900
39.866700 1.034100
39.928800 0.996200
39.991000 0.977500
40.053100 0.971000
40.115200 0.985600
40.177400 1.009800
40.239500 1.110000
40.301700 1.107800
40.363800 1.090400
40.425900 1.090400
40.488100 1.108300
40.550200 1.129600
40.612400 1.125700
40.674500 1.114900
40.736600 1.107600
40.798800 0.980400
40.860900 0.954400
40.923100 0.935000
40.985200 0.935100
41.047300 0.934400
41.109500 0.922100
41.171600 0.897900
41.233800 0.874300
41.295900 0.852400
41.358000 0.836000
41.420200 0.826200
41.482300 0.825200
41.544500 0.848300
41.606600 0.852700
41.668700 0.845700
41.730900 0.839800
41.793000 0.840800
41.855200 0.844800
41.917300 0.850100
41.979400 0.858100
42.041600 0.895300
42.103700 1.000900
42.165900 0.966900
42.228000 0.925100
42.290100 0.918700
42.352300 0.939900
42.414400 0.960200
42.476600 0.969500
42.538700 0.976700
