set title 'mp-1017981 - Density of States'
set xlabel 'Energy (eV)'
set ylabel 'DOS (states/eV)'
set grid
set xrange [-10:10]
set yrange [0:22.694]
set xzeroaxis lt -1
set terminal png size 800,600
set output 'mp-1017981_dos_gnuplot.png'
plot '-' using 1:2 with lines title 'DOS'
-10.137600 0.000000
-10.093800 0.000000
-10.050000 0.000000
-10.006200 0.000000
-9.962400 0.000000
-9.918600 0.000000
-9.874800 0.000000
-9.831000 0.000000
-9.787200 0.000000
-9.743400 0.000000
-9.699600 0.000000
-9.655800 0.000000
-9.612000 0.000000
-9.568200 0.000000
-9.524400 0.000000
-9.480600 0.000000
-9.436800 0.000000
-9.393000 0.000000
-9.349200 0.000000
-9.305400 0.000000
-9.261600 0.000000
-9.217800 0.000000
-9.174000 0.000000
-9.130300 0.000000
-9.086500 0.000000
-9.042700 0.000000
-8.998900 0.000000
-8.955100 0.000000
-8.911300 0.000000
-8.867500 0.000000
-8.823700 0.000000
-8.779900 0.000000
-8.736100 0.000000
-8.692300 0.000000
-8.648500 0.000000
-8.604700 0.000000
-8.560900 0.000000
-8.517100 0.000000
-8.473300 0.000000
-8.429500 0.000000
-8.385700 0.000000
-8.341900 0.000000
-8.298100 0.000000
-8.254300 0.000000
-8.210500 0.000000
-8.166700 0.000000
-8.122900 0.000000
-8.079100 0.000000
-8.035300 0.000000
-7.991500 0.000000
-7.947700 0.000000
-7.903900 0.000000
-7.860100 0.000000
-7.816300 0.000000
-7.772500 0.000000
-7.728700 0.000000
-7.684900 0.000000
-7.641100 0.000000
-7.597300 0.000000
-7.553500 0.000000
-7.509700 0.000000
-7.465900 0.000000
-7.422100 0.000000
-7.378400 0.000000
-7.334600 0.000000
-7.290800 0.000000
-7.247000 0.000000
-7.203200 0.000000
-7.159400 0.000000
-7.115600 0.000000
-7.071800 0.000000
-7.028000 0.000000
-6.984200 0.000000
-6.940400 0.000000
-6.896600 0.000000
-6.852800 0.000000
-6.809000 0.000000
-6.765200 0.000000
-6.721400 0.000000
-6.677600 0.000000
-6.633800 0.000000
-6.590000 0.000000
-6.546200 0.000000
-6.502400 0.000000
-6.458600 0.000000
-6.414800 0.000000
-6.371000 0.000000
-6.327200 0.000000
-6.283400 0.000000
-6.239600 0.000000
-6.195800 0.000000
-6.152000 0.000100
-6.108200 0.010800
-6.064400 0.039500
-6.020600 0.055200
-5.976800 0.070900
-5.933000 0.088900
-5.889200 0.105000
-5.845400 0.127000
-5.801600 1.135500
-5.757800 2.579500
-5.714000 4.449700
-5.670200 11.633600
-5.626500 12.481000
-5.582700 12.982400
-5.538900 10.318400
-5.495100 10.064300
-5.451300 9.384400
-5.407500 11.203000
-5.363700 5.586900
-5.319900 2.594800
-5.276100 2.121300
-5.232300 3.605100
-5.188500 5.046900
-5.144700 6.928000
-5.100900 7.228300
-5.057100 8.307600
-5.013300 9.201100
-4.969500 14.308900
-4.925700 19.152000
-4.881900 20.630700
-4.838100 8.507600
-4.794300 5.820700
-4.750500 5.281900
-4.706700 5.403500
-4.662900 5.312300
-4.619100 5.374600
-4.575300 4.767400
-4.531500 2.100200
-4.487700 0.228500
-4.443900 0.224200
-4.400100 0.220200
-4.356300 0.216500
-4.312500 0.216600
-4.268700 0.217400
-4.224900 0.219200
-4.181100 0.222000
-4.137300 0.225200
-4.093500 0.228500
-4.049700 0.230400
-4.005900 0.230600
-3.962100 0.230500
-3.918300 0.230900
-3.874600 0.232500
-3.830800 0.234200
-3.787000 0.235900
-3.743200 0.238900
-3.699400 0.241300
-3.655600 0.243700
-3.611800 0.246300
-3.568000 0.249200
-3.524200 0.252100
-3.480400 0.255100
-3.436600 0.258100
-3.392800 0.260300
-3.349000 0.263000
-3.305200 0.265400
-3.261400 0.267000
-3.217600 0.269100
-3.173800 0.271400
-3.130000 0.273800
-3.086200 0.276200
-3.042400 0.278700
-2.998600 0.281300
-2.954800 0.284000
-2.911000 0.286700
-2.867200 0.289400
-2.823400 0.292100
-2.779600 0.294700
-2.735800 0.297900
-2.692000 0.300800
-2.648200 0.303600
-2.604400 0.306600
-2.560600 0.309600
-2.516800 0.312800
-2.473000 0.315700
-2.429200 0.318600
-2.385400 0.321500
-2.341600 0.324400
-2.297800 0.327400
-2.254000 0.330400
-2.210200 0.333600
-2.166400 0.337100
-2.122700 0.340700
-2.078900 0.344500
-2.035100 0.348400
-1.991300 0.352400
-1.947500 0.356500
-1.903700 0.360300
-1.859900 0.364400
-1.816100 0.368600
-1.772300 0.372800
-1.728500 0.377200
-1.684700 0.381700
-1.640900 0.386400
-1.597100 0.391300
-1.553300 0.397600
-1.509500 0.404400
-1.465700 0.411900
-1.421900 0.420000
-1.378100 0.428600
-1.334300 0.437900
-1.290500 0.448000
-1.246700 0.459000
-1.202900 0.471100
-1.159100 0.484400
-1.115300 0.499000
-1.071500 0.514900
-1.027700 0.532700
-0.983900 0.561500
-0.940100 0.592000
-0.896300 0.623100
-0.852500 0.664500
-0.808700 0.677000
-0.764900 0.680100
-0.721100 0.689200
-0.677300 0.699200
-0.633500 0.703100
-0.589700 0.727900
-0.545900 0.721800
-0.502100 0.677000
-0.458300 0.658600
-0.414500 0.641700
-0.370800 0.629500
-0.327000 0.608400
-0.283200 0.626200
-0.239400 0.673600
-0.195600 0.439500
-0.151800 0.354600
-0.108000 0.270300
-0.064200 0.244400
-0.020400 0.227600
0.023400 0.220300
0.067200 0.215700
0.111000 0.202300
0.154800 0.173300
0.198600 0.163200
0.242400 0.153600
0.286200 0.144500
0.330000 0.135900
0.373800 0.127800
0.417600 0.120300
0.461400 0.113200
0.505200 0.106800
0.549000 0.101800
0.592800 0.099100
0.636600 0.098300
0.680400 0.098700
0.724200 0.089700
0.768000 0.090500
0.811800 0.095300
0.855600 0.101900
0.899400 0.110200
0.943200 0.120400
0.987000 0.132300
1.030800 0.143300
1.074600 0.151300
1.118400 0.155900
1.162200 0.161100
1.206000 0.166800
1.249800 0.172900
1.293600 0.201600
1.337400 0.227200
1.381100 0.214100
1.424900 0.220700
1.468700 0.228400
1.512500 0.248900
1.556300 0.250300
1.600100 0.257100
1.643900 0.263400
1.687700 0.269200
1.731500 0.274600
1.775300 0.281200
1.819100 0.288600
1.862900 0.296900
1.906700 0.305600
1.950500 0.314700
1.994300 0.324900
2.038100 0.340300
2.081900 0.361600
2.125700 0.380900
2.169500 0.388200
2.213300 0.400000
2.257100 0.417000
2.300900 0.435100
2.344700 0.446800
2.388500 0.466400
2.432300 0.497800
2.476100 0.525900
2.519900 0.552200
2.563700 0.576500
2.607500 0.598700
2.651300 0.619000
2.695100 0.636200
2.738900 0.692400
2.782700 0.653200
2.826500 0.641100
2.870300 0.637000
2.914100 0.624900
2.957900 0.609600
3.001700 0.606900
3.045500 0.564000
3.089300 0.539200
3.133000 0.497700
3.176800 0.478000
3.220600 0.470500
3.264400 0.463700
3.308200 0.457100
3.352000 0.450700
3.395800 0.444500
3.439600 0.438400
3.483400 0.432600
3.527200 0.427600
3.571000 0.421700
3.614800 0.425100
3.658600 0.426400
3.702400 0.424300
3.746200 0.422700
3.790000 0.416700
3.833800 0.414500
3.877600 0.413300
3.921400 0.419600
3.965200 0.444200
4.009000 0.453900
4.052800 0.461600
4.096600 0.459600
4.140400 0.462600
4.184200 0.465200
4.228000 0.467700
4.271800 0.469900
4.315600 0.484500
4.359400 0.482200
4.403200 0.486400
4.447000 0.485300
4.490800 0.485200
4.534600 0.485400
4.578400 0.491800
4.622200 0.500700
4.666000 0.510200
4.709800 0.520200
4.753600 0.526200
4.797400 0.544300
4.841200 0.548500
4.884900 0.543800
4.928700 0.548900
4.972500 0.551100
5.016300 0.551800
5.060100 0.551900
5.103900 0.564100
5.147700 0.542800
5.191500 0.547800
5.235300 0.547900
5.279100 0.547500
5.322900 0.549800
5.366700 0.553900
5.410500 0.557500
5.454300 0.560500
5.498100 0.561800
5.541900 0.561600
5.585700 0.557500
5.629500 0.557100
5.673300 0.556400
5.717100 0.563000
5.760900 0.561300
5.804700 0.560200
5.848500 0.562100
5.892300 0.555500
5.936100 0.554400
5.979900 0.558500
6.023700 0.557200
6.067500 0.557000
6.111300 0.558300
6.155100 0.560200
6.198900 0.562100
6.242700 0.562500
6.286500 0.560900
6.330300 0.559100
6.374100 0.557100
6.417900 0.555300
6.461700 0.554100
6.505500 0.553700
6.549300 0.553900
6.593100 0.554900
6.636800 0.556200
6.680600 0.559900
6.724400 0.564900
6.768200 0.574400
6.812000 0.574500
6.855800 0.572900
6.899600 0.574400
6.943400 0.576700
6.987200 0.581100
7.031000 0.588200
7.074800 0.579100
7.118600 0.578300
7.162400 0.577600
7.206200 0.574800
7.250000 0.576600
7.293800 0.576000
7.337600 0.575800
7.381400 0.576000
7.425200 0.576600
7.469000 0.577100
7.512800 0.577500
7.556600 0.578300
7.600400 0.578800
7.644200 0.579300
7.688000 0.580500
7.731800 0.581700
7.775600 0.582700
7.819400 0.609300
7.863200 0.607200
7.907000 0.601400
7.950800 0.607500
7.994600 0.612500
8.038400 0.615000
8.082200 0.615800
8.126000 0.615100
8.169800 0.610900
8.213600 0.609900
8.257400 0.611900
8.301200 0.613700
8.345000 0.615300
8.388700 0.616400
8.432500 0.617600
8.476300 0.619200
8.520100 0.620900
8.563900 0.623000
8.607700 0.625400
8.651500 0.634000
8.695300 0.642900
8.739100 0.651000
8.782900 0.660300
8.826700 0.659900
8.870500 0.661400
8.914300 0.664300
8.958100 0.666900
9.001900 0.670300
9.045700 0.676500
9.089500 0.677100
9.133300 0.659700
9.177100 0.661200
9.220900 0.647800
9.264700 0.644000
9.308500 0.641400
9.352300 0.640000
9.396100 0.639800
9.439900 0.642400
9.483700 0.648100
9.527500 0.655000
9.571300 0.663900
9.615100 0.674200
9.658900 0.686200
9.702700 0.701200
9.746500 0.716800
9.790300 0.731500
9.834100 0.756200
9.877900 0.778300
9.921700 0.807500
9.965500 0.858100
10.009300 0.910500
10.053100 1.003100
10.096900 1.102700
10.140600 1.124600
10.184400 1.152900
10.228200 1.113200
10.272000 1.048000
10.315800 1.007300
10.359600 0.989000
10.403400 0.979400
10.447200 0.969500
10.491000 0.982800
10.534800 0.989600
10.578600 0.958500
10.622400 0.941700
10.666200 0.931100
10.710000 0.909300
10.753800 0.883900
10.797600 0.854700
10.841400 0.821500
10.885200 0.792200
10.929000 0.772700
10.972800 0.716500
11.016600 0.653600
11.060400 0.603800
11.104200 0.516600
11.148000 0.489400
11.191800 0.479000
11.235600 0.469300
11.279400 0.460100
11.323200 0.451700
11.367000 0.441200
11.410800 0.433700
11.454600 0.427000
11.498400 0.420800
11.542200 0.414700
11.586000 0.408600
11.629800 0.411100
11.673600 0.413600
11.717400 0.415000
11.761200 0.399300
11.805000 0.383800
11.848800 0.374100
11.892500 0.368800
11.936300 0.365900
11.980100 0.362500
12.023900 0.359700
12.067700 0.357400
12.111500 0.355000
12.155300 0.353000
12.199100 0.351700
12.242900 0.350700
12.286700 0.350200
12.330500 0.350200
12.374300 0.350500
12.418100 0.351300
12.461900 0.353400
12.505700 0.359700
12.549500 0.346500
12.593300 0.338800
12.637100 0.336300
12.680900 0.336300
12.724700 0.336300
12.768500 0.336300
12.812300 0.340100
12.856100 0.336200
12.899900 0.337400
12.943700 0.335900
12.987500 0.335700
13.031300 0.336300
13.075100 0.337700
13.118900 0.337200
13.162700 0.339000
13.206500 0.341100
13.250300 0.345400
13.294100 0.352500
13.337900 0.356100
13.381700 0.356000
13.425500 0.359500
13.469300 0.367300
13.513100 0.381100
13.556900 0.399000
13.600700 0.420800
13.644400 0.446600
13.688200 0.476300
13.732000 0.509900
13.775800 0.547500
13.819600 0.589300
13.863400 0.638100
13.907200 0.744400
13.951000 0.816300
13.994800 0.935300
14.038600 1.050900
14.082400 1.169500
14.126200 1.235000
14.170000 1.149300
14.213800 1.067400
14.257600 1.010400
14.301400 0.954400
14.345200 0.893200
14.389000 0.834200
14.432800 0.777400
14.476600 0.727500
14.520400 0.695200
14.564200 0.672800
14.608000 0.657200
14.651800 0.647900
14.695600 0.643100
14.739400 0.641900
14.783200 0.644000
14.827000 0.647100
14.870800 0.653600
14.914600 0.666700
14.958400 0.707500
15.002200 0.864900
15.046000 0.806100
15.089800 0.857900
15.133600 0.981800
15.177400 1.170000
15.221200 1.362000
15.265000 1.492100
15.308800 1.489900
15.352500 1.540500
15.396300 1.549700
15.440100 1.596300
15.483900 1.412700
15.527700 1.484200
15.571500 1.416200
15.615300 1.402200
15.659100 1.376900
15.702900 1.329800
15.746700 1.295800
15.790500 1.240800
15.834300 1.185500
15.878100 1.159400
15.921900 1.138400
15.965700 1.112700
16.009500 1.091000
16.053300 1.072200
16.097100 1.059800
16.140900 1.035600
16.184700 1.034200
16.228500 1.046900
16.272300 1.053000
16.316100 1.071900
16.359900 1.081600
16.403700 1.088600
16.447500 1.060700
16.491300 1.048300
16.535100 1.033400
16.578900 1.021900
16.622700 1.015500
16.666500 1.013800
16.710300 1.013000
16.754100 1.012100
16.797900 1.032100
16.841700 1.043800
16.885500 1.078100
16.929300 1.062300
16.973100 1.031400
17.016900 0.959500
17.060700 0.943100
17.104400 0.928300
17.148200 0.914600
17.192000 0.902100
17.235800 0.890100
17.279600 0.879900
17.323400 0.921700
17.367200 0.936800
17.411000 0.940900
17.454800 0.944100
17.498600 0.945700
17.542400 0.921400
17.586200 0.913400
17.630000 0.913800
17.673800 0.918200
17.717600 0.906500
17.761400 0.896800
17.805200 0.886400
17.849000 0.871700
17.892800 0.860900
17.936600 0.849400
17.980400 0.837800
18.024200 0.826100
18.068000 0.813600
18.111800 0.801100
18.155600 0.789800
18.199400 0.780200
18.243200 0.762300
18.287000 0.748100
18.330800 0.737300
18.374600 0.727000
18.418400 0.722100
18.462200 0.719500
18.506000 0.725700
18.549800 0.733500
18.593600 0.731800
18.637400 0.733300
18.681200 0.743100
18.725000 0.739000
18.768800 0.728800
18.812600 0.739300
18.856300 0.759100
18.900100 0.772100
18.943900 0.784700
18.987700 0.805300
19.031500 0.832100
19.075300 0.867800
19.119100 0.904600
19.162900 0.878700
19.206700 0.898800
19.250500 0.928100
19.294300 0.970200
19.338100 1.035900
19.381900 1.095900
19.425700 1.155200
19.469500 1.219600
19.513300 1.274700
19.557100 1.337100
19.600900 1.371500
19.644700 1.400800
19.688500 1.456300
19.732300 1.458100
19.776100 1.500600
19.819900 1.529100
19.863700 1.539400
19.907500 1.539600
19.951300 1.516600
19.995100 1.519200
20.038900 1.523800
20.082700 1.519700
20.126500 1.498300
20.170300 1.488900
20.214100 1.430300
20.257900 1.424600
20.301700 1.406400
20.345500 1.358700
20.389300 1.308400
20.433100 1.231300
20.476900 1.159600
20.520700 1.100700
20.564500 1.062400
20.608200 1.008400
20.652000 0.977000
20.695800 0.957100
20.739600 0.951900
20.783400 0.957600
20.827200 0.970300
20.871000 0.991100
20.914800 0.957400
20.958600 0.928000
21.002400 0.937400
21.046200 0.960200
21.090000 0.968900
21.133800 0.981200
21.177600 1.017200
21.221400 1.012300
21.265200 1.026400
21.309000 1.024100
21.352800 1.025700
21.396600 1.019300
21.440400 1.017400
21.484200 1.004500
21.528000 0.982200
21.571800 0.953000
21.615600 0.944900
21.659400 0.959600
21.703200 0.948300
21.747000 0.934600
21.790800 0.921000
21.834600 0.910600
21.878400 0.908800
21.922200 0.897700
21.966000 0.895700
22.009800 0.901600
22.053600 0.900900
22.097400 0.915900
22.141200 0.886100
22.185000 0.878600
22.228800 0.875500
22.272600 0.880400
22.316400 0.857800
22.360100 0.838900
22.403900 0.829800
22.447700 0.829800
22.491500 0.829900
22.535300 0.838500
22.579100 0.845400
22.622900 0.855800
22.666700 0.857100
22.710500 0.867300
22.754300 0.891400
22.798100 0.907500
22.841900 0.926600
22.885700 0.916900
22.929500 0.907100
22.973300 0.923800
23.017100 0.945600
23.060900 0.973000
23.104700 0.997400
23.148500 1.018000
23.192300 1.039200
23.236100 1.055700
23.279900 1.072600
23.323700 1.090100
23.367500 1.127300
23.411300 1.129300
23.455100 1.123000
23.498900 1.109600
23.542700 1.116400
23.586500 1.067900
23.630300 1.050500
23.674100 1.039400
23.717900 1.030400
23.761700 1.022900
23.805500 1.023000
23.849300 1.020800
23.893100 1.022300
23.936900 1.033400
23.980700 1.053300
24.024500 1.066500
24.068300 1.011400
24.112000 0.988800
24.155800 0.967700
24.199600 0.941500
24.243400 0.931400
24.287200 0.923000
24.331000 0.917700
24.374800 0.916700
24.418600 0.918700
24.462400 0.926800
24.506200 0.937600
24.550000 0.941500
24.593800 0.948500
24.637600 0.956100
24.681400 0.960100
24.725200 0.968000
24.769000 0.980100
24.812800 1.008300
24.856600 1.020000
24.900400 1.029600
24.944200 1.063000
24.988000 1.090500
25.031800 1.107100
25.075600 1.103700
25.119400 1.118400
25.163200 1.129900
25.207000 1.157500
25.250800 1.170300
25.294600 1.151100
25.338400 1.130400
25.382200 1.139500
25.426000 1.153200
25.469800 1.180800
25.513600 1.244900
25.557400 1.337200
25.601200 1.365800
25.645000 1.344800
25.688800 1.336900
25.732600 1.325200
25.776400 1.305600
25.820200 1.300400
25.863900 1.326000
25.907700 1.342900
25.951500 1.333800
25.995300 1.329500
26.039100 1.322300
26.082900 1.323300
26.126700 1.330100
26.170500 1.331800
26.214300 1.339300
26.258100 1.320700
26.301900 1.310000
26.345700 1.302500
26.389500 1.290100
26.433300 1.287800
26.477100 1.282500
26.520900 1.274700
26.564700 1.268300
26.608500 1.258400
26.652300 1.237100
26.696100 1.234900
26.739900 1.238700
26.783700 1.238000
26.827500 1.241800
26.871300 1.261100
26.915100 1.284300
26.958900 1.299800
27.002700 1.316800
27.046500 1.329600
27.090300 1.337700
27.134100 1.358500
27.177900 1.365000
27.221700 1.360500
27.265500 1.347700
27.309300 1.335100
27.353100 1.315400
27.396900 1.302900
27.440700 1.279400
27.484500 1.272100
27.528300 1.273700
27.572100 1.288700
27.615800 1.305600
27.659600 1.287900
27.703400 1.265400
27.747200 1.232800
27.791000 1.230300
27.834800 1.224800
27.878600 1.236200
27.922400 1.242700
27.966200 1.246400
28.010000 1.268100
28.053800 1.285700
28.097600 1.363700
28.141400 1.337800
28.185200 1.356500
28.229000 1.398900
28.272800 1.464900
28.316600 1.547600
28.360400 1.643400
28.404200 1.760600
28.448000 1.894500
28.491800 2.010800
28.535600 2.211000
28.579400 2.284200
28.623200 2.272200
28.667000 1.979800
28.710800 1.638400
28.754600 1.577800
28.798400 1.542500
28.842200 1.523200
28.886000 1.496500
28.929800 1.475200
28.973600 1.343500
29.017400 1.274600
29.061200 1.238400
29.105000 1.216800
29.148800 1.216500
29.192600 1.190900
29.236400 1.187400
29.280200 1.187700
29.324000 1.193400
29.367700 1.200400
29.411500 1.202200
29.455300 1.205600
29.499100 1.149800
29.542900 1.150500
29.586700 1.161400
29.630500 1.193600
29.674300 1.203600
29.718100 1.226600
29.761900 1.281700
29.805700 1.355400
29.849500 1.386200
29.893300 1.407300
29.937100 1.404700
29.980900 1.373400
30.024700 1.330100
30.068500 1.252600
30.112300 1.180500
30.156100 1.131400
30.199900 1.114900
30.243700 1.129300
30.287500 1.123900
30.331300 1.108400
30.375100 1.057400
30.418900 1.094300
30.462700 1.151900
30.506500 1.184400
30.550300 1.174100
30.594100 1.131600
30.637900 1.126200
30.681700 1.122200
30.725500 1.122100
30.769300 1.130500
30.813100 1.114500
30.856900 1.097000
30.900700 1.063200
30.944500 1.026500
30.988300 1.000000
31.032100 0.979600
31.075900 0.981300
31.119600 0.983600
31.163400 1.007100
31.207200 1.016300
31.251000 1.024200
31.294800 1.035700
31.338600 1.044000
31.382400 1.049200
31.426200 1.061800
31.470000 1.074500
31.513800 1.084100
31.557600 1.084100
31.601400 1.094900
31.645200 1.108000
31.689000 1.121700
31.732800 1.131700
31.776600 1.145700
31.820400 1.159400
31.864200 1.169100
31.908000 1.181500
31.951800 1.198600
31.995600 1.215000
32.039400 1.231600
32.083200 1.250700
32.127000 1.260800
32.170800 1.264900
32.214600 1.255400
32.258400 1.154400
32.302200 1.137500
32.346000 1.136400
32.389800 1.133700
32.433600 1.193700
32.477400 1.142200
32.521200 1.147600
32.565000 1.148300
32.608800 1.135700
32.652600 1.135000
32.696400 1.135500
32.740200 1.151600
32.784000 1.168600
32.827800 1.245600
32.871500 1.223300
32.915300 1.156000
32.959100 1.125800
33.002900 1.102300
33.046700 1.078700
33.090500 1.071300
33.134300 1.211600
33.178100 1.303900
33.221900 1.163400
33.265700 1.044000
33.309500 1.026900
33.353300 1.030800
33.397100 1.046500
33.440900 1.068800
33.484700 1.110500
33.528500 1.200000
33.572300 1.193000
33.616100 1.138100
33.659900 1.089400
33.703700 1.076100
33.747500 1.064200
33.791300 1.395800
33.835100 1.079000
33.878900 1.080000
33.922700 1.083500
33.966500 1.093800
34.010300 1.103000
34.054100 1.126400
34.097900 1.129800
34.141700 1.163200
34.185500 1.201600
34.229300 1.237900
34.273100 1.272800
34.316900 1.291700
34.360700 1.357700
34.404500 1.296600
34.448300 1.276500
34.492100 1.261400
34.535900 1.243000
34.579700 1.218200
34.623400 1.205300
34.667200 1.209300
34.711000 1.199600
34.754800 1.183500
34.798600 1.184400
34.842400 1.186200
34.886200 1.186400
34.930000 1.182200
34.973800 1.181200
35.017600 1.182800
35.061400 1.184900
35.105200 1.206000
35.149000 1.237900
35.192800 1.272500
35.236600 1.323700
35.280400 1.438100
35.324200 1.466600
35.368000 1.453600
35.411800 1.425900
35.455600 1.386900
35.499400 1.370500
35.543200 1.373500
35.587000 1.387000
35.630800 1.412600
35.674600 1.449600
35.718400 1.577400
35.762200 1.688900
