set title 'mp-1228933 - Density of States'
set xlabel 'Energy (eV)'
set ylabel 'DOS (states/eV)'
set grid
set xrange [-10:10]
set yrange [0:13.524]
set xzeroaxis lt -1
set terminal png size 800,600
set output 'mp-1228933_dos_gnuplot.png'
plot '-' using 1:2 with lines title 'DOS'
-7.174400 0.000000
-7.144900 0.000000
-7.115500 0.000000
-7.086000 0.000000
-7.056500 0.000000
-7.027100 0.000000
-6.997600 0.000000
-6.968200 0.000000
-6.938700 0.000000
-6.909300 0.000000
-6.879800 0.000000
-6.850400 0.000000
-6.820900 0.000000
-6.791500 0.000000
-6.762000 0.000000
-6.732600 0.000000
-6.703100 0.000000
-6.673700 0.000000
-6.644200 0.000000
-6.614800 0.000000
-6.585300 0.000000
-6.555900 0.000000
-6.526400 0.000000
-6.497000 0.000000
-6.467500 0.000000
-6.438100 0.000000
-6.408600 0.000000
-6.379200 0.000000
-6.349700 0.000000
-6.320300 0.000000
-6.290800 0.000000
-6.261400 0.000000
-6.231900 0.000000
-6.202500 0.000000
-6.173000 0.000000
-6.143600 0.000000
-6.114100 0.000000
-6.084700 0.000000
-6.055200 0.000000
-6.025700 0.000000
-5.996300 0.000000
-5.966800 0.000000
-5.937400 0.000000
-5.907900 0.000000
-5.878500 0.000000
-5.849000 0.000000
-5.819600 0.000000
-5.790100 0.000000
-5.760700 0.000000
-5.731200 0.000000
-5.701800 0.000000
-5.672300 0.000000
-5.642900 0.000000
-5.613400 0.000000
-5.584000 0.000000
-5.554500 0.000000
-5.525100 0.000000
-5.495600 0.000000
-5.466200 0.000000
-5.436700 0.000000
-5.407300 0.000000
-5.377800 0.000000
-5.348400 0.000000
-5.318900 0.000000
-5.289500 0.000000
-5.260000 0.000000
-5.230600 0.000000
-5.201100 0.000000
-5.171700 0.000000
-5.142200 0.000000
-5.112800 0.000000
-5.083300 0.000000
-5.053900 0.000000
-5.024400 0.000000
-4.994900 0.000000
-4.965500 0.000000
-4.936000 0.000000
-4.906600 0.000000
-4.877100 0.000000
-4.847700 0.000000
-4.818200 0.000000
-4.788800 0.000000
-4.759300 0.000000
-4.729900 0.000000
-4.700400 0.000000
-4.671000 0.000000
-4.641500 0.000000
-4.612100 0.000000
-4.582600 0.000000
-4.553200 0.000000
-4.523700 0.000000
-4.494300 0.000000
-4.464800 0.000000
-4.435400 0.000000
-4.405900 0.000400
-4.376500 0.021900
-4.347000 0.052100
-4.317600 0.082200
-4.288100 0.112400
-4.258700 0.142500
-4.229200 0.172700
-4.199800 0.162400
-4.170300 0.106600
-4.140900 0.109200
-4.111400 0.111800
-4.082000 0.114400
-4.052500 0.117000
-4.023100 0.119600
-3.993600 0.122200
-3.964100 0.124800
-3.934700 0.127400
-3.905200 0.130000
-3.875800 0.132600
-3.846300 0.135200
-3.816900 0.137800
-3.787400 0.138700
-3.758000 0.135800
-3.728500 0.132800
-3.699100 0.129900
-3.669600 0.127000
-3.640200 0.124100
-3.610700 0.121100
-3.581300 0.120600
-3.551800 0.121600
-3.522400 0.122600
-3.492900 0.123600
-3.463500 0.124500
-3.434000 0.125500
-3.404600 0.126500
-3.375100 0.127500
-3.345700 0.128500
-3.316200 0.129500
-3.286800 0.130400
-3.257300 0.131400
-3.227900 0.132400
-3.198400 0.133400
-3.169000 0.134400
-3.139500 0.135400
-3.110100 0.136400
-3.080600 0.137300
-3.051200 0.138300
-3.021700 0.139300
-2.992300 0.130300
-2.962800 0.130300
-2.933300 0.130300
-2.903900 0.130300
-2.874400 0.130300
-2.845000 0.130200
-2.815500 0.130200
-2.786100 0.130200
-2.756600 0.130200
-2.727200 0.130100
-2.697700 0.130100
-2.668300 0.130100
-2.638800 0.130100
-2.609400 0.130600
-2.579900 0.131100
-2.550500 0.131700
-2.521000 0.132300
-2.491600 0.132900
-2.462100 0.133500
-2.432700 0.134000
-2.403200 0.134600
-2.373800 0.135200
-2.344300 0.135800
-2.314900 0.136400
-2.285400 0.136900
-2.256000 0.137500
-2.226500 0.138100
-2.197100 0.138700
-2.167600 0.139300
-2.138200 0.139800
-2.108700 0.140400
-2.079300 0.141000
-2.049800 0.141100
-2.020400 0.144600
-1.990900 0.150600
-1.961500 0.158300
-1.932000 0.167500
-1.902500 0.177900
-1.873100 0.189800
-1.843600 0.203200
-1.814200 0.201300
-1.784700 0.203600
-1.755300 0.206600
-1.725800 0.210800
-1.696400 0.214900
-1.666900 0.219200
-1.637500 0.223900
-1.608000 0.228800
-1.578600 0.233800
-1.549100 0.239400
-1.519700 0.246000
-1.490200 0.252100
-1.460800 0.257600
-1.431300 0.262600
-1.401900 0.266400
-1.372400 0.267800
-1.343000 0.265700
-1.313500 0.262200
-1.284100 0.263400
-1.254600 0.264400
-1.225200 0.265200
-1.195700 0.266600
-1.166300 0.270600
-1.136800 0.275400
-1.107400 0.280700
-1.077900 0.286500
-1.048500 0.292800
-1.019000 0.299300
-0.989600 0.301800
-0.960100 0.304500
-0.930700 0.307200
-0.901200 0.310000
-0.871700 0.313200
-0.842300 0.316600
-0.812800 0.319000
-0.783400 0.322700
-0.753900 0.326500
-0.724500 0.330600
-0.695000 0.334900
-0.665600 0.339400
-0.636100 0.343900
-0.606700 0.348400
-0.577200 0.353000
-0.547800 0.356100
-0.518300 0.359700
-0.488900 0.363300
-0.459400 0.367200
-0.430000 0.371100
-0.400500 0.374900
-0.371100 0.378800
-0.341600 0.382800
-0.312200 0.386800
-0.282700 0.390900
-0.253300 0.395100
-0.223800 0.399300
-0.194400 0.403500
-0.164900 0.407600
-0.135500 0.412100
-0.106000 0.416800
-0.076600 0.421600
-0.047100 0.426500
-0.017700 0.431500
0.011800 0.436500
0.041200 0.442600
0.070700 0.448900
0.100100 0.454900
0.129600 0.461000
0.159000 0.466700
0.188500 0.471600
0.218000 0.475700
0.247400 0.479100
0.276900 0.481700
0.306300 0.488700
0.335800 0.501000
0.365200 0.510200
0.394700 0.516800
0.424100 0.523700
0.453600 0.530900
0.483000 0.539000
0.512500 0.548800
0.541900 0.559000
0.571400 0.569800
0.600800 0.581300
0.630300 0.593900
0.659700 0.606900
0.689200 0.620400
0.718600 0.634200
0.748100 0.648200
0.777500 0.662400
0.807000 0.677000
0.836400 0.692100
0.865900 0.707300
0.895300 0.723000
0.924800 0.936500
0.954200 0.918300
0.983700 0.900600
1.013100 0.884100
1.042600 0.870000
1.072000 0.856900
1.101500 0.844700
1.130900 0.833500
1.160400 0.823800
1.189800 0.828100
1.219300 0.849500
1.248800 0.875100
1.278200 0.900600
1.307700 0.925400
1.337100 0.950400
1.366600 0.993200
1.396000 1.110800
1.425500 1.346000
1.454900 1.549800
1.484400 1.683200
1.513800 1.941000
1.543300 1.851200
1.572700 2.014300
1.602200 2.357400
1.631600 2.628300
1.661100 2.619800
1.690500 2.566100
1.720000 2.464100
1.749400 2.081200
1.778900 2.100500
1.808300 2.192400
1.837800 2.318700
1.867200 2.459300
1.896700 2.564700
1.926100 2.476500
1.955600 2.505500
1.985000 2.548300
2.014500 2.683000
2.043900 2.793000
2.073400 3.096300
2.102800 3.604300
2.132300 4.062200
2.161700 3.797000
2.191200 3.829300
2.220600 4.083400
2.250100 4.685300
2.279600 4.417500
2.309000 3.884400
2.338500 3.899600
2.367900 3.886100
2.397400 3.855700
2.426800 4.003900
2.456300 3.936100
2.485700 4.181800
2.515200 5.057600
2.544600 4.755300
2.574100 3.414600
2.603500 3.917600
2.633000 4.241700
2.662400 4.158600
2.691900 3.995900
2.721300 3.579500
2.750800 3.138700
2.780200 3.279500
2.809700 3.665300
2.839100 4.270700
2.868600 3.196400
2.898000 3.321900
2.927500 3.892600
2.956900 4.394400
2.986400 4.226200
3.015800 3.644900
3.045300 3.714000
3.074700 3.782500
3.104200 4.119800
3.133600 3.867900
3.163100 4.719100
3.192500 4.223900
3.222000 4.191000
3.251400 4.354300
3.280900 4.590200
3.310400 4.460400
3.339800 4.372200
3.369300 6.047200
3.398700 4.754200
3.428200 4.599900
3.457600 4.328500
3.487100 4.210500
3.516500 4.689200
3.546000 5.157400
3.575400 7.486800
3.604900 5.394200
3.634300 6.133100
3.663800 7.445700
3.693200 7.292900
3.722700 5.764800
3.752100 7.383100
3.781600 8.017900
3.811000 9.006200
3.840500 6.337300
3.869900 6.580400
3.899400 4.785900
3.928800 6.129700
3.958300 5.319900
3.987700 5.710500
4.017200 7.690300
4.046600 5.510700
4.076100 3.937200
4.105500 3.668500
4.135000 3.714800
4.164400 4.655900
4.193900 12.294900
4.223300 6.427200
4.252800 4.953800
4.282200 4.622700
4.311700 4.593800
4.341200 5.367200
4.370600 5.450400
4.400100 4.857200
4.429500 5.188800
4.459000 4.624100
4.488400 3.953300
4.517900 4.183900
4.547300 5.043100
4.576800 5.531900
4.606200 4.273800
4.635700 5.646200
4.665100 4.810500
4.694600 4.513000
4.724000 4.704000
4.753500 4.514300
4.782900 4.937900
4.812400 7.384100
4.841800 8.646300
4.871300 6.794800
4.900700 7.617000
4.930200 7.581200
4.959600 5.846800
4.989100 5.706500
5.018500 5.541700
5.048000 4.876500
5.077400 4.368100
5.106900 4.093600
5.136300 4.055200
5.165800 4.023300
5.195200 3.988700
5.224700 6.513700
5.254100 6.315900
5.283600 5.774600
5.313000 4.749200
5.342500 4.278900
5.372000 7.891300
5.401400 5.312700
5.430900 4.877400
5.460300 6.690000
5.489800 7.541900
5.519200 10.191800
5.548700 6.301800
5.578100 2.650800
5.607600 2.120400
5.637000 1.871900
5.666500 1.872800
5.695900 1.928200
5.725400 1.895200
5.754800 1.867500
5.784300 1.832400
5.813700 1.781200
5.843200 1.709500
5.872600 1.670900
5.902100 1.635400
5.931500 1.594900
5.961000 1.538200
5.990400 1.516500
6.019900 1.493300
6.049300 1.480300
6.078800 1.462200
6.108200 1.441500
6.137700 1.450900
6.167100 1.450300
6.196600 1.441500
6.226000 1.434200
6.255500 1.436800
6.284900 1.333800
6.314400 1.278000
6.343800 1.014900
6.373300 0.989100
6.402800 0.967000
6.432200 0.948500
6.461700 0.933300
6.491100 0.918400
6.520600 0.905200
6.550000 0.894600
6.579500 0.886900
6.608900 0.877300
6.638400 0.867900
6.667800 0.857700
6.697300 0.841600
6.726700 0.826000
6.756200 0.818300
6.785600 0.826200
6.815100 0.842100
6.844500 0.859800
6.874000 0.880400
6.903400 0.907000
6.932900 0.942900
6.962300 0.991100
6.991800 1.039100
7.021200 1.069100
7.050700 1.071700
7.080100 1.082800
7.109600 1.132800
7.139000 1.201100
7.168500 1.229400
7.197900 1.008500
7.227400 0.619300
7.256800 0.582200
7.286300 0.572200
7.315700 0.573900
7.345200 0.581400
7.374600 0.591900
7.404100 0.603100
7.433600 0.614300
7.463000 0.628500
7.492500 0.647400
7.521900 0.667600
7.551400 0.679000
7.580800 0.682200
7.610300 0.680900
7.639700 0.687500
7.669200 0.695300
7.698600 0.705600
7.728100 0.717900
7.757500 0.729200
7.787000 0.736700
7.816400 0.739400
7.845900 0.737100
7.875300 0.731900
7.904800 0.717900
7.934200 0.694400
7.963700 0.666700
7.993100 0.648900
8.022600 0.645200
8.052000 0.633800
8.081500 0.614100
8.110900 0.598700
8.140400 0.588400
8.169800 0.583500
8.199300 0.582100
8.228700 0.582100
8.258200 0.583400
8.287600 0.586200
8.317100 0.592700
8.346500 0.605800
8.376000 0.625400
8.405400 0.647100
8.434900 0.666200
8.464400 0.691100
8.493800 0.713700
8.523300 0.734800
8.552700 0.777400
8.582200 0.832300
8.611600 0.884700
8.641100 0.907800
8.670500 0.908000
8.700000 0.831200
8.729400 0.741500
8.758900 0.637100
8.788300 0.629100
8.817800 0.631700
8.847200 0.626500
8.876700 0.623000
8.906100 0.624800
8.935600 0.629200
8.965000 0.632700
8.994500 0.653500
9.023900 0.649500
9.053400 0.601700
9.082800 0.581400
9.112300 0.578100
9.141700 0.583200
9.171200 0.593900
9.200600 0.607100
9.230100 0.620300
9.259500 0.633700
9.289000 0.645200
9.318400 0.655500
9.347900 0.660200
9.377300 0.663800
9.406800 0.662900
9.436200 0.661800
9.465700 0.631900
9.495200 0.629300
9.524600 0.629300
9.554100 0.633200
9.583500 0.642000
9.613000 0.653400
9.642400 0.662700
9.671900 0.665500
9.701300 0.664400
9.730800 0.670900
9.760200 0.674900
9.789700 0.686500
9.819100 0.733700
9.848600 0.731800
9.878000 0.658400
9.907500 0.606800
9.936900 0.557800
9.966400 0.554700
9.995800 0.522900
10.025300 0.459900
10.054700 0.417200
10.084200 0.390400
10.113600 0.369900
10.143100 0.354500
10.172500 0.341100
10.202000 0.331100
10.231400 0.314600
10.260900 0.323200
10.290300 0.345500
10.319800 0.369100
10.349200 0.386900
10.378700 0.397800
10.408100 0.404500
10.437600 0.410100
10.467000 0.415000
10.496500 0.418400
10.526000 0.421300
10.555400 0.425600
10.584900 0.431400
10.614300 0.436100
10.643800 0.440900
10.673200 0.445900
10.702700 0.450200
10.732100 0.455000
10.761600 0.464000
10.791000 0.481200
10.820500 0.515000
10.849900 0.658600
10.879400 0.801300
10.908800 1.149000
10.938300 0.921600
10.967700 0.786400
10.997200 0.673600
11.026600 0.570400
11.056100 0.531900
11.085500 0.616800
11.115000 0.639200
11.144400 0.695900
11.173900 0.658700
11.203300 0.647400
11.232800 0.639100
11.262200 0.634300
11.291700 0.631000
11.321100 0.625300
11.350600 0.621900
11.380000 0.621100
11.409500 0.622800
11.438900 0.624900
11.468400 0.631200
11.497800 0.639500
11.527300 0.624100
11.556800 0.603900
11.586200 0.585500
11.615700 0.569600
11.645100 0.561200
11.674600 0.551700
11.704000 0.537400
11.733500 0.523600
11.762900 0.510600
11.792400 0.501200
11.821800 0.492700
11.851300 0.484700
11.880700 0.477400
11.910200 0.471200
11.939600 0.465800
11.969100 0.461100
11.998500 0.471300
12.028000 0.487000
12.057400 0.511800
12.086900 0.592200
12.116300 0.724900
12.145800 0.816700
12.175200 0.899600
12.204700 0.964700
12.234100 0.951700
12.263600 0.879500
12.293000 0.808500
12.322500 0.852300
12.351900 0.844300
12.381400 0.901400
12.410800 1.020100
12.440300 1.138100
12.469700 1.234300
12.499200 1.271900
12.528600 1.250300
12.558100 1.217600
12.587600 1.137500
12.617000 1.072900
12.646500 1.003700
12.675900 0.914100
12.705400 0.810200
12.734800 0.748000
12.764300 0.725400
12.793700 0.705700
12.823200 0.682700
12.852600 0.659200
12.882100 0.639000
12.911500 0.621700
12.941000 0.609000
12.970400 0.602800
12.999900 0.598500
13.029300 0.606200
13.058800 0.642500
13.088200 0.649900
13.117700 0.646300
13.147100 0.648900
13.176600 0.663400
13.206000 0.707300
13.235500 0.800500
13.264900 0.865800
13.294400 0.888600
13.323800 0.887000
13.353300 0.886500
13.382700 0.872700
13.412200 0.834800
13.441600 0.825300
13.471100 0.812400
13.500500 0.798200
13.530000 0.783600
13.559400 0.773100
13.588900 0.766700
13.618400 0.737300
13.647800 0.726200
13.677300 0.717000
13.706700 0.708600
13.736200 0.703300
13.765600 0.699700
13.795100 0.697200
13.824500 0.695700
13.854000 0.695600
13.883400 0.698200
13.912900 0.705600
13.942300 0.732400
13.971800 0.759600
14.001200 0.765200
14.030700 0.760100
14.060100 0.739300
14.089600 0.715400
14.119000 0.688300
14.148500 0.661000
14.177900 0.633600
14.207400 0.626300
14.236800 0.627800
14.266300 0.637800
14.295700 0.658300
14.325200 0.668900
14.354600 0.679100
14.384100 0.692400
14.413500 0.710600
14.443000 0.734400
14.472400 0.763800
14.501900 0.782000
14.531300 0.804500
14.560800 0.817500
14.590200 0.784700
14.619700 0.760100
14.649200 0.731100
14.678600 0.750600
14.708100 0.766900
14.737500 0.777000
14.767000 0.784800
14.796400 0.795600
14.825900 0.822000
14.855300 0.821200
14.884800 0.821300
14.914200 0.805500
14.943700 0.796800
14.973100 0.787500
15.002600 0.777700
15.032000 0.768800
15.061500 0.761100
15.090900 0.759200
15.120400 0.760000
15.149800 0.761500
15.179300 0.777900
15.208700 0.795400
15.238200 0.813600
15.267600 0.834500
15.297100 0.856300
15.326500 0.872200
15.356000 0.869000
15.385400 0.855800
15.414900 0.847600
15.444300 0.847600
15.473800 0.844000
15.503200 0.867000
15.532700 0.840700
15.562100 0.809200
15.591600 0.782000
15.621000 0.757100
15.650500 0.740900
15.680000 0.730800
15.709400 0.720000
15.738900 0.713100
15.768300 0.710600
15.797800 0.712300
15.827200 0.714400
15.856700 0.726400
15.886100 0.755500
15.915600 0.773600
15.945000 0.783800
15.974500 0.790600
16.003900 0.793900
16.033400 0.794400
16.062800 0.793200
16.092300 0.791300
16.121700 0.791000
16.151200 0.786600
16.180600 0.785000
16.210100 0.785800
16.239500 0.789300
16.269000 0.794200
16.298400 0.799600
16.327900 0.804200
16.357300 0.810600
16.386800 0.820300
16.416200 0.835300
16.445700 0.857400
16.475100 0.885300
16.504600 0.916800
16.534000 0.972400
16.563500 1.017400
16.592900 1.041900
16.622400 1.009300
16.651800 1.020300
16.681300 1.025900
16.710800 1.035500
16.740200 1.058600
16.769700 1.086700
16.799100 1.106900
16.828600 1.135000
16.858000 1.147700
16.887500 1.150000
16.916900 1.141400
16.946400 1.127100
16.975800 1.116400
17.005300 1.036300
17.034700 0.999700
17.064200 1.003300
17.093600 0.971200
17.123100 0.952000
17.152500 0.937100
17.182000 0.922700
17.211400 0.919300
17.240900 0.916100
17.270300 0.915800
17.299800 0.930900
17.329200 0.941700
17.358700 0.954600
17.388100 0.925700
17.417600 0.918600
17.447000 0.918200
17.476500 0.921400
17.505900 0.926200
17.535400 0.931400
17.564800 0.931100
17.594300 0.932600
17.623700 0.933800
17.653200 0.930500
17.682600 0.933000
17.712100 0.939300
17.741600 0.943900
17.771000 0.946100
17.800500 0.944400
17.829900 0.938600
17.859400 0.930400
17.888800 0.922600
17.918300 0.912500
17.947700 0.903000
17.977200 0.893300
18.006600 0.884700
18.036100 0.877800
18.065500 0.874300
18.095000 0.872500
18.124400 0.870900
18.153900 0.870200
18.183300 0.900400
18.212800 0.883900
18.242200 0.876300
18.271700 0.881600
18.301100 0.891300
18.330600 0.906900
18.360000 0.927600
18.389500 0.953400
18.418900 0.981700
18.448400 1.000900
18.477800 1.018300
18.507300 1.040200
18.536700 1.035800
18.566200 1.052100
18.595600 1.079700
18.625100 1.093000
18.654500 1.084700
18.684000 1.063600
18.713400 1.035100
18.742900 1.012100
18.772400 0.996500
18.801800 1.000700
18.831300 1.009800
18.860700 1.026600
18.890200 1.033300
18.919600 1.038800
18.949100 1.037100
18.978500 1.033700
19.008000 1.031100
19.037400 1.028800
19.066900 1.035000
19.096300 1.145400
19.125800 1.077400
19.155200 1.098900
19.184700 1.159200
19.214100 1.165000
19.243600 1.157000
19.273000 1.135900
19.302500 1.121900
19.331900 1.098900
19.361400 1.072800
19.390800 1.045100
19.420300 1.029700
19.449700 1.017200
19.479200 1.008300
19.508600 1.003100
19.538100 1.006800
19.567500 1.007200
19.597000 0.999300
19.626400 0.992900
19.655900 0.989400
19.685300 0.992400
19.714800 1.000600
19.744200 1.009200
19.773700 1.021300
19.803200 1.036800
19.832600 1.054400
19.862100 1.077900
19.891500 1.103300
19.921000 1.123600
19.950400 1.134100
19.979900 1.140600
20.009300 1.156800
20.038800 1.166500
20.068200 1.163000
20.097700 1.160500
20.127100 1.159200
20.156600 1.158500
20.186000 1.152400
20.215500 1.136500
20.244900 1.121400
20.274400 1.112000
20.303800 1.106200
20.333300 1.131400
20.362700 1.127900
20.392200 1.126000
20.421600 1.127200
20.451100 1.123900
20.480500 1.113200
20.510000 1.104900
20.539400 1.098100
20.568900 1.091400
20.598300 1.085200
20.627800 1.080900
20.657200 1.080500
20.686700 1.101300
20.716100 1.093400
20.745600 1.083900
20.775000 1.080100
20.804500 1.076900
20.833900 1.074400
20.863400 1.072200
20.892900 1.071100
20.922300 1.071800
20.951800 1.077100
20.981200 1.081700
21.010700 1.084400
21.040100 1.092300
21.069600 1.108800
21.099000 1.133000
21.128500 1.172100
21.157900 1.206900
21.187400 1.221800
21.216800 1.217700
21.246300 1.185800
21.275700 1.162700
21.305200 1.147600
21.334600 1.101600
21.364100 1.089000
21.393500 1.082600
21.423000 1.087300
21.452400 1.099300
21.481900 1.105300
21.511300 1.110700
21.540800 1.112000
21.570200 1.107000
21.599700 1.097500
21.629100 1.085400
21.658600 1.075400
21.688000 1.041200
21.717500 1.022000
21.746900 1.008300
21.776400 0.995100
21.805800 0.984400
21.835300 0.978600
21.864700 0.975800
21.894200 0.968600
21.923700 0.961500
21.953100 0.957800
21.982600 0.959400
22.012000 0.985600
22.041500 0.985500
22.070900 0.966000
22.100400 0.949600
22.129800 0.948900
22.159300 0.959200
22.188700 0.980500
22.218200 1.003500
22.247600 1.014600
22.277100 1.026800
22.306500 1.037700
22.336000 1.045800
22.365400 1.052100
22.394900 1.063000
22.424300 1.067400
22.453800 1.067600
22.483200 1.068700
22.512700 1.069000
22.542100 1.078100
22.571600 1.080000
22.601000 1.076000
22.630500 1.059800
22.659900 1.040700
22.689400 1.036000
22.718800 1.006000
22.748300 0.976500
22.777700 0.966400
22.807200 0.955000
22.836600 0.942700
22.866100 0.934300
22.895500 0.934500
22.925000 0.934300
22.954500 0.936100
22.983900 0.940500
23.013400 0.947500
23.042800 0.958200
23.072300 0.968400
23.101700 0.975500
23.131200 1.082000
23.160600 0.983900
23.190100 0.976000
23.219500 0.976200
23.249000 0.973600
23.278400 0.971100
23.307900 0.967900
23.337300 0.972900
23.366800 0.975400
23.396200 0.973100
23.425700 0.974300
23.455100 0.976300
23.484600 0.979700
23.514000 0.984400
23.543500 1.018500
23.572900 1.024800
23.602400 1.024600
23.631800 1.023100
23.661300 1.021800
23.690700 1.020300
23.720200 1.022200
23.749600 1.030500
23.779100 1.028700
23.808500 1.001000
23.838000 0.994000
23.867400 0.985200
