set title 'mp-865985 - Density of States'
set xlabel 'Energy (eV)'
set ylabel 'DOS (states/eV)'
set grid
set xrange [-10:10]
set yrange [0:52.008]
set xzeroaxis lt -1
set terminal png size 800,600
set output 'mp-865985_dos_gnuplot.png'
plot '-' using 1:2 with lines title 'DOS'
-6.153600 0.000000
-6.136300 0.000000
-6.119000 0.000000
-6.101700 0.000000
-6.084400 0.000000
-6.067100 0.000000
-6.049800 0.000000
-6.032500 0.000000
-6.015200 0.000000
-5.997900 0.000000
-5.980600 0.000000
-5.963300 0.000000
-5.946000 0.000000
-5.928700 0.000000
-5.911400 0.000000
-5.894100 0.000000
-5.876800 0.000000
-5.859500 0.000000
-5.842200 0.000000
-5.824900 0.000000
-5.807600 0.000000
-5.790300 0.000000
-5.773000 0.000000
-5.755700 0.000000
-5.738400 0.000000
-5.721100 0.000000
-5.703800 0.000000
-5.686500 0.000000
-5.669200 0.000000
-5.651900 0.000000
-5.634600 0.000000
-5.617300 0.000000
-5.600000 0.000000
-5.582700 0.000000
-5.565400 0.000000
-5.548100 0.000000
-5.530800 0.000000
-5.513500 0.000000
-5.496200 0.000000
-5.478900 0.000000
-5.461600 0.000000
-5.444300 0.000000
-5.427000 0.000000
-5.409700 0.000000
-5.392400 0.000000
-5.375100 0.000000
-5.357800 0.000000
-5.340500 0.000000
-5.323200 0.000000
-5.305800 0.000000
-5.288500 0.000000
-5.271200 0.000000
-5.253900 0.000000
-5.236600 0.000000
-5.219300 0.000000
-5.202000 0.000000
-5.184700 0.000000
-5.167400 0.000000
-5.150100 0.000000
-5.132800 0.000000
-5.115500 0.000000
-5.098200 0.000000
-5.080900 0.000000
-5.063600 0.000000
-5.046300 0.000000
-5.029000 0.000000
-5.011700 0.000000
-4.994400 0.000000
-4.977100 0.000000
-4.959800 0.000000
-4.942500 0.000000
-4.925200 0.000000
-4.907900 0.000000
-4.890600 0.000000
-4.873300 0.000000
-4.856000 0.000000
-4.838700 0.000000
-4.821400 0.000000
-4.804100 0.000000
-4.786800 0.000000
-4.769500 0.000000
-4.752200 0.000000
-4.734900 0.000000
-4.717600 0.000000
-4.700300 0.000100
-4.683000 0.000400
-4.665700 0.002100
-4.648400 0.008100
-4.631100 0.026000
-4.613800 0.069100
-4.596500 0.154500
-4.579200 0.295300
-4.561900 0.496900
-4.544600 0.768100
-4.527300 1.153100
-4.510000 1.777400
-4.492700 2.887300
-4.475400 4.857200
-4.458100 8.135200
-4.440800 13.111100
-4.423500 19.874700
-4.406200 27.898700
-4.388900 35.914700
-4.371600 42.345100
-4.354300 46.144500
-4.337000 47.279900
-4.319700 46.348100
-4.302400 43.834800
-4.285100 39.894400
-4.267800 34.773000
-4.250500 29.179900
-4.233200 24.065100
-4.215800 20.058100
-4.198500 17.196700
-4.181200 15.126800
-4.163900 13.410100
-4.146600 11.669600
-4.129300 9.678600
-4.112000 7.461600
-4.094700 5.260800
-4.077400 3.354700
-4.060100 1.909300
-4.042800 0.951900
-4.025500 0.406800
-4.008200 0.146100
-3.990900 0.043300
-3.973600 0.010500
-3.956300 0.002100
-3.939000 0.000300
-3.921700 0.000000
-3.904400 0.000000
-3.887100 0.000000
-3.869800 0.000000
-3.852500 0.000000
-3.835200 0.000000
-3.817900 0.000000
-3.800600 0.000000
-3.783300 0.000000
-3.766000 0.000000
-3.748700 0.000000
-3.731400 0.000000
-3.714100 0.000000
-3.696800 0.000000
-3.679500 0.000000
-3.662200 0.000000
-3.644900 0.000000
-3.627600 0.000000
-3.610300 0.000000
-3.593000 0.000000
-3.575700 0.000000
-3.558400 0.000000
-3.541100 0.000000
-3.523800 0.000000
-3.506500 0.000000
-3.489200 0.000000
-3.471900 0.000000
-3.454600 0.000000
-3.437300 0.000000
-3.420000 0.000000
-3.402700 0.000000
-3.385400 0.000000
-3.368100 0.000000
-3.350800 0.000000
-3.333500 0.000000
-3.316200 0.000000
-3.298900 0.000000
-3.281600 0.000100
-3.264300 0.000300
-3.247000 0.001200
-3.229700 0.003600
-3.212400 0.008800
-3.195100 0.017500
-3.177800 0.029100
-3.160500 0.042100
-3.143200 0.054600
-3.125900 0.065700
-3.108500 0.076200
-3.091200 0.092000
-3.073900 0.122400
-3.056600 0.168900
-3.039300 0.214000
-3.022000 0.229600
-3.004700 0.201600
-2.987400 0.143700
-2.970100 0.086400
-2.952800 0.055400
-2.935500 0.062200
-2.918200 0.106200
-2.900900 0.174800
-2.883600 0.245200
-2.866300 0.296100
-2.849000 0.319900
-2.831700 0.321800
-2.814400 0.314300
-2.797100 0.314000
-2.779800 0.331200
-2.762500 0.352800
-2.745200 0.346200
-2.727900 0.291600
-2.710600 0.204400
-2.693300 0.122200
-2.676000 0.076400
-2.658700 0.079400
-2.641400 0.127600
-2.624100 0.204500
-2.606800 0.285800
-2.589500 0.349900
-2.572200 0.386700
-2.554900 0.402400
-2.537600 0.420400
-2.520300 0.471500
-2.503000 0.557700
-2.485700 0.628200
-2.468400 0.613900
-2.451100 0.496800
-2.433800 0.331600
-2.416500 0.197800
-2.399200 0.142400
-2.381900 0.165000
-2.364600 0.234300
-2.347300 0.311900
-2.330000 0.375700
-2.312700 0.431200
-2.295400 0.500000
-2.278100 0.590300
-2.260800 0.672200
-2.243500 0.687100
-2.226200 0.599100
-2.208900 0.439800
-2.191600 0.291900
-2.174300 0.229400
-2.157000 0.275000
-2.139700 0.398300
-2.122400 0.537800
-2.105100 0.633500
-2.087800 0.657900
-2.070500 0.625300
-2.053200 0.578100
-2.035900 0.557100
-2.018600 0.573200
-2.001200 0.603800
-1.983900 0.618400
-1.966600 0.614700
-1.949300 0.621000
-1.932000 0.661600
-1.914700 0.729700
-1.897400 0.805200
-1.880100 0.885500
-1.862800 0.977400
-1.845500 1.062700
-1.828200 1.096500
-1.810900 1.048500
-1.793600 0.933100
-1.776300 0.793300
-1.759000 0.670100
-1.741700 0.590600
-1.724400 0.575400
-1.707100 0.641700
-1.689800 0.791200
-1.672500 0.990400
-1.655200 1.174400
-1.637900 1.288300
-1.620600 1.327800
-1.603300 1.337000
-1.586000 1.381100
-1.568700 1.529300
-1.551400 1.833700
-1.534100 2.292200
-1.516800 2.829000
-1.499500 3.328000
-1.482200 3.691300
-1.464900 3.875400
-1.447600 3.887600
-1.430300 3.763700
-1.413000 3.540000
-1.395700 3.239300
-1.378400 2.894600
-1.361100 2.572700
-1.343800 2.339800
-1.326500 2.194400
-1.309200 2.065200
-1.291900 1.899200
-1.274600 1.733000
-1.257300 1.656500
-1.240000 1.711700
-1.222700 1.842700
-1.205400 1.938600
-1.188100 1.914500
-1.170800 1.764000
-1.153500 1.549800
-1.136200 1.350000
-1.118900 1.212400
-1.101600 1.148700
-1.084300 1.145200
-1.067000 1.167700
-1.049700 1.174800
-1.032400 1.138200
-1.015100 1.047700
-0.997800 0.908300
-0.980500 0.741700
-0.963200 0.587600
-0.945900 0.486000
-0.928600 0.456400
-0.911300 0.493200
-0.893900 0.579300
-0.876600 0.691200
-0.859300 0.790800
-0.842000 0.829000
-0.824700 0.779400
-0.807400 0.676700
-0.790100 0.610800
-0.772800 0.669000
-0.755500 0.870500
-0.738200 1.156700
-0.720900 1.448000
-0.703600 1.708800
-0.686300 1.948700
-0.669000 2.161400
-0.651700 2.296700
-0.634400 2.322100
-0.617100 2.292900
-0.599800 2.322500
-0.582500 2.477100
-0.565200 2.715400
-0.547900 2.922900
-0.530600 2.996700
-0.513300 2.920800
-0.496000 2.787600
-0.478700 2.733700
-0.461400 2.841000
-0.444100 3.108000
-0.426800 3.506000
-0.409500 3.998800
-0.392200 4.487400
-0.374900 4.802600
-0.357600 4.826300
-0.340300 4.608100
-0.323000 4.335800
-0.305700 4.207900
-0.288400 4.339200
-0.271100 4.739400
-0.253800 5.339000
-0.236500 6.037100
-0.219200 6.752500
-0.201900 7.462300
-0.184600 8.195900
-0.167300 8.970600
-0.150000 9.731000
-0.132700 10.371900
-0.115400 10.829300
-0.098100 11.148300
-0.080800 11.474300
-0.063500 11.975300
-0.046200 12.725700
-0.028900 13.609600
-0.011600 14.348500
0.005700 14.685500
0.023000 14.584200
0.040300 14.230900
0.057600 13.839100
0.074900 13.483400
0.092200 13.138600
0.109500 12.816900
0.126800 12.588500
0.144100 12.485900
0.161400 12.464600
0.178700 12.457000
0.196000 12.404800
0.213400 12.251300
0.230700 11.965800
0.248000 11.580100
0.265300 11.151600
0.282600 10.686500
0.299900 10.139400
0.317200 9.522000
0.334500 8.980100
0.351800 8.686400
0.369100 8.626000
0.386400 8.547800
0.403700 8.190100
0.421000 7.546300
0.438300 6.871400
0.455600 6.421600
0.472900 6.208400
0.490200 6.021100
0.507500 5.697700
0.524800 5.349300
0.542100 5.260900
0.559400 5.558800
0.576700 6.044600
0.594000 6.406300
0.611300 6.529900
0.628600 6.538800
0.645900 6.589000
0.663200 6.734300
0.680500 6.971300
0.697800 7.310900
0.715100 7.755500
0.732400 8.234500
0.749700 8.592300
0.767000 8.664400
0.784300 8.403100
0.801600 7.956800
0.818900 7.614600
0.836200 7.633300
0.853500 8.065400
0.870800 8.727100
0.888100 9.341400
0.905400 9.716700
0.922700 9.797200
0.940000 9.621600
0.957300 9.301500
0.974600 8.993600
0.991900 8.816100
1.009200 8.785400
1.026500 8.821800
1.043800 8.786700
1.061100 8.553000
1.078400 8.110100
1.095700 7.606200
1.113000 7.249600
1.130300 7.159200
1.147600 7.296800
1.164900 7.508800
1.182200 7.624800
1.199500 7.562300
1.216800 7.372100
1.234100 7.171100
1.251400 7.036300
1.268700 7.007900
1.286000 7.174700
1.303400 7.635100
1.320700 8.300100
1.338000 8.820400
1.355300 8.817700
1.372600 8.202600
1.389900 7.256700
1.407200 6.428900
1.424500 6.042700
1.441800 6.137700
1.459100 6.526400
1.476400 6.965700
1.493700 7.295300
1.511000 7.467700
1.528300 7.487500
1.545600 7.349400
1.562900 7.058000
1.580200 6.683600
1.597500 6.349500
1.614800 6.152200
1.632100 6.103100
1.649400 6.146800
1.666700 6.251000
1.684000 6.486100
1.701300 6.993100
1.718600 7.855700
1.735900 9.026700
1.753200 10.389400
1.770500 11.834200
1.787800 13.212400
1.805100 14.254500
1.822400 14.645600
1.839700 14.234100
1.857000 13.173800
1.874300 11.870400
1.891600 10.772400
1.908900 10.158100
1.926200 10.059900
1.943500 10.326400
1.960800 10.714100
1.978100 10.964500
1.995400 10.903800
2.012700 10.548500
2.030000 10.107800
2.047300 9.812800
2.064600 9.706300
2.081900 9.627600
2.099200 9.405400
2.116500 9.029100
2.133800 8.641200
2.151100 8.410200
2.168400 8.414500
2.185700 8.619000
2.203000 8.930900
2.220300 9.253900
2.237600 9.494000
2.254900 9.559300
2.272200 9.387600
2.289500 8.975700
2.306800 8.395300
2.324100 7.800000
2.341400 7.372600
2.358700 7.193800
2.376000 7.151600
2.393300 7.040800
2.410700 6.794600
2.428000 6.587000
2.445300 6.656600
2.462600 7.024100
2.479900 7.411000
2.497200 7.459200
2.514500 7.026600
2.531800 6.275400
2.549100 5.521800
2.566400 5.026900
2.583700 4.878000
2.601000 4.982500
2.618300 5.146700
2.635600 5.200900
2.652900 5.102600
2.670200 4.939700
2.687500 4.830500
2.704800 4.827800
2.722100 4.920000
2.739400 5.097800
2.756700 5.390700
2.774000 5.848800
2.791300 6.500700
2.808600 7.305100
2.825900 8.123200
2.843200 8.764500
2.860500 9.078800
2.877800 9.009600
2.895100 8.594100
2.912400 7.942000
2.929700 7.187800
2.947000 6.422500
2.964300 5.668100
2.981600 4.918500
2.998900 4.199500
3.016200 3.578100
3.033500 3.111000
3.050800 2.784000
3.068100 2.511200
3.085400 2.210000
3.102700 1.884100
3.120000 1.624100
3.137300 1.520000
3.154600 1.577500
3.171900 1.711400
3.189200 1.803700
3.206500 1.773500
3.223800 1.617500
3.241100 1.397600
3.258400 1.200200
3.275700 1.099300
3.293000 1.125000
3.310300 1.239500
3.327600 1.357600
3.344900 1.413100
3.362200 1.407100
3.379500 1.388000
3.396800 1.389100
3.414100 1.398400
3.431400 1.386800
3.448700 1.346100
3.466000 1.285000
3.483300 1.204400
3.500600 1.103200
3.518000 1.005000
3.535300 0.960800
3.552600 1.003900
3.569900 1.100800
3.587200 1.160400
3.604500 1.109800
3.621800 0.957400
3.639100 0.777200
3.656400 0.648800
3.673700 0.620900
3.691000 0.709500
3.708300 0.905400
3.725600 1.175800
3.742900 1.458600
3.760200 1.667000
3.777500 1.720300
3.794800 1.595500
3.812100 1.353300
3.829400 1.101400
3.846700 0.926500
3.864000 0.861600
3.881300 0.900700
3.898600 1.015200
3.915900 1.155100
3.933200 1.265200
3.950500 1.316200
3.967800 1.314200
3.985100 1.278600
4.002400 1.222800
4.019700 1.157300
4.037000 1.096500
4.054300 1.060200
4.071600 1.068800
4.088900 1.120600
4.106200 1.172100
4.123500 1.167400
4.140800 1.100100
4.158100 1.028500
4.175400 1.017000
4.192700 1.074800
4.210000 1.164600
4.227300 1.251500
4.244600 1.319100
4.261900 1.340000
4.279200 1.267000
4.296500 1.080400
4.313800 0.832600
4.331100 0.618600
4.348400 0.507900
4.365700 0.520400
4.383000 0.649700
4.400300 0.866700
4.417600 1.099300
4.434900 1.249400
4.452200 1.261500
4.469500 1.163500
4.486800 1.035600
4.504100 0.947000
4.521400 0.921100
4.538700 0.943900
4.556000 0.991000
4.573300 1.040000
4.590600 1.061000
4.607900 1.023700
4.625300 0.936200
4.642600 0.859900
4.659900 0.856400
4.677200 0.921500
4.694500 0.991100
4.711800 1.005300
4.729100 0.949800
4.746400 0.842000
4.763700 0.714100
4.781000 0.620100
4.798300 0.627700
4.815600 0.770000
4.832900 1.000800
4.850200 1.211100
4.867500 1.307900
4.884800 1.290900
4.902100 1.246800
4.919400 1.257200
4.936700 1.318300
4.954000 1.362300
4.971300 1.338500
4.988600 1.247500
5.005900 1.111800
5.023200 0.952500
5.040500 0.800400
5.057800 0.698200
5.075100 0.678900
5.092400 0.751400
5.109700 0.903200
5.127000 1.102000
5.144300 1.294800
5.161600 1.420600
5.178900 1.437400
5.196200 1.342900
5.213500 1.175300
5.230800 0.989700
5.248100 0.833400
5.265400 0.737000
5.282700 0.709700
5.300000 0.733400
5.317300 0.768900
5.334600 0.781300
5.351900 0.771400
5.369200 0.783900
5.386500 0.873300
5.403800 1.046500
5.421100 1.239700
5.438400 1.360800
5.455700 1.361400
5.473000 1.267300
5.490300 1.145700
5.507600 1.054700
5.524900 1.011900
5.542200 0.999600
5.559500 1.000800
5.576800 1.024000
5.594100 1.077700
5.611400 1.131100
5.628700 1.131000
5.646000 1.059800
5.663300 0.957400
5.680600 0.881700
5.697900 0.857200
5.715200 0.866400
5.732600 0.883200
5.749900 0.908100
5.767200 0.970800
5.784500 1.097100
5.801800 1.273500
5.819100 1.446200
5.836400 1.562100
5.853700 1.611100
5.871000 1.627200
5.888300 1.642600
5.905600 1.649600
5.922900 1.616200
5.940200 1.522000
5.957500 1.367000
5.974800 1.161800
5.992100 0.936100
6.009400 0.750000
6.026700 0.672500
6.044000 0.732800
6.061300 0.890900
6.078600 1.059700
6.095900 1.164900
6.113200 1.187800
6.130500 1.159000
6.147800 1.116700
6.165100 1.074000
6.182400 1.023600
6.199700 0.961900
6.217000 0.900100
6.234300 0.852700
6.251600 0.824200
6.268900 0.812400
6.286200 0.822100
6.303500 0.866800
6.320800 0.952000
6.338100 1.058600
6.355400 1.143000
6.372700 1.156400
6.390000 1.081300
6.407300 0.958300
6.424600 0.865100
6.441900 0.856100
6.459200 0.931200
6.476500 1.058700
6.493800 1.203700
6.511100 1.330900
6.528400 1.409100
6.545700 1.437100
6.563000 1.450200
6.580300 1.474500
6.597600 1.477100
6.614900 1.384900
6.632200 1.161300
6.649500 0.855500
6.666800 0.573400
6.684100 0.405900
6.701400 0.385600
6.718700 0.488500
6.736000 0.651800
6.753300 0.797100
6.770600 0.870500
6.787900 0.882200
6.805200 0.897700
6.822500 0.977000
6.839900 1.118300
6.857200 1.265100
6.874500 1.365800
6.891800 1.416400
6.909100 1.443000
6.926400 1.451100
6.943700 1.408100
6.961000 1.285100
6.978300 1.112500
6.995600 0.976600
7.012900 0.960300
7.030200 1.091300
7.047500 1.324200
7.064800 1.542800
7.082100 1.601300
7.099400 1.424200
7.116700 1.081500
7.134000 0.739300
7.151300 0.526300
7.168600 0.457000
7.185900 0.472100
7.203200 0.526500
7.220500 0.627300
7.237800 0.797000
7.255100 1.014500
7.272400 1.209000
7.289700 1.317000
7.307000 1.331400
7.324300 1.291900
7.341600 1.240600
7.358900 1.197500
7.376200 1.170000
7.393500 1.169500
7.410800 1.201900
7.428100 1.241400
7.445400 1.239800
7.462700 1.176700
7.480000 1.083200
7.497300 1.006500
7.514600 0.963100
7.531900 0.935100
7.549200 0.898100
7.566500 0.843400
7.583800 0.786100
7.601100 0.752800
7.618400 0.752000
7.635700 0.756800
7.653000 0.729300
7.670300 0.664100
7.687600 0.599000
7.704900 0.576300
7.722200 0.598400
7.739500 0.625400
7.756800 0.614500
7.774100 0.555100
7.791400 0.470500
7.808700 0.393100
7.826000 0.339900
7.843300 0.305400
7.860600 0.280200
7.877900 0.272800
7.895200 0.302800
7.912500 0.370800
7.929900 0.446900
7.947200 0.502900
7.964500 0.549100
7.981800 0.626000
7.999100 0.758500
8.016400 0.926900
8.033700 1.090700
8.051000 1.231000
8.068300 1.352600
8.085600 1.442400
8.102900 1.456200
8.120200 1.367600
8.137500 1.213800
8.154800 1.069900
8.172100 0.984200
8.189400 0.950700
8.206700 0.935700
8.224000 0.921200
8.241300 0.920900
8.258600 0.962000
8.275900 1.059700
8.293200 1.207100
8.310500 1.369900
8.327800 1.490700
8.345100 1.520800
8.362400 1.455500
8.379700 1.325300
8.397000 1.155600
8.414300 0.954900
8.431600 0.740000
8.448900 0.549600
8.466200 0.418900
8.483500 0.349800
8.500800 0.315300
8.518100 0.288800
8.535400 0.261500
8.552700 0.240500
8.570000 0.244800
8.587300 0.295100
8.604600 0.392700
8.621900 0.502300
8.639200 0.565700
8.656500 0.543000
8.673800 0.450200
8.691100 0.355500
8.708400 0.330700
8.725700 0.397100
8.743000 0.513400
8.760300 0.620200
8.777600 0.695300
8.794900 0.760000
8.812200 0.835300
8.829500 0.910500
8.846800 0.961200
8.864100 0.978700
8.881400 0.970900
8.898700 0.954000
8.916000 0.957400
8.933300 1.018900
8.950600 1.145100
8.967900 1.279000
8.985200 1.332800
9.002500 1.262900
9.019800 1.102800
9.037200 0.921800
9.054500 0.767500
9.071800 0.657300
9.089100 0.608700
9.106400 0.655400
9.123700 0.822400
9.141000 1.080300
9.158300 1.335500
9.175600 1.493600
9.192900 1.544000
9.210200 1.563200
9.227500 1.625600
9.244800 1.727200
9.262100 1.806200
9.279400 1.817800
9.296700 1.765600
9.314000 1.672900
9.331300 1.556700
9.348600 1.436200
9.365900 1.342600
9.383200 1.310400
9.400500 1.357600
9.417800 1.466000
9.435100 1.572900
9.452400 1.597400
9.469700 1.494100
9.487000 1.294000
9.504300 1.086200
9.521600 0.950400
9.538900 0.901900
9.556200 0.897800
9.573500 0.885700
9.590800 0.842200
9.608100 0.776800
9.625400 0.713200
9.642700 0.668700
9.660000 0.644700
9.677300 0.631100
9.694600 0.613500
9.711900 0.580700
9.729200 0.538700
9.746500 0.521400
9.763800 0.577500
9.781100 0.727300
9.798400 0.924000
9.815700 1.069400
9.833000 1.087100
9.850300 0.986300
9.867600 0.854000
9.884900 0.786900
9.902200 0.827900
9.919500 0.960000
9.936800 1.137200
9.954100 1.301600
9.971400 1.390500
9.988700 1.366200
10.006000 1.251100
10.023300 1.120000
10.040600 1.050300
10.057900 1.076900
10.075200 1.183400
10.092500 1.330900
10.109800 1.489400
10.127100 1.637700
10.144500 1.741900
10.161800 1.755100
10.179100 1.650800
10.196400 1.453300
10.213700 1.237000
10.231000 1.092700
10.248300 1.076700
10.265600 1.168200
10.282900 1.274500
10.300200 1.297200
10.317500 1.207900
10.334800 1.063600
10.352100 0.949600
10.369400 0.915900
10.386700 0.963300
10.404000 1.065200
10.421300 1.179600
10.438600 1.251500
10.455900 1.238000
10.473200 1.147200
10.490500 1.043600
10.507800 1.003200
10.525100 1.066000
10.542400 1.229400
10.559700 1.455900
10.577000 1.664800
10.594300 1.743100
10.611600 1.610200
10.628900 1.288900
10.646200 0.899900
10.663500 0.581900
10.680800 0.427000
10.698100 0.472700
10.715400 0.711600
10.732700 1.078000
10.750000 1.446200
10.767300 1.685800
10.784600 1.744400
10.801900 1.674200
10.819200 1.568300
10.836500 1.476300
10.853800 1.382400
10.871100 1.256000
10.888400 1.106000
10.905700 0.980500
10.923000 0.921200
10.940300 0.933100
10.957600 0.998300
10.974900 1.102500
10.992200 1.230100
11.009500 1.336700
11.026800 1.354000
11.044100 1.251200
11.061400 1.083500
11.078700 0.952500
11.096000 0.920500
11.113300 0.975700
11.130600 1.064900
11.147900 1.135700
11.165200 1.158400
11.182500 1.135200
11.199800 1.089200
11.217100 1.037500
11.234400 0.985700
11.251800 0.954700
11.269100 0.992400
11.286400 1.137200
11.303700 1.361900
11.321000 1.565700
11.338300 1.638900
11.355600 1.539800
11.372900 1.312300
11.390200 1.042700
11.407500 0.810400
11.424800 0.665200
11.442100 0.621400
11.459400 0.660400
11.476700 0.735700
11.494000 0.785200
11.511300 0.771100
11.528600 0.725500
11.545900 0.743400
11.563200 0.902300
11.580500 1.181300
11.597800 1.464000
11.615100 1.626700
11.632400 1.616800
11.649700 1.458900
11.667000 1.214600
11.684300 0.954000
11.701600 0.739500
11.718900 0.602900
11.736200 0.539700
11.753500 0.539800
11.770800 0.618000
11.788100 0.792900
11.805400 1.034800
11.822700 1.257400
11.840000 1.385400
11.857300 1.424000
11.874600 1.444100
11.891900 1.503900
11.909200 1.605100
11.926500 1.717800
11.943800 1.813100
11.961100 1.864100
11.978400 1.841500
11.995700 1.725000
12.013000 1.518000
12.030300 1.255400
12.047600 0.994200
12.064900 0.784100
12.082200 0.650700
12.099500 0.610500
12.116800 0.683400
12.134100 0.871100
12.151400 1.131900
12.168700 1.385200
12.186000 1.547800
12.203300 1.584000
12.220600 1.538800
12.237900 1.507300
12.255200 1.551000
