set title 'mp-8638 - Density of States'
set xlabel 'Energy (eV)'
set ylabel 'DOS (states/eV)'
set grid
set xrange [-10:10]
set yrange [0:2.306]
set xzeroaxis lt -1
set terminal png size 800,600
set output 'mp-8638_dos_gnuplot.png'
plot '-' using 1:2 with lines title 'DOS'
-38.351600 0.000000
-38.272000 0.000000
-38.192400 0.000000
-38.112800 0.000000
-38.033100 0.000000
-37.953500 0.000000
-37.873900 0.000000
-37.794300 0.000000
-37.714600 0.000000
-37.635000 0.000000
-37.555400 0.000000
-37.475800 0.000000
-37.396200 0.000000
-37.316500 0.000000
-37.236900 0.000000
-37.157300 0.000000
-37.077700 0.000000
-36.998000 0.000000
-36.918400 0.000000
-36.838800 0.000000
-36.759200 0.000000
-36.679600 0.000000
-36.599900 0.000000
-36.520300 0.000000
-36.440700 0.000000
-36.361100 0.000000
-36.281500 0.000000
-36.201800 0.000000
-36.122200 0.000000
-36.042600 0.000000
-35.963000 0.000000
-35.883300 0.000000
-35.803700 0.000000
-35.724100 0.000000
-35.644500 0.000000
-35.564900 0.000000
-35.485200 0.000000
-35.405600 0.000000
-35.326000 0.000000
-35.246400 0.000000
-35.166800 0.000000
-35.087100 0.000000
-35.007500 0.000000
-34.927900 0.000000
-34.848300 0.000000
-34.768600 0.000000
-34.689000 0.000000
-34.609400 0.000000
-34.529800 0.000000
-34.450200 0.000000
-34.370500 0.000000
-34.290900 0.000000
-34.211300 0.000000
-34.131700 0.000000
-34.052000 0.000000
-33.972400 0.000000
-33.892800 0.000000
-33.813200 0.000000
-33.733600 0.000000
-33.653900 0.000000
-33.574300 0.000000
-33.494700 0.000000
-33.415100 0.000000
-33.335500 0.000000
-33.255800 0.000000
-33.176200 0.000000
-33.096600 0.000000
-33.017000 0.000000
-32.937300 0.000000
-32.857700 0.000000
-32.778100 0.000000
-32.698500 0.000000
-32.618900 0.000000
-32.539200 0.000000
-32.459600 0.000000
-32.380000 0.000000
-32.300400 0.000000
-32.220700 0.000000
-32.141100 0.000000
-32.061500 0.000000
-31.981900 0.000000
-31.902300 0.000000
-31.822600 0.000000
-31.743000 0.000000
-31.663400 0.000000
-31.583800 0.000000
-31.504200 0.000000
-31.424500 0.000000
-31.344900 0.000000
-31.265300 0.000000
-31.185700 0.000000
-31.106000 0.407400
-31.026400 2.059900
-30.946800 4.422400
-30.867200 7.418300
-30.787600 4.400700
-30.707900 1.463200
-30.628300 2.976200
-30.548700 3.538000
-30.469100 3.972800
-30.389500 4.349300
-30.309800 8.467600
-30.230200 8.955500
-30.150600 9.634600
-30.071000 7.205600
-29.991300 3.685900
-29.911700 0.000000
-29.832100 0.000000
-29.752500 0.000000
-29.672900 0.000000
-29.593200 0.000000
-29.513600 0.000000
-29.434000 0.000000
-29.354400 0.000000
-29.274700 0.000000
-29.195100 0.000000
-29.115500 0.000000
-29.035900 0.000000
-28.956300 0.000000
-28.876600 0.000000
-28.797000 0.000000
-28.717400 0.000000
-28.637800 0.000000
-28.558200 0.000000
-28.478500 0.000000
-28.398900 0.000000
-28.319300 0.000000
-28.239700 0.000000
-28.160000 0.000000
-28.080400 0.000000
-28.000800 0.000000
-27.921200 0.000000
-27.841600 0.000000
-27.761900 0.000000
-27.682300 0.000000
-27.602700 0.000000
-27.523100 0.000000
-27.443400 0.000000
-27.363800 0.000000
-27.284200 0.000000
-27.204600 0.000000
-27.125000 0.000000
-27.045300 0.000000
-26.965700 0.000000
-26.886100 0.000000
-26.806500 0.000000
-26.726900 0.000000
-26.647200 0.000000
-26.567600 0.000000
-26.488000 0.000000
-26.408400 0.000000
-26.328700 0.000000
-26.249100 0.000000
-26.169500 0.000000
-26.089900 0.000000
-26.010300 0.000000
-25.930600 0.000000
-25.851000 0.000000
-25.771400 0.000000
-25.691800 0.000000
-25.612200 0.000000
-25.532500 0.000000
-25.452900 0.000000
-25.373300 0.000000
-25.293700 0.000000
-25.214000 0.000000
-25.134400 0.000000
-25.054800 0.000000
-24.975200 0.000000
-24.895600 0.000000
-24.815900 0.000000
-24.736300 0.000000
-24.656700 0.000000
-24.577100 0.000000
-24.497400 0.000000
-24.417800 0.000000
-24.338200 0.000000
-24.258600 0.000000
-24.179000 0.000000
-24.099300 0.000000
-24.019700 0.000000
-23.940100 0.000000
-23.860500 0.000000
-23.780900 0.000000
-23.701200 0.000000
-23.621600 0.000000
-23.542000 0.000000
-23.462400 0.000000
-23.382700 0.000000
-23.303100 0.000000
-23.223500 0.000000
-23.143900 0.000000
-23.064300 0.000000
-22.984600 0.000000
-22.905000 0.000000
-22.825400 0.000000
-22.745800 0.000000
-22.666200 0.000000
-22.586500 0.000000
-22.506900 0.000000
-22.427300 0.000000
-22.347700 0.000000
-22.268000 0.000000
-22.188400 0.000000
-22.108800 0.000000
-22.029200 0.000000
-21.949600 0.000000
-21.869900 0.000000
-21.790300 0.000000
-21.710700 0.000000
-21.631100 0.000000
-21.551400 0.000000
-21.471800 0.000000
-21.392200 0.000000
-21.312600 0.000000
-21.233000 0.000000
-21.153300 0.000000
-21.073700 0.000000
-20.994100 0.000000
-20.914500 0.000000
-20.834900 0.000000
-20.755200 0.000000
-20.675600 0.000000
-20.596000 0.000000
-20.516400 0.000000
-20.436700 0.000000
-20.357100 0.000000
-20.277500 0.000000
-20.197900 0.000000
-20.118300 0.000000
-20.038600 0.000000
-19.959000 0.000000
-19.879400 0.000000
-19.799800 0.000000
-19.720100 0.000000
-19.640500 0.000000
-19.560900 0.000000
-19.481300 0.000000
-19.401700 0.000000
-19.322000 0.000000
-19.242400 0.000000
-19.162800 0.000000
-19.083200 0.000000
-19.003600 0.000000
-18.923900 0.000000
-18.844300 0.000000
-18.764700 0.000000
-18.685100 0.000000
-18.605400 0.000000
-18.525800 0.000000
-18.446200 0.000000
-18.366600 0.000000
-18.287000 0.000000
-18.207300 0.000000
-18.127700 0.000000
-18.048100 0.000000
-17.968500 0.000000
-17.888900 0.000000
-17.809200 0.000000
-17.729600 0.000000
-17.650000 0.000000
-17.570400 0.000000
-17.490700 0.000000
-17.411100 0.000000
-17.331500 0.000000
-17.251900 0.000000
-17.172300 0.000000
-17.092600 0.000000
-17.013000 0.000000
-16.933400 0.000000
-16.853800 0.000000
-16.774100 0.000000
-16.694500 0.000000
-16.614900 0.000000
-16.535300 0.000000
-16.455700 0.000000
-16.376000 0.000000
-16.296400 0.000000
-16.216800 0.000000
-16.137200 0.000000
-16.057600 0.000000
-15.977900 0.000000
-15.898300 0.000000
-15.818700 0.000000
-15.739100 0.000000
-15.659400 0.000000
-15.579800 0.000000
-15.500200 0.000000
-15.420600 0.000000
-15.341000 0.000000
-15.261300 0.000000
-15.181700 0.000000
-15.102100 0.000000
-15.022500 0.000000
-14.942800 0.000000
-14.863200 0.000000
-14.783600 0.000000
-14.704000 0.000000
-14.624400 0.000000
-14.544700 0.000000
-14.465100 0.000000
-14.385500 0.000000
-14.305900 0.000000
-14.226300 0.000000
-14.146600 0.000000
-14.067000 0.000000
-13.987400 0.000000
-13.907800 0.000000
-13.828100 0.000000
-13.748500 0.000000
-13.668900 0.000000
-13.589300 0.000000
-13.509700 0.000000
-13.430000 0.000000
-13.350400 0.000000
-13.270800 0.000000
-13.191200 0.000000
-13.111600 0.000000
-13.031900 0.000000
-12.952300 0.000000
-12.872700 0.000000
-12.793100 0.000000
-12.713400 0.000000
-12.633800 0.000000
-12.554200 0.000000
-12.474600 0.000000
-12.395000 0.000000
-12.315300 0.000000
-12.235700 0.000000
-12.156100 0.000000
-12.076500 0.000000
-11.996800 0.000000
-11.917200 0.000000
-11.837600 0.000000
-11.758000 0.000000
-11.678400 0.000000
-11.598700 0.000000
-11.519100 0.000000
-11.439500 0.000000
-11.359900 0.000000
-11.280300 0.000000
-11.200600 0.000000
-11.121000 0.000000
-11.041400 0.000000
-10.961800 0.000000
-10.882100 0.000000
-10.802500 0.000000
-10.722900 0.000000
-10.643300 0.000000
-10.563700 0.000000
-10.484000 0.000000
-10.404400 0.000000
-10.324800 0.000000
-10.245200 0.000000
-10.165500 0.000000
-10.085900 0.000000
-10.006300 0.000000
-9.926700 0.000000
-9.847100 0.000000
-9.767400 0.000000
-9.687800 0.000000
-9.608200 0.000000
-9.528600 0.000000
-9.449000 0.000000
-9.369300 0.000000
-9.289700 0.000000
-9.210100 0.000000
-9.130500 0.000000
-9.050800 0.000000
-8.971200 0.000000
-8.891600 0.000000
-8.812000 0.000000
-8.732400 0.000000
-8.652700 0.000000
-8.573100 0.000000
-8.493500 0.000000
-8.413900 0.000000
-8.334300 0.000000
-8.254600 0.000000
-8.175000 0.000000
-8.095400 0.000000
-8.015800 0.000000
-7.936100 0.000000
-7.856500 0.000000
-7.776900 0.000000
-7.697300 0.000000
-7.617700 0.000000
-7.538000 0.000000
-7.458400 0.000000
-7.378800 0.000000
-7.299200 0.000000
-7.219500 0.000000
-7.139900 0.000000
-7.060300 0.000000
-6.980700 0.000000
-6.901100 0.000000
-6.821400 0.000000
-6.741800 0.000000
-6.662200 0.000000
-6.582600 0.000000
-6.503000 0.000000
-6.423300 0.000000
-6.343700 0.000000
-6.264100 0.000000
-6.184500 0.000000
-6.104800 0.000000
-6.025200 0.000000
-5.945600 0.000000
-5.866000 0.000000
-5.786400 0.000000
-5.706700 0.000000
-5.627100 0.000000
-5.547500 0.000000
-5.467900 0.000000
-5.388200 0.000000
-5.308600 0.000000
-5.229000 0.000000
-5.149400 0.000000
-5.069800 0.000000
-4.990100 0.000000
-4.910500 0.000000
-4.830900 0.000000
-4.751300 0.000000
-4.671700 0.000000
-4.592000 0.000000
-4.512400 0.000000
-4.432800 0.000000
-4.353200 0.000000
-4.273500 0.000000
-4.193900 0.000000
-4.114300 0.000000
-4.034700 0.000000
-3.955100 0.000000
-3.875400 0.000000
-3.795800 0.000000
-3.716200 0.000000
-3.636600 0.000000
-3.557000 0.000000
-3.477300 0.000000
-3.397700 0.000000
-3.318100 0.000000
-3.238500 0.000000
-3.158800 0.000000
-3.079200 0.000000
-2.999600 0.000000
-2.920000 0.000000
-2.840400 0.000000
-2.760700 0.000000
-2.681100 0.000000
-2.601500 0.000000
-2.521900 0.000000
-2.442200 0.000000
-2.362600 0.000000
-2.283000 0.000000
-2.203400 0.000000
-2.123800 0.000000
-2.044100 0.000000
-1.964500 0.000000
-1.884900 0.000000
-1.805300 0.000000
-1.725700 0.000000
-1.646000 0.000000
-1.566400 0.000000
-1.486800 0.000000
-1.407200 0.000000
-1.327500 0.000000
-1.247900 0.000000
-1.168300 0.000000
-1.088700 0.000000
-1.009100 0.000000
-0.929400 0.000000
-0.849800 0.000000
-0.770200 0.000000
-0.690600 0.000000
-0.611000 0.000000
-0.531300 0.000000
-0.451700 0.000000
-0.372100 0.000000
-0.292500 0.000000
-0.212800 0.000000
-0.133200 0.000000
-0.053600 0.000000
0.026000 0.000000
0.105600 0.000000
0.185300 0.000000
0.264900 0.000000
0.344500 0.000000
0.424100 0.000000
0.503800 0.000000
0.583400 0.000000
0.663000 0.000000
0.742600 0.000000
0.822200 0.000000
0.901900 0.000000
0.981500 0.000000
1.061100 0.006500
1.140700 0.018800
1.220300 0.025500
1.300000 0.031800
1.379600 0.036400
1.459200 0.042400
1.538800 0.046200
1.618500 0.050700
1.698100 0.055700
1.777700 0.060200
1.857300 0.064300
1.936900 0.069200
2.016600 0.074400
2.096200 0.079100
2.175800 0.084300
2.255400 0.089800
2.335100 0.095600
2.414700 0.102300
2.494300 0.109200
2.573900 0.116400
2.653500 0.173400
2.733200 0.235100
2.812800 0.286400
2.892400 0.333100
2.972000 0.385400
3.051600 0.587900
3.131300 0.799500
3.210900 0.930800
3.290500 1.046800
3.370100 1.152700
3.449800 1.252800
3.529400 1.418000
3.609000 1.490400
3.688600 1.594900
3.768200 1.757800
3.847900 1.952200
3.927500 1.705100
4.007100 1.592400
4.086700 1.552500
4.166300 1.497200
4.246000 1.411500
4.325600 1.321800
4.405200 1.235900
4.484800 1.163200
4.564500 1.094300
4.644100 0.981900
4.723700 0.907600
4.803300 0.880100
4.882900 0.960400
4.962600 1.255300
5.042200 1.187500
5.121800 1.199000
5.201400 1.193400
5.281100 1.190600
5.360700 1.113300
5.440300 1.034400
5.519900 0.976300
5.599500 0.985300
5.679200 0.946000
5.758800 0.975400
5.838400 1.097200
5.918000 1.198200
5.997600 1.187300
6.077300 1.235600
6.156900 1.174400
6.236500 1.188300
6.316100 1.223600
6.395800 1.286500
6.475400 1.336700
6.555000 1.510200
6.634600 1.568000
6.714200 1.681000
6.793900 1.777700
6.873500 1.974000
6.953100 1.904200
7.032700 2.096600
7.112400 1.973900
7.192000 1.536400
7.271600 1.238900
7.351200 1.100700
7.430800 1.168400
7.510500 1.291300
7.590100 1.230900
7.669700 1.084500
7.749300 1.034800
7.828900 1.019100
7.908600 0.999300
7.988200 0.959400
8.067800 0.931000
8.147400 0.974600
8.227100 1.003600
8.306700 1.094800
8.386300 1.189700
8.465900 1.213100
8.545500 1.218400
8.625200 1.254100
8.704800 1.313700
8.784400 1.359900
8.864000 1.220400
8.943600 1.061000
9.023300 0.972500
9.102900 0.932400
9.182500 1.134200
9.262100 1.021500
9.341800 0.984500
9.421400 0.956800
9.501000 0.931800
9.580600 0.917600
9.660200 0.904200
9.739900 0.897900
9.819500 0.894000
9.899100 0.896300
9.978700 0.902900
10.058400 0.910400
10.138000 0.925700
10.217600 0.939500
10.297200 0.960500
10.376800 0.992600
10.456500 1.026800
10.536100 1.077400
10.615700 1.146100
10.695300 1.223900
10.774900 1.375600
10.854600 1.670300
10.934200 1.696600
11.013800 1.709400
11.093400 1.766300
11.173100 1.354700
11.252700 1.184300
11.332300 1.005100
11.411900 0.847300
11.491500 0.730800
11.571200 0.735800
11.650800 0.543100
11.730400 0.253200
11.810000 0.253800
11.889700 0.254200
11.969300 0.254600
12.048900 0.255100
12.128500 0.256000
12.208100 0.256600
12.287800 0.257400
12.367400 0.258900
12.447000 0.259500
12.526600 0.260500
12.606200 0.261200
12.685900 0.262200
12.765500 0.263000
12.845100 0.263500
12.924700 0.263500
13.004400 0.263100
13.084000 0.263400
13.163600 0.263600
13.243200 0.263600
13.322800 0.263500
13.402500 0.263400
13.482100 0.263300
13.561700 0.262700
13.641300 0.262400
13.720900 0.261900
13.800600 0.261200
13.880200 0.260700
13.959800 0.259900
14.039400 0.259000
14.119100 0.257900
14.198700 0.256700
14.278300 0.255700
14.357900 0.254900
14.437500 0.253700
14.517200 0.252200
14.596800 0.250700
14.676400 0.249000
14.756000 0.246900
14.835700 0.245000
14.915300 0.243100
14.994900 0.241200
15.074500 0.239200
15.154100 0.237400
15.233800 0.235400
15.313400 0.232700
15.393000 0.229700
15.472600 0.226800
15.552200 0.224000
15.631900 0.221200
15.711500 0.217900
15.791100 0.214700
15.870700 0.211900
15.950400 0.209000
16.030000 0.206100
16.109600 0.202100
16.189200 0.197500
16.268800 0.192800
16.348500 0.188800
16.428100 0.185300
16.507700 0.181800
16.587300 0.177500
16.666900 0.172900
16.746600 0.167700
16.826200 0.162700
16.905800 0.157900
16.985400 0.152900
17.065100 0.147200
17.144700 0.141200
17.224300 0.138800
17.303900 0.130800
17.383500 0.123200
17.463200 0.114000
17.542800 0.104900
17.622400 0.093900
17.702000 0.083500
17.781700 0.073300
17.861300 0.063000
17.940900 0.059000
18.020500 0.059200
18.100100 0.063400
18.179800 0.095700
18.259400 0.161600
18.339000 0.281900
18.418600 0.449500
18.498200 0.478400
18.577900 0.495400
18.657500 0.497600
18.737100 0.491200
18.816700 0.506900
18.896400 0.506300
18.976000 0.467700
19.055600 0.434900
19.135200 0.422300
19.214800 0.419800
19.294500 0.427300
19.374100 0.451000
19.453700 0.502900
19.533300 0.593400
19.613000 0.817000
19.692600 2.551500
19.772200 0.865300
19.851800 0.591800
19.931400 0.477300
20.011100 0.416900
20.090700 0.381800
20.170300 0.356100
20.249900 0.340400
20.329500 0.329900
20.409200 0.322800
20.488800 0.318400
20.568400 0.314800
20.648000 0.311900
20.727700 0.310000
20.807300 0.323800
20.886900 0.325600
20.966500 0.330900
21.046100 0.335500
21.125800 0.341600
21.205400 0.348000
21.285000 0.354800
21.364600 0.362500
21.444200 0.376800
21.523900 0.393400
21.603500 0.418700
21.683100 0.461300
21.762700 0.555000
21.842400 0.519500
21.922000 0.529900
22.001600 0.593300
22.081200 0.563100
22.160800 0.565700
22.240500 0.561000
22.320100 0.559200
22.399700 0.527200
22.479300 0.544000
22.559000 0.588000
22.638600 0.611000
22.718200 0.627800
22.797800 0.634900
22.877400 0.621300
22.957100 0.613500
23.036700 0.596900
23.116300 0.616100
23.195900 0.643800
23.275500 0.653500
23.355200 0.654200
23.434800 0.662900
23.514400 0.675900
23.594000 0.689600
23.673700 0.707200
23.753300 0.722800
23.832900 0.738500
23.912500 0.753100
23.992100 0.777300
24.071800 0.793400
24.151400 0.816100
24.231000 0.845100
24.310600 0.883500
24.390300 0.946200
24.469900 1.081000
24.549500 1.056000
24.629100 1.043000
24.708700 1.029800
24.788400 0.921900
24.868000 0.864200
24.947600 0.823000
25.027200 0.798000
25.106800 0.780600
25.186500 0.753200
25.266100 0.726500
25.345700 0.702800
25.425300 0.678700
25.505000 0.650400
25.584600 0.627000
25.664200 0.627500
25.743800 0.657700
25.823400 0.695500
25.903100 0.715800
25.982700 0.751100
26.062300 0.726900
26.141900 0.719700
26.221500 0.702500
26.301200 0.687400
26.380800 0.675600
26.460400 0.666200
26.540000 0.660200
26.619700 0.591800
26.699300 0.559200
26.778900 0.540400
26.858500 0.524400
26.938100 0.529400
27.017800 0.558900
27.097400 0.560500
27.177000 0.537600
27.256600 0.510000
27.336300 0.450600
27.415900 0.413900
27.495500 0.406700
27.575100 0.355300
27.654700 0.307100
27.734400 0.283600
27.814000 0.263600
27.893600 0.248000
27.973200 0.238500
28.052800 0.230900
28.132500 0.227800
28.212100 0.228200
28.291700 0.231400
28.371300 0.240600
28.451000 0.251800
28.530600 0.269100
28.610200 0.287600
28.689800 0.316800
28.769400 0.353500
28.849100 0.372100
28.928700 0.383100
29.008300 0.406400
29.087900 0.432200
29.167600 0.470500
29.247200 0.544200
29.326800 0.637700
29.406400 0.771800
29.486000 0.910300
29.565700 0.972500
29.645300 0.845800
29.724900 0.838400
29.804500 0.841000
29.884100 0.849700
29.963800 0.833500
30.043400 0.831300
30.123000 0.811400
30.202600 0.796500
30.282300 0.785200
30.361900 0.775400
30.441500 0.767400
30.521100 0.756500
30.600700 0.740500
30.680400 0.727200
30.760000 0.717200
30.839600 0.706500
30.919200 0.692700
30.998800 0.679500
31.078500 0.667100
31.158100 0.656600
31.237700 0.647800
31.317300 0.643700
31.397000 0.664200
31.476600 0.647900
31.556200 0.640700
31.635800 0.627900
31.715400 0.612100
31.795100 0.579300
31.874700 0.528100
31.954300 0.481600
32.033900 0.432800
32.113600 0.396600
32.193200 0.371200
32.272800 0.346200
32.352400 0.328900
32.432000 0.314700
32.511700 0.311400
32.591300 0.293300
32.670900 0.309400
32.750500 0.301800
32.830100 0.264700
32.909800 0.255600
32.989400 0.252500
33.069000 0.250300
33.148600 0.253800
33.228300 0.260400
33.307900 0.265000
33.387500 0.274900
33.467100 0.286700
33.546700 0.301000
33.626400 0.319600
33.706000 0.346800
33.785600 0.389900
33.865200 0.413800
33.944900 0.460700
34.024500 0.494800
34.104100 0.546400
34.183700 0.615100
34.263300 0.663500
34.343000 0.638200
34.422600 0.618200
34.502200 0.609600
34.581800 0.613300
34.661400 0.618200
34.741100 0.620500
34.820700 0.625900
34.900300 0.635500
34.979900 0.634700
35.059600 0.635600
35.139200 0.633700
35.218800 0.632600
35.298400 0.630000
35.378000 0.627900
35.457700 0.629500
35.537300 0.630100
35.616900 0.642600
35.696500 0.644200
35.776100 0.645600
35.855800 0.641900
35.935400 0.643200
36.015000 0.642800
36.094600 0.621700
36.174300 0.599900
36.253900 0.584500
36.333500 0.555600
36.413100 0.553900
36.492700 0.569800
36.572400 0.599000
36.652000 0.622200
36.731600 0.639300
36.811200 0.674600
36.890900 0.694400
36.970500 0.658600
37.050100 0.638000
37.129700 0.628500
37.209300 0.630700
37.289000 0.838400
37.368600 0.881200
37.448200 0.938700
37.527800 1.080900
37.607400 1.087900
37.687100 1.029200
37.766700 1.030200
37.846300 1.058600
37.925900 1.104200
38.005600 1.169100
38.085200 1.288800
38.164800 1.273200
38.244400 1.147800
38.324000 1.049100
38.403700 0.941200
38.483300 0.892400
38.562900 0.839600
38.642500 0.803100
38.722100 0.768700
38.801800 0.739400
38.881400 0.717000
38.961000 0.704900
39.040600 0.702900
39.120300 0.711300
39.199900 0.736300
39.279500 0.727700
39.359100 0.701900
39.438700 0.680000
39.518400 0.667900
39.598000 0.664700
39.677600 0.659400
39.757200 0.626900
39.836900 0.610500
39.916500 0.572000
39.996100 0.557400
40.075700 0.535900
40.155300 0.548700
40.235000 0.535500
40.314600 0.516000
40.394200 0.493300
40.473800 0.472700
40.553400 0.457000
40.633100 0.465900
40.712700 0.458300
40.792300 0.465000
40.871900 0.487800
40.951600 0.517800
41.031200 0.511300
41.110800 0.527700
41.190400 0.535300
41.270000 0.533100
41.349700 0.533800
41.429300 0.532500
41.508900 0.536900
41.588500 0.564800
41.668200 0.565200
41.747800 0.562900
41.827400 0.563400
41.907000 0.556200
41.986600 0.550500
42.066300 0.543300
42.145900 0.541000
42.225500 0.544500
42.305100 0.545800
42.384700 0.550200
42.464400 0.547800
42.544000 0.551800
42.623600 0.557800
42.703200 0.560300
42.782900 0.567600
42.862500 0.573900
42.942100 0.580300
43.021700 0.597500
43.101300 0.613300
43.181000 0.641300
43.260600 0.641100
