set title 'mp-1186463 - Density of States'
set xlabel 'Energy (eV)'
set ylabel 'DOS (states/eV)'
set grid
set xrange [-10:10]
set yrange [0:11.045]
set xzeroaxis lt -1
set terminal png size 800,600
set output 'mp-1186463_dos_gnuplot.png'
plot '-' using 1:2 with lines title 'DOS'
-15.873500 0.000000
-15.850800 0.000000
-15.828200 0.000000
-15.805600 0.000000
-15.782900 0.000000
-15.760300 0.000000
-15.737700 0.000000
-15.715000 0.000000
-15.692400 0.000000
-15.669700 0.000000
-15.647100 0.000000
-15.624500 0.000000
-15.601800 0.000000
-15.579200 0.000000
-15.556600 0.000000
-15.533900 0.000000
-15.511300 0.000000
-15.488700 0.000000
-15.466000 0.000000
-15.443400 0.000000
-15.420700 0.000000
-15.398100 0.000000
-15.375500 0.000000
-15.352800 0.000000
-15.330200 0.000000
-15.307600 0.000000
-15.284900 0.000000
-15.262300 0.000000
-15.239700 0.000000
-15.217000 0.000000
-15.194400 0.000000
-15.171700 0.000000
-15.149100 0.000000
-15.126500 0.000000
-15.103800 0.000000
-15.081200 0.000000
-15.058600 0.000000
-15.035900 0.000000
-15.013300 0.000000
-14.990700 0.000000
-14.968000 0.000000
-14.945400 0.000000
-14.922700 0.000000
-14.900100 0.000000
-14.877500 0.000000
-14.854800 0.000000
-14.832200 0.000000
-14.809600 0.000000
-14.786900 0.000000
-14.764300 0.000000
-14.741700 0.000000
-14.719000 0.000000
-14.696400 0.000000
-14.673700 0.000000
-14.651100 0.000000
-14.628500 0.000000
-14.605800 0.000000
-14.583200 0.000000
-14.560600 0.000000
-14.537900 0.000000
-14.515300 0.000000
-14.492700 0.000000
-14.470000 0.000000
-14.447400 0.000000
-14.424700 0.000000
-14.402100 0.000000
-14.379500 0.000000
-14.356800 0.000000
-14.334200 0.000000
-14.311600 0.000000
-14.288900 0.000000
-14.266300 0.000000
-14.243600 0.000000
-14.221000 0.000000
-14.198400 0.000000
-14.175700 0.000000
-14.153100 0.000000
-14.130500 0.000000
-14.107800 0.000000
-14.085200 0.000000
-14.062600 0.000000
-14.039900 0.000000
-14.017300 0.000000
-13.994600 0.000000
-13.972000 0.000000
-13.949400 0.000000
-13.926700 0.000000
-13.904100 0.000000
-13.881500 0.000000
-13.858800 0.000000
-13.836200 0.000000
-13.813600 0.006600
-13.790900 0.088900
-13.768300 0.171200
-13.745600 0.253500
-13.723000 0.335900
-13.700400 0.323800
-13.677700 0.296300
-13.655100 0.268700
-13.632500 0.241200
-13.609800 0.238400
-13.587200 0.247700
-13.564600 0.257000
-13.541900 0.266400
-13.519300 0.275700
-13.496600 0.285000
-13.474000 0.294400
-13.451400 0.303700
-13.428700 0.307200
-13.406100 0.294300
-13.383500 0.281300
-13.360800 0.268400
-13.338200 0.258100
-13.315600 0.260000
-13.292900 0.261900
-13.270300 0.263900
-13.247600 0.265800
-13.225000 0.267700
-13.202400 0.269600
-13.179700 0.271600
-13.157100 0.273500
-13.134500 0.275400
-13.111800 0.277300
-13.089200 0.279300
-13.066600 0.281200
-13.043900 0.284400
-13.021300 0.288000
-12.998600 0.291700
-12.976000 0.295300
-12.953400 0.295200
-12.930700 0.289200
-12.908100 0.283100
-12.885500 0.277100
-12.862800 0.273200
-12.840200 0.273400
-12.817600 0.273600
-12.794900 0.273900
-12.772300 0.274100
-12.749600 0.274300
-12.727000 0.274500
-12.704400 0.274700
-12.681700 0.275000
-12.659100 0.275200
-12.636500 0.275400
-12.613800 0.275600
-12.591200 0.277500
-12.568600 0.279100
-12.545900 0.280800
-12.523300 0.282400
-12.500600 0.284100
-12.478000 0.285700
-12.455400 0.287400
-12.432700 0.289000
-12.410100 0.290700
-12.387500 0.292300
-12.364800 0.294000
-12.342200 0.295600
-12.319500 0.297300
-12.296900 0.296400
-12.274300 0.292500
-12.251600 0.288600
-12.229000 0.284800
-12.206400 0.283100
-12.183700 0.282800
-12.161100 0.282500
-12.138500 0.282600
-12.115800 0.283000
-12.093200 0.283400
-12.070500 0.283800
-12.047900 0.284100
-12.025300 0.284500
-12.002600 0.284900
-11.980000 0.285300
-11.957400 0.285800
-11.934700 0.286600
-11.912100 0.287500
-11.889500 0.288400
-11.866800 0.289300
-11.844200 0.290100
-11.821500 0.291000
-11.798900 0.291900
-11.776300 0.292700
-11.753600 0.293600
-11.731000 0.294500
-11.708400 0.295300
-11.685700 0.296200
-11.663100 0.297100
-11.640500 0.298000
-11.617800 0.298800
-11.595200 0.299700
-11.572500 0.300600
-11.549900 0.301400
-11.527300 0.305200
-11.504600 0.306700
-11.482000 0.308200
-11.459400 0.701600
-11.436700 0.680600
-11.414100 0.659500
-11.391500 0.372000
-11.368800 0.365600
-11.346200 0.359300
-11.323500 0.352900
-11.300900 0.346500
-11.278300 0.340100
-11.255600 0.333800
-11.233000 0.327400
-11.210400 0.321000
-11.187700 0.314600
-11.165100 0.308200
-11.142500 0.252900
-11.119800 0.249000
-11.097200 0.245100
-11.074500 0.241200
-11.051900 0.237300
-11.029300 0.233500
-11.006600 0.229600
-10.984000 0.225700
-10.961400 0.222900
-10.938700 0.220300
-10.916100 0.217600
-10.893500 0.215000
-10.870800 0.212300
-10.848200 0.209700
-10.825500 0.207000
-10.802900 0.204400
-10.780300 0.184500
-10.757600 0.181600
-10.735000 0.178700
-10.712400 0.175800
-10.689700 0.173000
-10.667100 0.268500
-10.644500 0.392900
-10.621800 0.517400
-10.599200 0.594200
-10.576500 0.547700
-10.553900 0.501200
-10.531300 0.464400
-10.508600 0.481100
-10.486000 0.986200
-10.463400 1.032700
-10.440700 1.079200
-10.418100 0.810200
-10.395400 0.839500
-10.372800 0.842700
-10.350200 0.831700
-10.327500 0.858700
-10.304900 0.875000
-10.282300 0.891400
-10.259600 0.907700
-10.237000 0.924000
-10.214400 0.890000
-10.191700 0.907600
-10.169100 0.925200
-10.146400 0.955700
-10.123800 0.987000
-10.101200 1.018400
-10.078500 1.049700
-10.055900 1.077400
-10.033300 1.099600
-10.010600 1.120900
-9.988000 1.142200
-9.965400 1.163600
-9.942700 1.232400
-9.920100 1.373300
-9.897400 1.446200
-9.874800 1.446700
-9.852200 1.522900
-9.829500 1.599200
-9.806900 1.755000
-9.784300 1.929400
-9.761600 3.294100
-9.739000 4.021100
-9.716400 0.025700
-9.693700 1.176200
-9.671100 1.801000
-9.648400 1.269600
-9.625800 0.688300
-9.603200 0.721100
-9.580500 0.753800
-9.557900 0.925700
-9.535300 1.001200
-9.512600 1.076700
-9.490000 2.207500
-9.467400 0.995400
-9.444700 0.986200
-9.422100 0.977100
-9.399400 0.967900
-9.376800 0.958800
-9.354200 0.928600
-9.331500 0.742800
-9.308900 0.576800
-9.286300 0.534900
-9.263600 0.493000
-9.241000 0.457600
-9.218400 0.429300
-9.195700 0.406700
-9.173100 0.395400
-9.150400 0.384100
-9.127800 0.372800
-9.105200 0.265200
-9.082500 0.262500
-9.059900 0.259900
-9.037300 0.257200
-9.014600 0.254600
-8.992000 0.251900
-8.969400 0.249300
-8.946700 0.246600
-8.924100 0.244000
-8.901400 0.241300
-8.878800 0.238700
-8.856200 0.236100
-8.833500 0.233400
-8.810900 0.230800
-8.788300 0.228100
-8.765600 0.225500
-8.743000 0.222800
-8.720400 0.220200
-8.697700 0.217500
-8.675100 0.214900
-8.652400 0.212200
-8.629800 0.209600
-8.607200 0.206900
-8.584500 0.204300
-8.561900 0.201700
-8.539300 0.199000
-8.516600 0.196400
-8.494000 0.193700
-8.471300 0.194100
-8.448700 0.194600
-8.426100 0.195100
-8.403400 0.195600
-8.380800 0.196100
-8.358200 0.196600
-8.335500 0.197000
-8.312900 0.197500
-8.290300 0.198000
-8.267600 0.198500
-8.245000 0.199000
-8.222300 0.199500
-8.199700 0.200000
-8.177100 0.166800
-8.154400 0.168600
-8.131800 0.170500
-8.109200 0.169700
-8.086500 0.168100
-8.063900 0.166500
-8.041300 0.164900
-8.018600 0.163400
-7.996000 0.161800
-7.973300 0.160200
-7.950700 0.158600
-7.928100 0.157000
-7.905400 0.155400
-7.882800 0.153800
-7.860200 0.152300
-7.837500 0.150700
-7.814900 0.149100
-7.792300 0.147500
-7.769600 0.145900
-7.747000 0.144300
-7.724300 0.142800
-7.701700 0.141200
-7.679100 0.139600
-7.656400 0.138000
-7.633800 0.136400
-7.611200 0.134800
-7.588500 0.133200
-7.565900 0.131700
-7.543300 0.130100
-7.520600 0.128500
-7.498000 0.126900
-7.475300 0.125300
-7.452700 0.123700
-7.430100 0.122100
-7.407400 0.120600
-7.384800 0.119300
-7.362200 0.119200
-7.339500 0.119100
-7.316900 0.119000
-7.294300 0.118900
-7.271600 0.118800
-7.249000 0.118700
-7.226300 0.118600
-7.203700 0.118500
-7.181100 0.118400
-7.158400 0.118300
-7.135800 0.118100
-7.113200 0.118000
-7.090500 0.117900
-7.067900 0.117800
-7.045300 0.117700
-7.022600 0.117600
-7.000000 0.117500
-6.977300 0.117400
-6.954700 0.097200
-6.932100 0.098400
-6.909400 0.099600
-6.886800 0.100700
-6.864200 0.101900
-6.841500 0.102500
-6.818900 0.101400
-6.796300 0.100200
-6.773600 0.099100
-6.751000 0.098000
-6.728300 0.096800
-6.705700 0.095700
-6.683100 0.094600
-6.660400 0.093400
-6.637800 0.092300
-6.615200 0.091200
-6.592500 0.090000
-6.569900 0.088900
-6.547200 0.087800
-6.524600 0.086700
-6.502000 0.085500
-6.479300 0.084400
-6.456700 0.083300
-6.434100 0.082100
-6.411400 0.081000
-6.388800 0.079900
-6.366200 0.078700
-6.343500 0.077600
-6.320900 0.076500
-6.298200 0.075300
-6.275600 0.074200
-6.253000 0.073100
-6.230300 0.071900
-6.207700 0.070800
-6.185100 0.069700
-6.162400 0.068500
-6.139800 0.067400
-6.117200 0.066300
-6.094500 0.065200
-6.071900 0.064000
-6.049200 0.062900
-6.026600 0.063900
-6.004000 0.065200
-5.981300 0.066500
-5.958700 0.067900
-5.936100 0.069200
-5.913400 0.070500
-5.890800 0.071800
-5.868200 0.073100
-5.845500 0.074500
-5.822900 0.075800
-5.800200 0.077100
-5.777600 0.078400
-5.755000 0.079700
-5.732300 0.081100
-5.709700 0.082400
-5.687100 0.064500
-5.664400 0.061900
-5.641800 0.059300
-5.619200 0.056600
-5.596500 0.054000
-5.573900 0.051400
-5.551200 0.048800
-5.528600 0.046100
-5.506000 0.043500
-5.483300 0.040900
-5.460700 0.038200
-5.438100 0.035600
-5.415400 0.033000
-5.392800 0.030300
-5.370200 0.027700
-5.347500 0.025100
-5.324900 0.022400
-5.302200 0.019800
-5.279600 0.017200
-5.257000 0.014500
-5.234300 0.011900
-5.211700 0.009300
-5.189100 0.006700
-5.166400 0.004000
-5.143800 0.083500
-5.121200 0.089800
-5.098500 0.097600
-5.075900 0.105400
-5.053200 0.113200
-5.030600 0.120900
-5.008000 0.128700
-4.985300 0.136500
-4.962700 0.144200
-4.940100 0.152000
-4.917400 0.159800
-4.894800 0.209000
-4.872100 0.217900
-4.849500 0.226800
-4.826900 0.238800
-4.804200 0.292800
-4.781600 0.346700
-4.759000 0.400600
-4.736300 0.454600
-4.713700 0.195800
-4.691100 0.199600
-4.668400 0.203400
-4.645800 0.207200
-4.623100 0.211000
-4.600500 0.214800
-4.577900 0.218600
-4.555200 0.222400
-4.532600 0.226100
-4.510000 0.229900
-4.487300 0.233700
-4.464700 0.237500
-4.442100 0.241300
-4.419400 0.245100
-4.396800 0.248900
-4.374100 0.252700
-4.351500 0.256500
-4.328900 0.260300
-4.306200 0.264100
-4.283600 0.267900
-4.261000 0.602800
-4.238300 0.436000
-4.215700 0.269300
-4.193100 0.271700
-4.170400 0.274600
-4.147800 0.277600
-4.125100 0.280600
-4.102500 0.283500
-4.079900 0.269400
-4.057200 0.272300
-4.034600 0.275200
-4.012000 0.278100
-3.989300 0.281100
-3.966700 0.284000
-3.944100 0.286900
-3.921400 0.289800
-3.898800 0.292700
-3.876100 0.295700
-3.853500 0.298600
-3.830900 0.301500
-3.808200 0.304400
-3.785600 0.307400
-3.763000 0.340300
-3.740300 0.343900
-3.717700 0.638200
-3.695100 0.673200
-3.672400 0.708300
-3.649800 0.743400
-3.627100 0.778500
-3.604500 0.626500
-3.581900 0.647700
-3.559200 0.668900
-3.536600 0.690100
-3.514000 0.811100
-3.491300 0.826400
-3.468700 0.841800
-3.446100 0.857100
-3.423400 0.872400
-3.400800 0.887800
-3.378100 0.919200
-3.355500 0.950800
-3.332900 0.982400
-3.310200 1.014000
-3.287600 1.045600
-3.265000 1.212600
-3.242300 0.967100
-3.219700 0.711800
-3.197100 0.464400
-3.174400 0.455700
-3.151800 0.528300
-3.129100 0.644500
-3.106500 0.760700
-3.083900 0.940900
-3.061200 1.212100
-3.038600 1.440000
-3.016000 1.604100
-2.993300 1.768200
-2.970700 1.932300
-2.948000 1.181700
-2.925400 0.819500
-2.902800 0.814300
-2.880100 0.809000
-2.857500 1.167200
-2.834900 1.225200
-2.812200 1.283200
-2.789600 1.341200
-2.767000 1.192900
-2.744300 1.178000
-2.721700 1.205400
-2.699000 1.426200
-2.676400 1.623100
-2.653800 1.570500
-2.631100 1.518100
-2.608500 1.465600
-2.585900 1.437700
-2.563200 1.426800
-2.540600 1.428900
-2.518000 1.445500
-2.495300 1.376500
-2.472700 1.121000
-2.450000 1.007900
-2.427400 1.012900
-2.404800 1.018000
-2.382100 1.023000
-2.359500 1.024200
-2.336900 1.020700
-2.314200 1.017300
-2.291600 1.013900
-2.269000 1.011400
-2.246300 1.012200
-2.223700 1.031500
-2.201000 1.078400
-2.178400 1.125300
-2.155800 1.172400
-2.133100 1.031900
-2.110500 1.213700
-2.087900 1.436400
-2.065200 1.610300
-2.042600 1.666700
-2.020000 1.669000
-1.997300 1.646500
-1.974700 1.735200
-1.952000 1.703100
-1.929400 1.674200
-1.906800 1.637600
-1.884100 1.604200
-1.861500 1.571000
-1.838900 1.629300
-1.816200 2.185800
-1.793600 2.374700
-1.771000 2.511800
-1.748300 2.599500
-1.725700 2.969100
-1.703000 2.744800
-1.680400 2.489300
-1.657800 2.140000
-1.635100 1.793400
-1.612500 2.139800
-1.589900 2.024400
-1.567200 1.930300
-1.544600 1.860300
-1.522000 1.771700
-1.499300 1.695000
-1.476700 1.611200
-1.454000 1.855800
-1.431400 1.607300
-1.408800 1.902300
-1.386100 2.211200
-1.363500 2.883900
-1.340900 1.423200
-1.318200 1.293900
-1.295600 1.251300
-1.273000 1.246800
-1.250300 1.245100
-1.227700 1.223500
-1.205000 1.172200
-1.182400 1.111400
-1.159800 1.197000
-1.137100 1.147100
-1.114500 1.084000
-1.091900 0.930200
-1.069200 1.116600
-1.046600 1.129400
-1.023900 1.195000
-1.001300 1.343400
-0.978700 1.304500
-0.956000 1.253600
-0.933400 1.275600
-0.910800 1.403800
-0.888100 1.536900
-0.865500 1.681000
-0.842900 1.795300
-0.820200 1.837900
-0.797600 1.875100
-0.774900 1.900600
-0.752300 1.932500
-0.729700 1.928200
-0.707000 1.872100
-0.684400 1.859300
-0.661800 1.842400
-0.639100 1.806100
-0.616500 1.791900
-0.593900 1.778400
-0.571200 1.606900
-0.548600 1.248200
-0.525900 1.118500
-0.503300 1.044400
-0.480700 0.989000
-0.458000 0.936300
-0.435400 0.887200
-0.412800 0.851700
-0.390100 0.830600
-0.367500 0.839000
-0.344900 1.574900
-0.322200 0.836600
-0.299600 0.926400
-0.276900 0.990600
-0.254300 1.532100
-0.231700 1.748700
-0.209000 1.960700
-0.186400 2.166800
-0.163800 2.026300
-0.141100 2.048600
-0.118500 2.082900
-0.095900 2.063100
-0.073200 1.861200
-0.050600 1.824600
-0.027900 1.866800
-0.005300 1.860200
0.017300 2.020100
0.040000 2.745400
0.062600 3.145600
0.085200 3.622700
0.107900 4.338800
0.130500 3.962500
0.153100 3.776300
0.175800 3.245900
0.198400 3.161500
0.221100 3.175400
0.243700 3.561500
0.266300 4.714100
0.289000 5.211300
0.311600 6.483800
0.334200 5.598000
0.356900 4.279500
0.379500 4.500900
0.402100 3.781300
0.424800 5.660400
0.447400 1.537400
0.470100 1.418400
0.492700 1.440800
0.515300 1.497200
0.538000 1.361100
0.560600 1.325300
0.583200 1.293700
0.605900 1.264300
0.628500 1.207800
0.651100 1.326200
0.673800 1.342400
0.696400 1.335800
0.719100 1.325500
0.741700 1.315200
0.764300 1.304900
0.787000 1.294600
0.809600 1.280100
0.832200 1.261100
0.854900 1.241700
0.877500 1.170600
0.900200 0.958400
0.922800 0.884200
0.945400 1.121700
0.968100 1.233600
0.990700 1.293700
1.013300 1.360300
1.036000 1.404700
1.058600 1.497200
1.081200 1.710400
1.103900 1.887300
1.126500 2.103800
1.149200 2.132300
1.171800 1.807100
1.194400 1.548000
1.217100 1.271700
1.239700 10.041200
1.262300 0.845200
1.285000 0.821100
1.307600 0.796900
1.330200 0.772800
1.352900 0.760700
1.375500 0.752300
1.398200 1.229000
1.420800 1.581400
1.443400 1.378500
1.466100 1.524600
1.488700 1.680700
1.511300 2.177800
1.534000 2.685400
1.556600 3.055000
1.579200 3.373800
1.601900 3.287500
1.624500 3.224500
1.647200 3.197200
1.669800 3.149200
1.692400 2.759400
1.715100 1.981900
1.737700 2.294500
1.760300 1.918300
1.783000 1.803900
1.805600 1.716100
1.828200 1.581700
1.850900 3.012200
1.873500 1.493300
1.896200 1.389000
1.918800 1.326600
1.941400 1.242900
1.964100 1.299400
1.986700 1.328100
2.009300 1.359600
2.032000 1.393100
2.054600 1.429300
2.077200 1.465900
2.099900 1.486200
2.122500 1.995700
2.145200 1.496100
2.167800 1.438300
2.190400 1.411300
2.213100 1.368800
2.235700 1.322200
2.258300 1.283900
2.281000 1.259500
2.303600 1.241400
2.326200 1.230200
2.348900 1.158100
2.371500 1.118400
2.394200 1.091400
2.416800 1.078300
2.439400 1.291900
2.462100 1.564200
2.484700 1.857500
2.507300 2.220000
2.530000 2.545500
2.552600 1.963800
2.575200 1.934000
2.597900 2.017800
2.620500 1.959400
2.643200 1.901500
2.665800 1.826100
2.688400 1.748800
2.711100 1.789300
2.733700 1.745600
2.756300 1.761100
2.779000 1.791300
2.801600 1.929400
2.824300 1.655000
2.846900 1.602400
2.869500 1.549800
2.892200 1.810000
2.914800 1.731000
2.937400 1.603500
2.960100 1.445000
2.982700 1.016200
3.005300 0.978700
3.028000 0.941100
3.050600 0.903600
3.073300 0.866100
3.095900 0.826900
3.118500 0.748500
3.141200 0.737900
3.163800 0.742300
3.186400 0.762800
3.209100 0.745100
3.231700 0.729200
3.254300 0.750600
3.277000 0.739200
3.299600 0.717400
3.322300 0.705600
3.344900 0.703900
3.367500 0.702200
3.390200 0.700500
3.412800 0.724400
3.435400 0.765000
3.458100 0.805700
3.480700 0.846400
3.503300 0.882400
3.526000 0.858500
3.548600 0.833400
3.571300 0.795800
3.593900 0.761800
3.616500 0.727800
3.639200 0.693800
3.661800 0.659900
3.684400 0.633000
3.707100 0.619300
3.729700 0.619300
3.752300 0.619400
3.775000 0.619400
3.797600 0.619400
3.820300 0.619400
3.842900 0.619500
3.865500 0.619500
3.888200 0.624300
3.910800 0.639900
3.933400 0.662800
3.956100 0.685700
3.978700 0.702800
4.001300 0.731500
4.024000 0.773500
4.046600 0.792100
4.069300 0.778300
4.091900 0.763800
4.114500 0.748100
4.137200 0.722900
4.159800 0.695600
4.182400 0.668400
4.205100 0.641200
4.227700 0.614000
4.250300 0.598900
4.273000 0.592400
4.295600 0.585900
4.318300 0.579500
4.340900 0.573000
4.363500 0.566500
4.386200 0.560000
4.408800 0.553600
4.431400 0.547100
4.454100 0.539800
4.476700 0.530900
4.499300 0.522100
4.522000 0.513200
4.544600 0.504400
4.567300 0.495500
4.589900 0.486700
4.612500 0.477800
4.635200 0.469000
4.657800 0.460100
4.680400 0.451300
4.703100 0.442500
4.725700 0.385200
4.748400 0.351600
4.771000 0.338900
4.793600 0.326200
4.816300 0.313400
4.838900 0.300700
4.861500 0.288000
4.884200 0.275200
4.906800 0.262500
4.929400 0.249700
4.952100 0.237000
4.974700 0.224300
4.997400 0.211500
5.020000 0.198800
5.042600 0.187300
5.065300 0.196700
5.087900 0.206100
5.110500 0.215900
5.133200 0.235200
5.155800 0.242200
5.178400 0.249100
5.201100 0.256000
5.223700 0.263000
5.246400 0.270000
5.269000 0.276900
5.291600 0.283900
5.314300 0.290800
5.336900 0.296700
5.359500 0.304400
5.382200 0.312100
5.404800 0.319800
5.427400 0.327500
5.450100 0.335300
5.472700 0.343400
5.495400 0.351500
5.518000 0.359600
5.540600 0.367600
5.563300 0.375700
5.585900 0.383800
5.608500 0.391800
5.631200 0.399900
5.653800 0.407500
5.676400 0.408900
5.699100 0.410300
5.721700 0.411600
5.744400 0.413000
5.767000 0.414400
5.789600 0.415800
5.812300 0.811500
5.834900 0.808200
5.857500 0.804900
5.880200 0.801500
5.902800 0.472900
5.925400 0.467900
5.948100 0.463000
5.970700 0.458100
5.993400 0.453200
6.016000 0.448300
6.038600 0.443400
6.061300 0.438500
6.083900 0.433600
6.106500 0.428600
6.129200 0.425000
6.151800 0.423100
6.174400 0.421100
6.197100 0.419200
6.219700 0.417900
6.242400 0.416700
6.265000 0.415500
6.287600 0.414200
6.310300 0.413000
6.332900 0.411700
6.355500 0.410500
6.378200 0.409200
6.400800 0.408000
6.423400 0.406800
6.446100 0.415700
6.468700 0.428000
6.491400 0.413600
6.514000 0.430200
6.536600 0.446800
6.559300 0.463400
6.581900 0.340100
6.604500 1.009000
6.627200 0.410300
6.649800 0.422800
6.672500 0.436500
6.695100 0.451200
6.717700 0.467000
6.740400 0.483700
6.763000 0.501500
6.785600 0.520400
6.808300 0.565200
6.830900 0.598800
6.853500 0.606300
6.876200 0.608400
6.898800 0.611400
6.921500 0.615600
6.944100 0.620500
6.966700 0.655500
6.989400 0.664100
7.012000 0.664700
7.034600 0.681600
7.057300 0.693700
7.079900 0.698600
7.102500 0.854400
7.125200 0.837300
7.147800 0.753200
7.170500 0.688400
7.193100 0.616100
7.215700 0.502400
7.238400 0.476000
7.261000 0.475400
7.283600 0.474400
7.306300 0.470400
7.328900 0.468500
7.351500 0.466000
7.374200 0.456500
7.396800 0.440000
7.419500 0.426800
7.442100 0.416400
7.464700 0.475000
7.487400 0.581300
7.510000 0.696000
7.532600 0.752200
7.555300 0.793700
7.577900 0.828600
7.600500 0.957200
7.623200 0.951800
7.645800 0.921600
7.668500 0.914100
7.691100 0.916700
